Name: Chorisia insignis
Type: vegetation
Class: Tree
Genus: Chorisia
Species: insignis
Sample No.: JPL136
Owner: JPL
Wavelength Range: VSWIR
Origin: 34.1268; -118.11025;; WGS84
Collection Date: 9/7/2016
Description: Samples were collected at the Huntington Garden in San Marino California as part of a JPL Subcontract studying HyTES imagery. Samples were taken to JPL and processed within 48 hours of collection. The same leaves were processed in the Nicolet and then measured using the ASD.
Measurement: Bidirectional reflectance
First Column: X
Second Column: Y
X Units: Wavelength (micrometer)
Y Units: Reflectance (percentage)
First X Value: 0.35
Last X Value: 2.5
Number of X Values: 2151
Additional Information: vegetation.tree.chorisia.insignis.vswir.jpl136.jpl.asd.ancillary.txt

 0.3500	 5.0900
 0.3510	 5.2100
 0.3520	 5.3060
 0.3530	 5.2550
 0.3540	 5.0800
 0.3550	 5.1420
 0.3560	 5.1210
 0.3570	 5.0470
 0.3580	 5.0980
 0.3590	 5.0730
 0.3600	 5.0070
 0.3610	 4.9470
 0.3620	 4.9210
 0.3630	 4.9380
 0.3640	 4.9610
 0.3650	 4.9560
 0.3660	 4.9630
 0.3670	 4.9590
 0.3680	 4.9430
 0.3690	 4.9290
 0.3700	 4.9700
 0.3710	 4.9640
 0.3720	 4.8890
 0.3730	 4.8990
 0.3740	 4.9290
 0.3750	 4.9650
 0.3760	 4.9900
 0.3770	 4.9330
 0.3780	 4.9040
 0.3790	 4.9300
 0.3800	 4.9590
 0.3810	 4.9410
 0.3820	 4.9220
 0.3830	 4.9350
 0.3840	 4.9540
 0.3850	 4.9200
 0.3860	 4.9150
 0.3870	 5.0190
 0.3880	 4.9940
 0.3890	 4.9520
 0.3900	 4.9540
 0.3910	 4.9810
 0.3920	 4.9990
 0.3930	 5.0140
 0.3940	 5.0330
 0.3950	 5.0390
 0.3960	 5.0360
 0.3970	 5.0510
 0.3980	 5.1070
 0.3990	 5.1060
 0.4000	 5.0990
 0.4010	 5.1140
 0.4020	 5.1200
 0.4030	 5.1420
 0.4040	 5.1700
 0.4050	 5.1910
 0.4060	 5.1960
 0.4070	 5.1950
 0.4080	 5.2030
 0.4090	 5.2310
 0.4100	 5.2490
 0.4110	 5.2600
 0.4120	 5.2700
 0.4130	 5.2800
 0.4140	 5.2950
 0.4150	 5.3130
 0.4160	 5.3300
 0.4170	 5.3350
 0.4180	 5.3500
 0.4190	 5.3670
 0.4200	 5.3580
 0.4210	 5.3620
 0.4220	 5.3660
 0.4230	 5.3610
 0.4240	 5.3710
 0.4250	 5.3810
 0.4260	 5.3890
 0.4270	 5.3950
 0.4280	 5.3930
 0.4290	 5.3960
 0.4300	 5.4080
 0.4310	 5.4120
 0.4320	 5.4210
 0.4330	 5.4280
 0.4340	 5.4260
 0.4350	 5.4330
 0.4360	 5.4370
 0.4370	 5.4360
 0.4380	 5.4360
 0.4390	 5.4330
 0.4400	 5.4370
 0.4410	 5.4500
 0.4420	 5.4560
 0.4430	 5.4610
 0.4440	 5.4690
 0.4450	 5.4840
 0.4460	 5.4920
 0.4470	 5.4970
 0.4480	 5.5050
 0.4490	 5.5210
 0.4500	 5.5320
 0.4510	 5.5390
 0.4520	 5.5450
 0.4530	 5.5510
 0.4540	 5.5560
 0.4550	 5.5610
 0.4560	 5.5740
 0.4570	 5.5830
 0.4580	 5.5850
 0.4590	 5.5820
 0.4600	 5.5880
 0.4610	 5.5910
 0.4620	 5.5920
 0.4630	 5.5940
 0.4640	 5.6010
 0.4650	 5.6050
 0.4660	 5.6020
 0.4670	 5.5980
 0.4680	 5.6000
 0.4690	 5.6070
 0.4700	 5.6140
 0.4710	 5.6090
 0.4720	 5.6050
 0.4730	 5.6060
 0.4740	 5.6130
 0.4750	 5.6170
 0.4760	 5.6160
 0.4770	 5.6150
 0.4780	 5.6290
 0.4790	 5.6310
 0.4800	 5.6290
 0.4810	 5.6340
 0.4820	 5.6350
 0.4830	 5.6340
 0.4840	 5.6370
 0.4850	 5.6480
 0.4860	 5.6540
 0.4870	 5.6570
 0.4880	 5.6620
 0.4890	 5.6710
 0.4900	 5.6810
 0.4910	 5.6910
 0.4920	 5.7020
 0.4930	 5.7110
 0.4940	 5.7260
 0.4950	 5.7460
 0.4960	 5.7640
 0.4970	 5.7840
 0.4980	 5.8080
 0.4990	 5.8340
 0.5000	 5.8580
 0.5010	 5.8880
 0.5020	 5.9240
 0.5030	 5.9620
 0.5040	 6.0050
 0.5050	 6.0540
 0.5060	 6.1100
 0.5070	 6.1730
 0.5080	 6.2360
 0.5090	 6.3040
 0.5100	 6.3850
 0.5110	 6.4740
 0.5120	 6.5710
 0.5130	 6.6770
 0.5140	 6.7950
 0.5150	 6.9210
 0.5160	 7.0580
 0.5170	 7.2070
 0.5180	 7.3600
 0.5190	 7.5240
 0.5200	 7.6960
 0.5210	 7.8680
 0.5220	 8.0410
 0.5230	 8.2210
 0.5240	 8.4050
 0.5250	 8.5820
 0.5260	 8.7510
 0.5270	 8.9130
 0.5280	 9.0680
 0.5290	 9.2150
 0.5300	 9.3540
 0.5310	 9.4820
 0.5320	 9.5890
 0.5330	 9.6920
 0.5340	 9.7850
 0.5350	 9.8660
 0.5360	 9.9390
 0.5370	10.0030
 0.5380	10.0580
 0.5390	10.1130
 0.5400	10.1670
 0.5410	10.2230
 0.5420	10.2780
 0.5430	10.3230
 0.5440	10.3560
 0.5450	10.3800
 0.5460	10.3960
 0.5470	10.4000
 0.5480	10.4070
 0.5490	10.4210
 0.5500	10.4330
 0.5510	10.4400
 0.5520	10.4380
 0.5530	10.4240
 0.5540	10.3990
 0.5550	10.3630
 0.5560	10.3170
 0.5570	10.2610
 0.5580	10.1950
 0.5590	10.1200
 0.5600	10.0370
 0.5610	 9.9430
 0.5620	 9.8430
 0.5630	 9.7420
 0.5640	 9.6380
 0.5650	 9.5270
 0.5660	 9.4110
 0.5670	 9.2930
 0.5680	 9.1770
 0.5690	 9.0600
 0.5700	 8.9410
 0.5710	 8.8220
 0.5720	 8.7090
 0.5730	 8.6040
 0.5740	 8.5080
 0.5750	 8.4180
 0.5760	 8.3370
 0.5770	 8.2580
 0.5780	 8.1800
 0.5790	 8.1070
 0.5800	 8.0390
 0.5810	 7.9770
 0.5820	 7.9200
 0.5830	 7.8660
 0.5840	 7.8160
 0.5850	 7.7670
 0.5860	 7.7190
 0.5870	 7.6730
 0.5880	 7.6260
 0.5890	 7.5780
 0.5900	 7.5410
 0.5910	 7.5150
 0.5920	 7.4960
 0.5930	 7.4750
 0.5940	 7.4530
 0.5950	 7.4320
 0.5960	 7.4140
 0.5970	 7.3970
 0.5980	 7.3800
 0.5990	 7.3620
 0.6000	 7.3410
 0.6010	 7.3180
 0.6020	 7.2920
 0.6030	 7.2650
 0.6040	 7.2350
 0.6050	 7.2010
 0.6060	 7.1620
 0.6070	 7.1200
 0.6080	 7.0750
 0.6090	 7.0310
 0.6100	 6.9900
 0.6110	 6.9510
 0.6120	 6.9030
 0.6130	 6.8490
 0.6140	 6.7960
 0.6150	 6.7490
 0.6160	 6.7040
 0.6170	 6.6620
 0.6180	 6.6240
 0.6190	 6.5890
 0.6200	 6.5590
 0.6210	 6.5340
 0.6220	 6.5120
 0.6230	 6.4900
 0.6240	 6.4700
 0.6250	 6.4560
 0.6260	 6.4450
 0.6270	 6.4320
 0.6280	 6.4200
 0.6290	 6.4140
 0.6300	 6.4100
 0.6310	 6.4050
 0.6320	 6.3960
 0.6330	 6.3850
 0.6340	 6.3720
 0.6350	 6.3540
 0.6360	 6.3320
 0.6370	 6.3100
 0.6380	 6.2830
 0.6390	 6.2510
 0.6400	 6.2200
 0.6410	 6.1890
 0.6420	 6.1560
 0.6430	 6.1220
 0.6440	 6.0890
 0.6450	 6.0570
 0.6460	 6.0250
 0.6470	 5.9930
 0.6480	 5.9680
 0.6490	 5.9430
 0.6500	 5.9190
 0.6510	 5.9000
 0.6520	 5.8850
 0.6530	 5.8720
 0.6540	 5.8600
 0.6550	 5.8480
 0.6560	 5.8340
 0.6570	 5.8160
 0.6580	 5.7940
 0.6590	 5.7780
 0.6600	 5.7590
 0.6610	 5.7360
 0.6620	 5.7190
 0.6630	 5.7040
 0.6640	 5.6910
 0.6650	 5.6810
 0.6660	 5.6750
 0.6670	 5.6730
 0.6680	 5.6760
 0.6690	 5.6810
 0.6700	 5.6910
 0.6710	 5.7060
 0.6720	 5.7240
 0.6730	 5.7430
 0.6740	 5.7660
 0.6750	 5.7940
 0.6760	 5.8240
 0.6770	 5.8590
 0.6780	 5.8980
 0.6790	 5.9390
 0.6800	 5.9840
 0.6810	 6.0300
 0.6820	 6.0800
 0.6830	 6.1330
 0.6840	 6.1860
 0.6850	 6.2390
 0.6860	 6.2950
 0.6870	 6.3540
 0.6880	 6.4220
 0.6890	 6.5050
 0.6900	 6.6070
 0.6910	 6.7380
 0.6920	 6.8990
 0.6930	 7.1020
 0.6940	 7.3550
 0.6950	 7.6590
 0.6960	 8.0220
 0.6970	 8.4430
 0.6980	 8.9150
 0.6990	 9.4350
 0.7000	10.0010
 0.7010	10.6050
 0.7020	11.2400
 0.7030	11.8980
 0.7040	12.5730
 0.7050	13.2610
 0.7060	13.9570
 0.7070	14.6610
 0.7080	15.3670
 0.7090	16.0750
 0.7100	16.7840
 0.7110	17.4980
 0.7120	18.2140
 0.7130	18.9280
 0.7140	19.6380
 0.7150	20.3440
 0.7160	21.0450
 0.7170	21.7450
 0.7180	22.4350
 0.7190	23.1170
 0.7200	23.7890
 0.7210	24.4480
 0.7220	25.0920
 0.7230	25.7180
 0.7240	26.3280
 0.7250	26.9180
 0.7260	27.4870
 0.7270	28.0350
 0.7280	28.5580
 0.7290	29.0590
 0.7300	29.5390
 0.7310	29.9950
 0.7320	30.4250
 0.7330	30.8310
 0.7340	31.2160
 0.7350	31.5780
 0.7360	31.9210
 0.7370	32.2400
 0.7380	32.5360
 0.7390	32.8150
 0.7400	33.0750
 0.7410	33.3140
 0.7420	33.5350
 0.7430	33.7380
 0.7440	33.9240
 0.7450	34.0920
 0.7460	34.2450
 0.7470	34.3840
 0.7480	34.5120
 0.7490	34.6270
 0.7500	34.7250
 0.7510	34.8140
 0.7520	34.8960
 0.7530	34.9710
 0.7540	35.0360
 0.7550	35.0960
 0.7560	35.1490
 0.7570	35.1960
 0.7580	35.2360
 0.7590	35.2720
 0.7600	35.3060
 0.7610	35.3370
 0.7620	35.3610
 0.7630	35.3800
 0.7640	35.3980
 0.7650	35.4150
 0.7660	35.4290
 0.7670	35.4410
 0.7680	35.4490
 0.7690	35.4570
 0.7700	35.4630
 0.7710	35.4680
 0.7720	35.4720
 0.7730	35.4770
 0.7740	35.4820
 0.7750	35.4860
 0.7760	35.4900
 0.7770	35.4920
 0.7780	35.4940
 0.7790	35.4980
 0.7800	35.5020
 0.7810	35.5050
 0.7820	35.5080
 0.7830	35.5090
 0.7840	35.5080
 0.7850	35.5100
 0.7860	35.5130
 0.7870	35.5140
 0.7880	35.5160
 0.7890	35.5160
 0.7900	35.5150
 0.7910	35.5150
 0.7920	35.5150
 0.7930	35.5130
 0.7940	35.5110
 0.7950	35.5100
 0.7960	35.5080
 0.7970	35.5010
 0.7980	35.4950
 0.7990	35.4900
 0.8000	35.4860
 0.8010	35.4820
 0.8020	35.4770
 0.8030	35.4690
 0.8040	35.4630
 0.8050	35.4590
 0.8060	35.4520
 0.8070	35.4430
 0.8080	35.4340
 0.8090	35.4270
 0.8100	35.4200
 0.8110	35.4120
 0.8120	35.4030
 0.8130	35.3930
 0.8140	35.3820
 0.8150	35.3710
 0.8160	35.3610
 0.8170	35.3520
 0.8180	35.3450
 0.8190	35.3370
 0.8200	35.3250
 0.8210	35.3130
 0.8220	35.3030
 0.8230	35.2930
 0.8240	35.2810
 0.8250	35.2710
 0.8260	35.2610
 0.8270	35.2520
 0.8280	35.2460
 0.8290	35.2350
 0.8300	35.2230
 0.8310	35.2150
 0.8320	35.2020
 0.8330	35.1940
 0.8340	35.1880
 0.8350	35.1790
 0.8360	35.1720
 0.8370	35.1640
 0.8380	35.1570
 0.8390	35.1500
 0.8400	35.1450
 0.8410	35.1410
 0.8420	35.1380
 0.8430	35.1360
 0.8440	35.1310
 0.8450	35.1280
 0.8460	35.1280
 0.8470	35.1230
 0.8480	35.1190
 0.8490	35.1160
 0.8500	35.1110
 0.8510	35.1100
 0.8520	35.1060
 0.8530	35.1030
 0.8540	35.1040
 0.8550	35.1040
 0.8560	35.1020
 0.8570	35.1000
 0.8580	35.1040
 0.8590	35.1070
 0.8600	35.1110
 0.8610	35.1160
 0.8620	35.1200
 0.8630	35.1200
 0.8640	35.1180
 0.8650	35.1190
 0.8660	35.1220
 0.8670	35.1260
 0.8680	35.1300
 0.8690	35.1380
 0.8700	35.1430
 0.8710	35.1480
 0.8720	35.1520
 0.8730	35.1570
 0.8740	35.1610
 0.8750	35.1650
 0.8760	35.1700
 0.8770	35.1780
 0.8780	35.1850
 0.8790	35.1920
 0.8800	35.1970
 0.8810	35.1990
 0.8820	35.2050
 0.8830	35.2130
 0.8840	35.2200
 0.8850	35.2290
 0.8860	35.2360
 0.8870	35.2410
 0.8880	35.2450
 0.8890	35.2510
 0.8900	35.2590
 0.8910	35.2680
 0.8920	35.2740
 0.8930	35.2800
 0.8940	35.2840
 0.8950	35.2900
 0.8960	35.3000
 0.8970	35.3100
 0.8980	35.3160
 0.8990	35.3200
 0.9000	35.3290
 0.9010	35.3380
 0.9020	35.3450
 0.9030	35.3510
 0.9040	35.3580
 0.9050	35.3670
 0.9060	35.3730
 0.9070	35.3760
 0.9080	35.3810
 0.9090	35.3840
 0.9100	35.3860
 0.9110	35.3880
 0.9120	35.3920
 0.9130	35.4010
 0.9140	35.4080
 0.9150	35.4090
 0.9160	35.4080
 0.9170	35.4080
 0.9180	35.4070
 0.9190	35.4060
 0.9200	35.4060
 0.9210	35.4070
 0.9220	35.4060
 0.9230	35.4040
 0.9240	35.4060
 0.9250	35.4040
 0.9260	35.3970
 0.9270	35.3880
 0.9280	35.3770
 0.9290	35.3680
 0.9300	35.3620
 0.9310	35.3510
 0.9320	35.3370
 0.9330	35.3240
 0.9340	35.3120
 0.9350	35.3040
 0.9360	35.2910
 0.9370	35.2740
 0.9380	35.2580
 0.9390	35.2460
 0.9400	35.2330
 0.9410	35.2170
 0.9420	35.1960
 0.9430	35.1730
 0.9440	35.1600
 0.9450	35.1440
 0.9460	35.1160
 0.9470	35.0880
 0.9480	35.0650
 0.9490	35.0380
 0.9500	35.0010
 0.9510	34.9670
 0.9520	34.9330
 0.9530	34.8980
 0.9540	34.8600
 0.9550	34.8220
 0.9560	34.7930
 0.9570	34.7650
 0.9580	34.7300
 0.9590	34.7020
 0.9600	34.6790
 0.9610	34.6570
 0.9620	34.6290
 0.9630	34.6100
 0.9640	34.5970
 0.9650	34.5850
 0.9660	34.5720
 0.9670	34.5530
 0.9680	34.5400
 0.9690	34.5310
 0.9700	34.5220
 0.9710	34.5130
 0.9720	34.5060
 0.9730	34.5010
 0.9740	34.4980
 0.9750	34.4930
 0.9760	34.4960
 0.9770	34.4990
 0.9780	34.4950
 0.9790	34.4950
 0.9800	34.4910
 0.9810	34.4880
 0.9820	34.4930
 0.9830	34.4920
 0.9840	34.4910
 0.9850	34.4920
 0.9860	34.4970
 0.9870	34.5030
 0.9880	34.5090
 0.9890	34.5160
 0.9900	34.5220
 0.9910	34.5270
 0.9920	34.5340
 0.9930	34.5400
 0.9940	34.5440
 0.9950	34.5390
 0.9960	34.5440
 0.9970	34.5550
 0.9980	34.5630
 0.9990	34.5770
 1.0000	34.5910
 1.0010	35.5060
 1.0020	35.5180
 1.0030	35.5260
 1.0040	35.5340
 1.0050	35.5430
 1.0060	35.5510
 1.0070	35.5590
 1.0080	35.5670
 1.0090	35.5750
 1.0100	35.5840
 1.0110	35.5940
 1.0120	35.6030
 1.0130	35.6120
 1.0140	35.6210
 1.0150	35.6280
 1.0160	35.6380
 1.0170	35.6470
 1.0180	35.6520
 1.0190	35.6580
 1.0200	35.6650
 1.0210	35.6720
 1.0220	35.6810
 1.0230	35.6910
 1.0240	35.7030
 1.0250	35.7120
 1.0260	35.7190
 1.0270	35.7270
 1.0280	35.7320
 1.0290	35.7390
 1.0300	35.7480
 1.0310	35.7570
 1.0320	35.7660
 1.0330	35.7750
 1.0340	35.7820
 1.0350	35.7890
 1.0360	35.7950
 1.0370	35.8030
 1.0380	35.8100
 1.0390	35.8150
 1.0400	35.8220
 1.0410	35.8260
 1.0420	35.8330
 1.0430	35.8410
 1.0440	35.8490
 1.0450	35.8600
 1.0460	35.8660
 1.0470	35.8700
 1.0480	35.8740
 1.0490	35.8760
 1.0500	35.8790
 1.0510	35.8830
 1.0520	35.8880
 1.0530	35.8920
 1.0540	35.8960
 1.0550	35.8990
 1.0560	35.9030
 1.0570	35.9050
 1.0580	35.9050
 1.0590	35.9050
 1.0600	35.9040
 1.0610	35.9030
 1.0620	35.9030
 1.0630	35.9030
 1.0640	35.9020
 1.0650	35.9010
 1.0660	35.9030
 1.0670	35.9020
 1.0680	35.9000
 1.0690	35.8970
 1.0700	35.8950
 1.0710	35.8920
 1.0720	35.8900
 1.0730	35.8910
 1.0740	35.8890
 1.0750	35.8850
 1.0760	35.8820
 1.0770	35.8760
 1.0780	35.8740
 1.0790	35.8740
 1.0800	35.8720
 1.0810	35.8710
 1.0820	35.8680
 1.0830	35.8630
 1.0840	35.8580
 1.0850	35.8540
 1.0860	35.8490
 1.0870	35.8450
 1.0880	35.8420
 1.0890	35.8380
 1.0900	35.8350
 1.0910	35.8290
 1.0920	35.8220
 1.0930	35.8160
 1.0940	35.8080
 1.0950	35.8030
 1.0960	35.8010
 1.0970	35.7960
 1.0980	35.7890
 1.0990	35.7840
 1.1000	35.7810
 1.1010	35.7760
 1.1020	35.7710
 1.1030	35.7680
 1.1040	35.7600
 1.1050	35.7500
 1.1060	35.7420
 1.1070	35.7340
 1.1080	35.7270
 1.1090	35.7230
 1.1100	35.7170
 1.1110	35.7120
 1.1120	35.7050
 1.1130	35.6960
 1.1140	35.6880
 1.1150	35.6790
 1.1160	35.6700
 1.1170	35.6620
 1.1180	35.6510
 1.1190	35.6410
 1.1200	35.6280
 1.1210	35.6120
 1.1220	35.5960
 1.1230	35.5780
 1.1240	35.5560
 1.1250	35.5330
 1.1260	35.5090
 1.1270	35.4810
 1.1280	35.4500
 1.1290	35.4150
 1.1300	35.3760
 1.1310	35.3320
 1.1320	35.2830
 1.1330	35.2320
 1.1340	35.1770
 1.1350	35.1180
 1.1360	35.0560
 1.1370	34.9910
 1.1380	34.9200
 1.1390	34.8480
 1.1400	34.7730
 1.1410	34.6950
 1.1420	34.6150
 1.1430	34.5340
 1.1440	34.4540
 1.1450	34.3720
 1.1460	34.2940
 1.1470	34.2160
 1.1480	34.1420
 1.1490	34.0700
 1.1500	34.0030
 1.1510	33.9390
 1.1520	33.8800
 1.1530	33.8240
 1.1540	33.7730
 1.1550	33.7270
 1.1560	33.6850
 1.1570	33.6470
 1.1580	33.6150
 1.1590	33.5860
 1.1600	33.5590
 1.1610	33.5340
 1.1620	33.5120
 1.1630	33.4920
 1.1640	33.4740
 1.1650	33.4590
 1.1660	33.4470
 1.1670	33.4350
 1.1680	33.4260
 1.1690	33.4170
 1.1700	33.4070
 1.1710	33.3990
 1.1720	33.3930
 1.1730	33.3860
 1.1740	33.3780
 1.1750	33.3730
 1.1760	33.3650
 1.1770	33.3570
 1.1780	33.3500
 1.1790	33.3420
 1.1800	33.3330
 1.1810	33.3250
 1.1820	33.3180
 1.1830	33.3090
 1.1840	33.3000
 1.1850	33.2920
 1.1860	33.2840
 1.1870	33.2760
 1.1880	33.2680
 1.1890	33.2600
 1.1900	33.2530
 1.1910	33.2450
 1.1920	33.2390
 1.1930	33.2360
 1.1940	33.2320
 1.1950	33.2280
 1.1960	33.2250
 1.1970	33.2220
 1.1980	33.2200
 1.1990	33.2210
 1.2000	33.2230
 1.2010	33.2260
 1.2020	33.2300
 1.2030	33.2340
 1.2040	33.2380
 1.2050	33.2440
 1.2060	33.2510
 1.2070	33.2590
 1.2080	33.2670
 1.2090	33.2750
 1.2100	33.2840
 1.2110	33.2930
 1.2120	33.3010
 1.2130	33.3110
 1.2140	33.3200
 1.2150	33.3310
 1.2160	33.3420
 1.2170	33.3550
 1.2180	33.3670
 1.2190	33.3790
 1.2200	33.3910
 1.2210	33.4010
 1.2220	33.4110
 1.2230	33.4220
 1.2240	33.4320
 1.2250	33.4430
 1.2260	33.4550
 1.2270	33.4670
 1.2280	33.4770
 1.2290	33.4880
 1.2300	33.4980
 1.2310	33.5060
 1.2320	33.5160
 1.2330	33.5260
 1.2340	33.5340
 1.2350	33.5420
 1.2360	33.5500
 1.2370	33.5590
 1.2380	33.5660
 1.2390	33.5740
 1.2400	33.5810
 1.2410	33.5870
 1.2420	33.5920
 1.2430	33.5980
 1.2440	33.6040
 1.2450	33.6100
 1.2460	33.6170
 1.2470	33.6220
 1.2480	33.6260
 1.2490	33.6310
 1.2500	33.6350
 1.2510	33.6380
 1.2520	33.6420
 1.2530	33.6440
 1.2540	33.6470
 1.2550	33.6490
 1.2560	33.6500
 1.2570	33.6520
 1.2580	33.6540
 1.2590	33.6550
 1.2600	33.6560
 1.2610	33.6550
 1.2620	33.6520
 1.2630	33.6500
 1.2640	33.6460
 1.2650	33.6430
 1.2660	33.6400
 1.2670	33.6370
 1.2680	33.6320
 1.2690	33.6280
 1.2700	33.6230
 1.2710	33.6170
 1.2720	33.6100
 1.2730	33.6040
 1.2740	33.5970
 1.2750	33.5880
 1.2760	33.5790
 1.2770	33.5700
 1.2780	33.5580
 1.2790	33.5470
 1.2800	33.5350
 1.2810	33.5200
 1.2820	33.5050
 1.2830	33.4890
 1.2840	33.4720
 1.2850	33.4560
 1.2860	33.4380
 1.2870	33.4180
 1.2880	33.3980
 1.2890	33.3760
 1.2900	33.3510
 1.2910	33.3240
 1.2920	33.2970
 1.2930	33.2700
 1.2940	33.2400
 1.2950	33.2100
 1.2960	33.1760
 1.2970	33.1410
 1.2980	33.1060
 1.2990	33.0700
 1.3000	33.0340
 1.3010	32.9950
 1.3020	32.9540
 1.3030	32.9130
 1.3040	32.8710
 1.3050	32.8290
 1.3060	32.7860
 1.3070	32.7410
 1.3080	32.6960
 1.3090	32.6490
 1.3100	32.5990
 1.3110	32.5490
 1.3120	32.4960
 1.3130	32.4430
 1.3140	32.3880
 1.3150	32.3320
 1.3160	32.2740
 1.3170	32.2150
 1.3180	32.1550
 1.3190	32.0930
 1.3200	32.0290
 1.3210	31.9670
 1.3220	31.9020
 1.3230	31.8350
 1.3240	31.7680
 1.3250	31.6990
 1.3260	31.6270
 1.3270	31.5530
 1.3280	31.4780
 1.3290	31.4030
 1.3300	31.3270
 1.3310	31.2500
 1.3320	31.1730
 1.3330	31.0940
 1.3340	31.0140
 1.3350	30.9340
 1.3360	30.8530
 1.3370	30.7720
 1.3380	30.6910
 1.3390	30.6120
 1.3400	30.5330
 1.3410	30.4550
 1.3420	30.3770
 1.3430	30.2980
 1.3440	30.2200
 1.3450	30.1420
 1.3460	30.0650
 1.3470	29.9890
 1.3480	29.9130
 1.3490	29.8380
 1.3500	29.7640
 1.3510	29.6890
 1.3520	29.6140
 1.3530	29.5400
 1.3540	29.4650
 1.3550	29.3900
 1.3560	29.3140
 1.3570	29.2370
 1.3580	29.1590
 1.3590	29.0790
 1.3600	28.9970
 1.3610	28.9130
 1.3620	28.8250
 1.3630	28.7330
 1.3640	28.6370
 1.3650	28.5350
 1.3660	28.4290
 1.3670	28.3170
 1.3680	28.1970
 1.3690	28.0700
 1.3700	27.9340
 1.3710	27.7890
 1.3720	27.6330
 1.3730	27.4640
 1.3740	27.2850
 1.3750	27.0920
 1.3760	26.8830
 1.3770	26.6590
 1.3780	26.4160
 1.3790	26.1580
 1.3800	25.8830
 1.3810	25.5870
 1.3820	25.2780
 1.3830	24.9540
 1.3840	24.6140
 1.3850	24.2600
 1.3860	23.8940
 1.3870	23.5110
 1.3880	23.1240
 1.3890	22.7270
 1.3900	22.3210
 1.3910	21.9130
 1.3920	21.5000
 1.3930	21.0820
 1.3940	20.6670
 1.3950	20.2480
 1.3960	19.8350
 1.3970	19.4310
 1.3980	19.0340
 1.3990	18.6500
 1.4000	18.2780
 1.4010	17.9130
 1.4020	17.5660
 1.4030	17.2300
 1.4040	16.9090
 1.4050	16.6060
 1.4060	16.3170
 1.4070	16.0470
 1.4080	15.7910
 1.4090	15.5510
 1.4100	15.3260
 1.4110	15.1150
 1.4120	14.9180
 1.4130	14.7360
 1.4140	14.5660
 1.4150	14.4110
 1.4160	14.2680
 1.4170	14.1340
 1.4180	14.0120
 1.4190	13.8970
 1.4200	13.7920
 1.4210	13.6970
 1.4220	13.6090
 1.4230	13.5290
 1.4240	13.4550
 1.4250	13.3870
 1.4260	13.3250
 1.4270	13.2680
 1.4280	13.2170
 1.4290	13.1700
 1.4300	13.1290
 1.4310	13.0920
 1.4320	13.0610
 1.4330	13.0320
 1.4340	13.0080
 1.4350	12.9860
 1.4360	12.9670
 1.4370	12.9520
 1.4380	12.9390
 1.4390	12.9300
 1.4400	12.9230
 1.4410	12.9180
 1.4420	12.9170
 1.4430	12.9170
 1.4440	12.9180
 1.4450	12.9210
 1.4460	12.9250
 1.4470	12.9300
 1.4480	12.9370
 1.4490	12.9460
 1.4500	12.9550
 1.4510	12.9650
 1.4520	12.9780
 1.4530	12.9910
 1.4540	13.0070
 1.4550	13.0250
 1.4560	13.0440
 1.4570	13.0660
 1.4580	13.0900
 1.4590	13.1160
 1.4600	13.1450
 1.4610	13.1770
 1.4620	13.2120
 1.4630	13.2520
 1.4640	13.2940
 1.4650	13.3400
 1.4660	13.3910
 1.4670	13.4440
 1.4680	13.5010
 1.4690	13.5610
 1.4700	13.6250
 1.4710	13.6930
 1.4720	13.7630
 1.4730	13.8350
 1.4740	13.9100
 1.4750	13.9870
 1.4760	14.0680
 1.4770	14.1510
