Name: Peltophorum africanum
Type: vegetation
Class: Tree
Genus: Peltophorum
Species: africanum
Sample No.: JPL261
Owner: JPL
Wavelength Range: VSWIR
Origin: 34.13112; -118.11238; WGS84
Collection Date: 10/6/2016
Description: Samples were collected at the Huntington Garden in San Marino California as part of a JPL Subcontract studying HyTES imagery. Samples were taken to JPL and processed within 48 hours of collection. The same leaves were processed in the Nicolet and then measured using the ASD.
Measurement: Bidirectional reflectance
First Column: X
Second Column: Y
X Units: Wavelength (micrometer)
Y Units: Reflectance (percentage)
First X Value: 0.35
Last X Value: 2.5
Number of X Values: 2151
Additional Information: vegetation.tree.peltophorum.africanum.vswir.jpl261.jpl.asd.ancillary.txt

 0.3500	 3.7700
 0.3510	 3.6610
 0.3520	 3.5230
 0.3530	 3.4050
 0.3540	 3.3330
 0.3550	 3.4580
 0.3560	 3.4630
 0.3570	 3.3670
 0.3580	 3.3580
 0.3590	 3.4320
 0.3600	 3.4660
 0.3610	 3.4170
 0.3620	 3.3630
 0.3630	 3.3780
 0.3640	 3.3880
 0.3650	 3.3260
 0.3660	 3.2780
 0.3670	 3.2770
 0.3680	 3.2990
 0.3690	 3.2920
 0.3700	 3.3260
 0.3710	 3.3250
 0.3720	 3.2670
 0.3730	 3.2520
 0.3740	 3.2600
 0.3750	 3.2740
 0.3760	 3.2790
 0.3770	 3.2770
 0.3780	 3.2250
 0.3790	 3.1730
 0.3800	 3.2340
 0.3810	 3.2670
 0.3820	 3.2590
 0.3830	 3.2280
 0.3840	 3.2190
 0.3850	 3.2230
 0.3860	 3.2260
 0.3870	 3.2170
 0.3880	 3.2070
 0.3890	 3.1990
 0.3900	 3.2000
 0.3910	 3.2210
 0.3920	 3.2170
 0.3930	 3.1980
 0.3940	 3.1850
 0.3950	 3.1930
 0.3960	 3.2060
 0.3970	 3.2120
 0.3980	 3.2060
 0.3990	 3.1900
 0.4000	 3.2040
 0.4010	 3.2390
 0.4020	 3.2240
 0.4030	 3.2090
 0.4040	 3.2030
 0.4050	 3.2070
 0.4060	 3.2130
 0.4070	 3.2160
 0.4080	 3.2170
 0.4090	 3.2200
 0.4100	 3.2300
 0.4110	 3.2400
 0.4120	 3.2450
 0.4130	 3.2470
 0.4140	 3.2540
 0.4150	 3.2650
 0.4160	 3.2790
 0.4170	 3.2830
 0.4180	 3.2830
 0.4190	 3.2860
 0.4200	 3.2920
 0.4210	 3.3020
 0.4220	 3.3070
 0.4230	 3.3050
 0.4240	 3.3200
 0.4250	 3.3240
 0.4260	 3.3220
 0.4270	 3.3320
 0.4280	 3.3340
 0.4290	 3.3300
 0.4300	 3.3250
 0.4310	 3.3320
 0.4320	 3.3340
 0.4330	 3.3370
 0.4340	 3.3470
 0.4350	 3.3480
 0.4360	 3.3500
 0.4370	 3.3510
 0.4380	 3.3440
 0.4390	 3.3430
 0.4400	 3.3480
 0.4410	 3.3500
 0.4420	 3.3430
 0.4430	 3.3430
 0.4440	 3.3480
 0.4450	 3.3550
 0.4460	 3.3570
 0.4470	 3.3540
 0.4480	 3.3500
 0.4490	 3.3520
 0.4500	 3.3580
 0.4510	 3.3670
 0.4520	 3.3730
 0.4530	 3.3700
 0.4540	 3.3750
 0.4550	 3.3840
 0.4560	 3.3800
 0.4570	 3.3760
 0.4580	 3.3750
 0.4590	 3.3760
 0.4600	 3.3800
 0.4610	 3.3800
 0.4620	 3.3780
 0.4630	 3.3790
 0.4640	 3.3800
 0.4650	 3.3780
 0.4660	 3.3730
 0.4670	 3.3680
 0.4680	 3.3640
 0.4690	 3.3640
 0.4700	 3.3700
 0.4710	 3.3670
 0.4720	 3.3610
 0.4730	 3.3580
 0.4740	 3.3610
 0.4750	 3.3620
 0.4760	 3.3630
 0.4770	 3.3640
 0.4780	 3.3660
 0.4790	 3.3650
 0.4800	 3.3610
 0.4810	 3.3590
 0.4820	 3.3630
 0.4830	 3.3650
 0.4840	 3.3660
 0.4850	 3.3700
 0.4860	 3.3720
 0.4870	 3.3760
 0.4880	 3.3840
 0.4890	 3.3750
 0.4900	 3.3740
 0.4910	 3.3810
 0.4920	 3.3860
 0.4930	 3.3900
 0.4940	 3.3970
 0.4950	 3.4050
 0.4960	 3.4050
 0.4970	 3.4140
 0.4980	 3.4260
 0.4990	 3.4360
 0.5000	 3.4430
 0.5010	 3.4560
 0.5020	 3.4730
 0.5030	 3.4900
 0.5040	 3.5110
 0.5050	 3.5330
 0.5060	 3.5580
 0.5070	 3.5940
 0.5080	 3.6320
 0.5090	 3.6710
 0.5100	 3.7180
 0.5110	 3.7750
 0.5120	 3.8390
 0.5130	 3.9080
 0.5140	 3.9880
 0.5150	 4.0720
 0.5160	 4.1640
 0.5170	 4.2710
 0.5180	 4.3880
 0.5190	 4.5120
 0.5200	 4.6460
 0.5210	 4.7870
 0.5220	 4.9300
 0.5230	 5.0760
 0.5240	 5.2240
 0.5250	 5.3690
 0.5260	 5.5150
 0.5270	 5.6580
 0.5280	 5.7910
 0.5290	 5.9170
 0.5300	 6.0360
 0.5310	 6.1460
 0.5320	 6.2480
 0.5330	 6.3430
 0.5340	 6.4250
 0.5350	 6.4930
 0.5360	 6.5540
 0.5370	 6.6090
 0.5380	 6.6600
 0.5390	 6.7040
 0.5400	 6.7480
 0.5410	 6.7890
 0.5420	 6.8260
 0.5430	 6.8620
 0.5440	 6.8890
 0.5450	 6.9090
 0.5460	 6.9230
 0.5470	 6.9300
 0.5480	 6.9370
 0.5490	 6.9450
 0.5500	 6.9530
 0.5510	 6.9570
 0.5520	 6.9530
 0.5530	 6.9390
 0.5540	 6.9200
 0.5550	 6.8920
 0.5560	 6.8530
 0.5570	 6.8020
 0.5580	 6.7450
 0.5590	 6.6810
 0.5600	 6.6060
 0.5610	 6.5230
 0.5620	 6.4380
 0.5630	 6.3510
 0.5640	 6.2590
 0.5650	 6.1620
 0.5660	 6.0620
 0.5670	 5.9620
 0.5680	 5.8600
 0.5690	 5.7580
 0.5700	 5.6560
 0.5710	 5.5560
 0.5720	 5.4550
 0.5730	 5.3600
 0.5740	 5.2740
 0.5750	 5.1970
 0.5760	 5.1260
 0.5770	 5.0590
 0.5780	 4.9960
 0.5790	 4.9360
 0.5800	 4.8770
 0.5810	 4.8240
 0.5820	 4.7800
 0.5830	 4.7420
 0.5840	 4.7040
 0.5850	 4.6650
 0.5860	 4.6280
 0.5870	 4.5920
 0.5880	 4.5560
 0.5890	 4.5230
 0.5900	 4.4950
 0.5910	 4.4700
 0.5920	 4.4470
 0.5930	 4.4280
 0.5940	 4.4090
 0.5950	 4.3920
 0.5960	 4.3770
 0.5970	 4.3630
 0.5980	 4.3490
 0.5990	 4.3340
 0.6000	 4.3190
 0.6010	 4.3040
 0.6020	 4.2870
 0.6030	 4.2680
 0.6040	 4.2480
 0.6050	 4.2230
 0.6060	 4.1980
 0.6070	 4.1720
 0.6080	 4.1420
 0.6090	 4.1150
 0.6100	 4.0910
 0.6110	 4.0670
 0.6120	 4.0380
 0.6130	 4.0030
 0.6140	 3.9650
 0.6150	 3.9350
 0.6160	 3.9070
 0.6170	 3.8800
 0.6180	 3.8530
 0.6190	 3.8330
 0.6200	 3.8150
 0.6210	 3.7990
 0.6220	 3.7850
 0.6230	 3.7710
 0.6240	 3.7600
 0.6250	 3.7510
 0.6260	 3.7420
 0.6270	 3.7360
 0.6280	 3.7330
 0.6290	 3.7300
 0.6300	 3.7230
 0.6310	 3.7180
 0.6320	 3.7140
 0.6330	 3.7070
 0.6340	 3.6970
 0.6350	 3.6840
 0.6360	 3.6690
 0.6370	 3.6490
 0.6380	 3.6270
 0.6390	 3.6030
 0.6400	 3.5790
 0.6410	 3.5550
 0.6420	 3.5310
 0.6430	 3.5080
 0.6440	 3.4860
 0.6450	 3.4670
 0.6460	 3.4510
 0.6470	 3.4360
 0.6480	 3.4230
 0.6490	 3.4130
 0.6500	 3.4070
 0.6510	 3.4030
 0.6520	 3.4000
 0.6530	 3.3980
 0.6540	 3.3980
 0.6550	 3.3990
 0.6560	 3.3980
 0.6570	 3.3960
 0.6580	 3.3940
 0.6590	 3.3940
 0.6600	 3.3930
 0.6610	 3.3910
 0.6620	 3.3950
 0.6630	 3.3980
 0.6640	 3.4030
 0.6650	 3.4130
 0.6660	 3.4230
 0.6670	 3.4370
 0.6680	 3.4540
 0.6690	 3.4740
 0.6700	 3.4950
 0.6710	 3.5200
 0.6720	 3.5480
 0.6730	 3.5780
 0.6740	 3.6100
 0.6750	 3.6440
 0.6760	 3.6830
 0.6770	 3.7260
 0.6780	 3.7730
 0.6790	 3.8220
 0.6800	 3.8720
 0.6810	 3.9230
 0.6820	 3.9730
 0.6830	 4.0210
 0.6840	 4.0670
 0.6850	 4.1080
 0.6860	 4.1460
 0.6870	 4.1830
 0.6880	 4.2230
 0.6890	 4.2680
 0.6900	 4.3270
 0.6910	 4.4080
 0.6920	 4.5220
 0.6930	 4.6720
 0.6940	 4.8660
 0.6950	 5.1140
 0.6960	 5.4170
 0.6970	 5.7750
 0.6980	 6.1870
 0.6990	 6.6560
 0.7000	 7.1750
 0.7010	 7.7390
 0.7020	 8.3410
 0.7030	 8.9820
 0.7040	 9.6530
 0.7050	10.3490
 0.7060	11.0670
 0.7070	11.8070
 0.7080	12.5670
 0.7090	13.3440
 0.7100	14.1390
 0.7110	14.9500
 0.7120	15.7760
 0.7130	16.6150
 0.7140	17.4660
 0.7150	18.3280
 0.7160	19.1960
 0.7170	20.0710
 0.7180	20.9490
 0.7190	21.8270
 0.7200	22.7000
 0.7210	23.5700
 0.7220	24.4310
 0.7230	25.2770
 0.7240	26.1070
 0.7250	26.9180
 0.7260	27.7090
 0.7270	28.4780
 0.7280	29.2190
 0.7290	29.9330
 0.7300	30.6180
 0.7310	31.2740
 0.7320	31.8980
 0.7330	32.4940
 0.7340	33.0600
 0.7350	33.5910
 0.7360	34.0900
 0.7370	34.5580
 0.7380	34.9930
 0.7390	35.4010
 0.7400	35.7770
 0.7410	36.1230
 0.7420	36.4430
 0.7430	36.7340
 0.7440	36.9980
 0.7450	37.2370
 0.7460	37.4490
 0.7470	37.6400
 0.7480	37.8100
 0.7490	37.9610
 0.7500	38.0940
 0.7510	38.2100
 0.7520	38.3110
 0.7530	38.4000
 0.7540	38.4760
 0.7550	38.5440
 0.7560	38.6050
 0.7570	38.6550
 0.7580	38.7000
 0.7590	38.7380
 0.7600	38.7700
 0.7610	38.7980
 0.7620	38.8190
 0.7630	38.8340
 0.7640	38.8440
 0.7650	38.8510
 0.7660	38.8540
 0.7670	38.8540
 0.7680	38.8530
 0.7690	38.8520
 0.7700	38.8480
 0.7710	38.8410
 0.7720	38.8360
 0.7730	38.8320
 0.7740	38.8260
 0.7750	38.8190
 0.7760	38.8160
 0.7770	38.8090
 0.7780	38.8020
 0.7790	38.7980
 0.7800	38.7940
 0.7810	38.7920
 0.7820	38.7920
 0.7830	38.7910
 0.7840	38.7890
 0.7850	38.7850
 0.7860	38.7820
 0.7870	38.7770
 0.7880	38.7720
 0.7890	38.7680
 0.7900	38.7650
 0.7910	38.7570
 0.7920	38.7530
 0.7930	38.7510
 0.7940	38.7430
 0.7950	38.7370
 0.7960	38.7330
 0.7970	38.7260
 0.7980	38.7150
 0.7990	38.7050
 0.8000	38.6950
 0.8010	38.6870
 0.8020	38.6770
 0.8030	38.6660
 0.8040	38.6550
 0.8050	38.6450
 0.8060	38.6300
 0.8070	38.6180
 0.8080	38.6090
 0.8090	38.5960
 0.8100	38.5820
 0.8110	38.5690
 0.8120	38.5570
 0.8130	38.5400
 0.8140	38.5220
 0.8150	38.5050
 0.8160	38.4880
 0.8170	38.4750
 0.8180	38.4620
 0.8190	38.4470
 0.8200	38.4310
 0.8210	38.4130
 0.8220	38.3970
 0.8230	38.3840
 0.8240	38.3690
 0.8250	38.3520
 0.8260	38.3350
 0.8270	38.3210
 0.8280	38.3070
 0.8290	38.2880
 0.8300	38.2700
 0.8310	38.2550
 0.8320	38.2420
 0.8330	38.2280
 0.8340	38.2140
 0.8350	38.2010
 0.8360	38.1910
 0.8370	38.1800
 0.8380	38.1680
 0.8390	38.1510
 0.8400	38.1400
 0.8410	38.1330
 0.8420	38.1270
 0.8430	38.1160
 0.8440	38.1070
 0.8450	38.1000
 0.8460	38.0960
 0.8470	38.0870
 0.8480	38.0800
 0.8490	38.0760
 0.8500	38.0700
 0.8510	38.0660
 0.8520	38.0610
 0.8530	38.0560
 0.8540	38.0540
 0.8550	38.0540
 0.8560	38.0500
 0.8570	38.0450
 0.8580	38.0440
 0.8590	38.0440
 0.8600	38.0410
 0.8610	38.0380
 0.8620	38.0450
 0.8630	38.0490
 0.8640	38.0490
 0.8650	38.0490
 0.8660	38.0510
 0.8670	38.0500
 0.8680	38.0510
 0.8690	38.0560
 0.8700	38.0610
 0.8710	38.0650
 0.8720	38.0710
 0.8730	38.0790
 0.8740	38.0810
 0.8750	38.0860
 0.8760	38.0950
 0.8770	38.1000
 0.8780	38.1000
 0.8790	38.1030
 0.8800	38.1120
 0.8810	38.1190
 0.8820	38.1220
 0.8830	38.1250
 0.8840	38.1330
 0.8850	38.1400
 0.8860	38.1460
 0.8870	38.1510
 0.8880	38.1540
 0.8890	38.1640
 0.8900	38.1720
 0.8910	38.1790
 0.8920	38.1830
 0.8930	38.1830
 0.8940	38.1880
 0.8950	38.1970
 0.8960	38.2040
 0.8970	38.2060
 0.8980	38.2110
 0.8990	38.2190
 0.9000	38.2250
 0.9010	38.2320
 0.9020	38.2360
 0.9030	38.2370
 0.9040	38.2440
 0.9050	38.2520
 0.9060	38.2540
 0.9070	38.2520
 0.9080	38.2550
 0.9090	38.2610
 0.9100	38.2650
 0.9110	38.2640
 0.9120	38.2620
 0.9130	38.2600
 0.9140	38.2640
 0.9150	38.2740
 0.9160	38.2730
 0.9170	38.2690
 0.9180	38.2670
 0.9190	38.2680
 0.9200	38.2650
 0.9210	38.2580
 0.9220	38.2510
 0.9230	38.2520
 0.9240	38.2540
 0.9250	38.2500
 0.9260	38.2400
 0.9270	38.2320
 0.9280	38.2200
 0.9290	38.2090
 0.9300	38.2010
 0.9310	38.1880
 0.9320	38.1740
 0.9330	38.1640
 0.9340	38.1570
 0.9350	38.1410
 0.9360	38.1240
 0.9370	38.1070
 0.9380	38.0910
 0.9390	38.0790
 0.9400	38.0660
 0.9410	38.0520
 0.9420	38.0350
 0.9430	38.0110
 0.9440	37.9870
 0.9450	37.9660
 0.9460	37.9500
 0.9470	37.9290
 0.9480	37.9010
 0.9490	37.8650
 0.9500	37.8250
 0.9510	37.8000
 0.9520	37.7730
 0.9530	37.7410
 0.9540	37.7040
 0.9550	37.6630
 0.9560	37.6260
 0.9570	37.5950
 0.9580	37.5680
 0.9590	37.5400
 0.9600	37.5050
 0.9610	37.4680
 0.9620	37.4390
 0.9630	37.4130
 0.9640	37.3940
 0.9650	37.3770
 0.9660	37.3570
 0.9670	37.3440
 0.9680	37.3300
 0.9690	37.3140
 0.9700	37.2970
 0.9710	37.2890
 0.9720	37.2720
 0.9730	37.2530
 0.9740	37.2460
 0.9750	37.2420
 0.9760	37.2290
 0.9770	37.2150
 0.9780	37.2140
 0.9790	37.2130
 0.9800	37.2030
 0.9810	37.1930
 0.9820	37.1930
 0.9830	37.1890
 0.9840	37.1790
 0.9850	37.1670
 0.9860	37.1590
 0.9870	37.1610
 0.9880	37.1650
 0.9890	37.1690
 0.9900	37.1680
 0.9910	37.1560
 0.9920	37.1530
 0.9930	37.1600
 0.9940	37.1660
 0.9950	37.1550
 0.9960	37.1520
 0.9970	37.1620
 0.9980	37.1740
 0.9990	37.1740
 1.0000	37.1790
 1.0010	38.0450
 1.0020	38.0530
 1.0030	38.0580
 1.0040	38.0640
 1.0050	38.0730
 1.0060	38.0780
 1.0070	38.0800
 1.0080	38.0860
 1.0090	38.0950
 1.0100	38.1000
 1.0110	38.1040
 1.0120	38.1100
 1.0130	38.1140
 1.0140	38.1180
 1.0150	38.1230
 1.0160	38.1320
 1.0170	38.1350
 1.0180	38.1360
 1.0190	38.1440
 1.0200	38.1490
 1.0210	38.1540
 1.0220	38.1630
 1.0230	38.1690
 1.0240	38.1730
 1.0250	38.1790
 1.0260	38.1870
 1.0270	38.1930
 1.0280	38.1990
 1.0290	38.2060
 1.0300	38.2100
 1.0310	38.2170
 1.0320	38.2260
 1.0330	38.2350
 1.0340	38.2440
 1.0350	38.2520
 1.0360	38.2570
 1.0370	38.2650
 1.0380	38.2720
 1.0390	38.2790
 1.0400	38.2850
 1.0410	38.2890
 1.0420	38.2950
 1.0430	38.3010
 1.0440	38.3070
 1.0450	38.3140
 1.0460	38.3210
 1.0470	38.3290
 1.0480	38.3350
 1.0490	38.3430
 1.0500	38.3480
 1.0510	38.3480
 1.0520	38.3490
 1.0530	38.3540
 1.0540	38.3600
 1.0550	38.3640
 1.0560	38.3700
 1.0570	38.3720
 1.0580	38.3710
 1.0590	38.3720
 1.0600	38.3760
 1.0610	38.3770
 1.0620	38.3750
 1.0630	38.3740
 1.0640	38.3720
 1.0650	38.3700
 1.0660	38.3680
 1.0670	38.3670
 1.0680	38.3670
 1.0690	38.3670
 1.0700	38.3660
 1.0710	38.3680
 1.0720	38.3650
 1.0730	38.3580
 1.0740	38.3530
 1.0750	38.3450
 1.0760	38.3400
 1.0770	38.3370
 1.0780	38.3320
 1.0790	38.3270
 1.0800	38.3230
 1.0810	38.3190
 1.0820	38.3160
 1.0830	38.3160
 1.0840	38.3120
 1.0850	38.3070
 1.0860	38.3020
 1.0870	38.2950
 1.0880	38.2850
 1.0890	38.2780
 1.0900	38.2720
 1.0910	38.2650
 1.0920	38.2600
 1.0930	38.2550
 1.0940	38.2500
 1.0950	38.2420
 1.0960	38.2320
 1.0970	38.2240
 1.0980	38.2170
 1.0990	38.2090
 1.1000	38.2040
 1.1010	38.1980
 1.1020	38.1910
 1.1030	38.1860
 1.1040	38.1780
 1.1050	38.1690
 1.1060	38.1610
 1.1070	38.1510
 1.1080	38.1440
 1.1090	38.1390
 1.1100	38.1300
 1.1110	38.1210
 1.1120	38.1100
 1.1130	38.0980
 1.1140	38.0860
 1.1150	38.0740
 1.1160	38.0610
 1.1170	38.0480
 1.1180	38.0330
 1.1190	38.0160
 1.1200	37.9990
 1.1210	37.9830
 1.1220	37.9650
 1.1230	37.9450
 1.1240	37.9260
 1.1250	37.9040
 1.1260	37.8810
 1.1270	37.8550
 1.1280	37.8280
 1.1290	37.7970
 1.1300	37.7610
 1.1310	37.7240
 1.1320	37.6850
 1.1330	37.6430
 1.1340	37.6000
 1.1350	37.5520
 1.1360	37.5020
 1.1370	37.4480
 1.1380	37.3890
 1.1390	37.3290
 1.1400	37.2650
 1.1410	37.2000
 1.1420	37.1350
 1.1430	37.0680
 1.1440	37.0000
 1.1450	36.9290
 1.1460	36.8610
 1.1470	36.7900
 1.1480	36.7220
 1.1490	36.6540
 1.1500	36.5920
 1.1510	36.5330
 1.1520	36.4750
 1.1530	36.4200
 1.1540	36.3690
 1.1550	36.3200
 1.1560	36.2740
 1.1570	36.2330
 1.1580	36.1970
 1.1590	36.1640
 1.1600	36.1340
 1.1610	36.1070
 1.1620	36.0850
 1.1630	36.0630
 1.1640	36.0430
 1.1650	36.0260
 1.1660	36.0130
 1.1670	35.9980
 1.1680	35.9840
 1.1690	35.9730
 1.1700	35.9600
 1.1710	35.9500
 1.1720	35.9450
 1.1730	35.9360
 1.1740	35.9260
 1.1750	35.9180
 1.1760	35.9090
 1.1770	35.8980
 1.1780	35.8880
 1.1790	35.8790
 1.1800	35.8700
 1.1810	35.8610
 1.1820	35.8530
 1.1830	35.8440
 1.1840	35.8320
 1.1850	35.8220
 1.1860	35.8110
 1.1870	35.7990
 1.1880	35.7880
 1.1890	35.7790
 1.1900	35.7700
 1.1910	35.7640
 1.1920	35.7570
 1.1930	35.7530
 1.1940	35.7460
 1.1950	35.7390
 1.1960	35.7330
 1.1970	35.7290
 1.1980	35.7230
 1.1990	35.7200
 1.2000	35.7160
 1.2010	35.7140
 1.2020	35.7140
 1.2030	35.7150
 1.2040	35.7180
 1.2050	35.7210
 1.2060	35.7220
 1.2070	35.7230
 1.2080	35.7250
 1.2090	35.7280
 1.2100	35.7330
 1.2110	35.7380
 1.2120	35.7420
 1.2130	35.7480
 1.2140	35.7530
 1.2150	35.7610
 1.2160	35.7710
 1.2170	35.7810
 1.2180	35.7890
 1.2190	35.7970
 1.2200	35.8060
 1.2210	35.8140
 1.2220	35.8230
 1.2230	35.8340
 1.2240	35.8420
 1.2250	35.8500
 1.2260	35.8590
 1.2270	35.8680
 1.2280	35.8760
 1.2290	35.8840
 1.2300	35.8910
 1.2310	35.8970
 1.2320	35.9040
 1.2330	35.9100
 1.2340	35.9150
 1.2350	35.9220
 1.2360	35.9270
 1.2370	35.9310
 1.2380	35.9350
 1.2390	35.9400
 1.2400	35.9440
 1.2410	35.9500
 1.2420	35.9560
 1.2430	35.9600
 1.2440	35.9650
 1.2450	35.9680
 1.2460	35.9690
 1.2470	35.9720
 1.2480	35.9730
 1.2490	35.9740
 1.2500	35.9770
 1.2510	35.9790
 1.2520	35.9810
 1.2530	35.9830
 1.2540	35.9830
 1.2550	35.9830
 1.2560	35.9810
 1.2570	35.9800
 1.2580	35.9810
 1.2590	35.9800
 1.2600	35.9820
 1.2610	35.9800
 1.2620	35.9760
 1.2630	35.9710
 1.2640	35.9670
 1.2650	35.9620
 1.2660	35.9590
 1.2670	35.9550
 1.2680	35.9510
 1.2690	35.9450
 1.2700	35.9390
 1.2710	35.9350
 1.2720	35.9280
 1.2730	35.9210
 1.2740	35.9170
 1.2750	35.9100
 1.2760	35.9010
 1.2770	35.8930
 1.2780	35.8840
 1.2790	35.8740
 1.2800	35.8660
 1.2810	35.8560
 1.2820	35.8440
 1.2830	35.8320
 1.2840	35.8180
 1.2850	35.8030
 1.2860	35.7860
 1.2870	35.7690
 1.2880	35.7520
 1.2890	35.7330
 1.2900	35.7130
 1.2910	35.6910
 1.2920	35.6670
 1.2930	35.6400
 1.2940	35.6120
 1.2950	35.5850
 1.2960	35.5570
 1.2970	35.5270
 1.2980	35.4950
 1.2990	35.4610
 1.3000	35.4220
 1.3010	35.3850
 1.3020	35.3460
 1.3030	35.3070
 1.3040	35.2700
 1.3050	35.2300
 1.3060	35.1890
 1.3070	35.1450
 1.3080	35.0980
 1.3090	35.0520
 1.3100	35.0050
 1.3110	34.9580
 1.3120	34.9100
 1.3130	34.8610
 1.3140	34.8100
 1.3150	34.7570
 1.3160	34.7020
 1.3170	34.6460
 1.3180	34.5880
 1.3190	34.5280
 1.3200	34.4670
 1.3210	34.4050
 1.3220	34.3420
 1.3230	34.2780
 1.3240	34.2130
 1.3250	34.1480
 1.3260	34.0850
 1.3270	34.0180
 1.3280	33.9490
 1.3290	33.8790
 1.3300	33.8050
 1.3310	33.7310
 1.3320	33.6560
 1.3330	33.5800
 1.3340	33.5030
 1.3350	33.4260
 1.3360	33.3490
 1.3370	33.2700
 1.3380	33.1900
 1.3390	33.1120
 1.3400	33.0330
 1.3410	32.9560
 1.3420	32.8800
 1.3430	32.8040
 1.3440	32.7290
 1.3450	32.6540
 1.3460	32.5780
 1.3470	32.5030
 1.3480	32.4270
 1.3490	32.3530
 1.3500	32.2810
 1.3510	32.2070
 1.3520	32.1340
 1.3530	32.0610
 1.3540	31.9880
 1.3550	31.9140
 1.3560	31.8420
 1.3570	31.7680
 1.3580	31.6930
 1.3590	31.6170
 1.3600	31.5390
 1.3610	31.4610
 1.3620	31.3790
 1.3630	31.2940
 1.3640	31.2050
 1.3650	31.1100
 1.3660	31.0120
 1.3670	30.9090
 1.3680	30.8000
 1.3690	30.6840
 1.3700	30.5570
 1.3710	30.4220
 1.3720	30.2770
 1.3730	30.1200
 1.3740	29.9520
 1.3750	29.7730
 1.3760	29.5770
 1.3770	29.3680
 1.3780	29.1410
 1.3790	28.8970
 1.3800	28.6380
 1.3810	28.3590
 1.3820	28.0660
 1.3830	27.7590
 1.3840	27.4330
 1.3850	27.0910
 1.3860	26.7330
 1.3870	26.3560
 1.3880	25.9700
 1.3890	25.5700
 1.3900	25.1570
 1.3910	24.7410
 1.3920	24.3140
 1.3930	23.8790
 1.3940	23.4410
 1.3950	22.9960
 1.3960	22.5520
 1.3970	22.1110
 1.3980	21.6740
 1.3990	21.2490
 1.4000	20.8300
 1.4010	20.4200
 1.4020	20.0210
 1.4030	19.6290
 1.4040	19.2510
 1.4050	18.8870
 1.4060	18.5380
 1.4070	18.2070
 1.4080	17.8920
 1.4090	17.5910
 1.4100	17.3080
 1.4110	17.0390
 1.4120	16.7860
 1.4130	16.5490
 1.4140	16.3280
 1.4150	16.1230
 1.4160	15.9320
 1.4170	15.7530
 1.4180	15.5880
 1.4190	15.4340
 1.4200	15.2920
 1.4210	15.1600
 1.4220	15.0380
 1.4230	14.9280
 1.4240	14.8250
 1.4250	14.7310
 1.4260	14.6450
 1.4270	14.5650
 1.4280	14.4930
 1.4290	14.4260
 1.4300	14.3660
 1.4310	14.3100
 1.4320	14.2610
 1.4330	14.2160
 1.4340	14.1750
 1.4350	14.1370
 1.4360	14.1040
 1.4370	14.0750
 1.4380	14.0510
 1.4390	14.0300
 1.4400	14.0120
 1.4410	13.9960
 1.4420	13.9810
 1.4430	13.9690
 1.4440	13.9600
 1.4450	13.9530
 1.4460	13.9490
 1.4470	13.9470
 1.4480	13.9480
 1.4490	13.9490
 1.4500	13.9520
 1.4510	13.9590
 1.4520	13.9660
 1.4530	13.9740
 1.4540	13.9840
 1.4550	13.9950
 1.4560	14.0090
 1.4570	14.0260
 1.4580	14.0450
 1.4590	14.0680
 1.4600	14.0950
 1.4610	14.1240
 1.4620	14.1570
 1.4630	14.1950
 1.4640	14.2360
 1.4650	14.2810
 1.4660	14.3300
 1.4670	14.3840
 1.4680	14.4420
 1.4690	14.5030
 1.4700	14.5700
 1.4710	14.6410
 1.4720	14.7150
 1.4730	14.7920
 1.4740	14.8720
 1.4750	14.9550
 1.4760	15.0410
 1.4770	15.1300
