Name: Quercus lobata 2
Type: vegetation
Class: Tree
Genus: Quercus
Species: lobata
Sample No.: VH087
Owner: UCSB
Wavelength Range: TIR
Origin: 34.7146; -120.0588; WGS84
Collection Date: 4/21/2013
Description: Samples were collected as part of the HyspIRI Airborne Campaign. 48 individual plants were sampled in three times in 2013 - spring  summer  and fall. The name of the sample includes a 1  2  or 3 which references a different individual of the species. Samples were taken to JPL and processed within 48 hours of collection. The same leaves were processed in the Nicolet and then measured using the ASD.
Measurement: Hemispherical reflectance
First Column: X
Second Column: Y
X Units: Wavelength (micrometers)
Y Units: Reflectance (percentage)
First X Value: 2.501
Last X Value: 15.387
Number of X Values: 1737
Additional Information: vegetation.tree.quercus.lobata.tir.vh087.ucsb.nicolet.ancillary.txt

 2.5010	 8.7330
 2.5030	 8.7280
 2.5040	 8.8200
 2.5050	 8.7220
 2.5060	 8.6290
 2.5070	 8.5660
 2.5090	 8.6350
 2.5100	 8.6020
 2.5110	 8.5730
 2.5120	 8.4280
 2.5140	 8.5050
 2.5150	 8.4840
 2.5160	 8.4730
 2.5170	 8.4840
 2.5180	 8.5010
 2.5200	 8.4530
 2.5210	 8.4470
 2.5220	 8.3810
 2.5230	 8.3700
 2.5250	 8.4640
 2.5260	 8.5680
 2.5270	 8.3680
 2.5280	 8.3580
 2.5290	 8.4800
 2.5310	 8.6260
 2.5320	 8.5090
 2.5330	 8.3390
 2.5340	 8.3330
 2.5360	 8.4100
 2.5370	 8.5160
 2.5380	 8.5760
 2.5390	 8.3780
 2.5410	 8.3630
 2.5420	 8.4110
 2.5430	 8.3180
 2.5440	 8.1800
 2.5460	 8.3220
 2.5470	 8.2480
 2.5480	 8.2570
 2.5490	 8.3580
 2.5510	 8.3980
 2.5520	 8.3930
 2.5530	 8.4700
 2.5540	 8.3960
 2.5560	 8.3870
 2.5570	 8.4100
 2.5580	 8.4380
 2.5590	 8.4970
 2.5610	 8.5370
 2.5620	 8.5330
 2.5630	 8.5620
 2.5640	 8.5110
 2.5660	 8.5180
 2.5670	 8.4200
 2.5680	 8.2810
 2.5700	 8.2820
 2.5710	 8.4180
 2.5720	 8.3830
 2.5730	 8.3580
 2.5750	 8.3900
 2.5760	 8.4490
 2.5770	 8.4500
 2.5790	 8.4010
 2.5800	 8.3550
 2.5810	 8.4390
 2.5820	 8.3750
 2.5840	 8.4350
 2.5850	 8.3950
 2.5860	 8.3490
 2.5880	 8.3690
 2.5890	 8.3960
 2.5900	 8.4180
 2.5910	 8.4170
 2.5930	 8.3370
 2.5940	 8.3240
 2.5950	 8.3410
 2.5970	 8.3180
 2.5980	 8.1480
 2.5990	 8.1520
 2.6000	 8.2390
 2.6020	 8.3720
 2.6030	 8.3280
 2.6040	 8.3100
 2.6060	 8.1780
 2.6070	 8.0800
 2.6080	 7.9660
 2.6100	 7.9950
 2.6110	 7.9410
 2.6120	 7.9840
 2.6140	 7.9770
 2.6150	 8.0380
 2.6160	 7.9700
 2.6180	 7.8790
 2.6190	 7.7970
 2.6200	 7.8770
 2.6220	 7.8080
 2.6230	 7.6990
 2.6240	 7.6180
 2.6260	 7.6810
 2.6270	 7.6430
 2.6280	 7.6150
 2.6300	 7.6320
 2.6310	 7.7580
 2.6320	 7.6390
 2.6340	 7.5000
 2.6350	 7.4540
 2.6360	 7.5000
 2.6380	 7.5350
 2.6390	 7.5070
 2.6400	 7.3670
 2.6420	 7.4410
 2.6430	 7.4800
 2.6440	 7.4230
 2.6460	 7.3760
 2.6470	 7.3300
 2.6480	 7.1930
 2.6500	 7.2140
 2.6510	 7.2010
 2.6520	 7.1200
 2.6540	 6.9980
 2.6550	 7.0400
 2.6560	 7.0390
 2.6580	 7.0690
 2.6590	 6.9870
 2.6610	 6.9360
 2.6620	 6.8370
 2.6630	 6.8120
 2.6650	 6.9000
 2.6660	 7.0610
 2.6670	 6.9630
 2.6690	 6.8890
 2.6700	 6.8580
 2.6720	 6.8280
 2.6730	 6.7920
 2.6740	 6.9300
 2.6760	 6.8970
 2.6770	 6.7710
 2.6780	 6.6620
 2.6800	 6.7100
 2.6810	 6.6500
 2.6830	 6.5230
 2.6840	 6.4580
 2.6850	 6.5690
 2.6870	 6.4400
 2.6880	 6.3770
 2.6900	 6.3860
 2.6910	 6.4320
 2.6920	 6.3630
 2.6940	 6.3570
 2.6950	 6.3070
 2.6970	 6.3050
 2.6980	 6.2330
 2.6990	 6.1500
 2.7010	 6.0980
 2.7020	 6.0910
 2.7040	 6.0030
 2.7050	 6.0290
 2.7060	 5.9790
 2.7080	 5.9410
 2.7090	 5.7950
 2.7110	 5.8210
 2.7120	 5.7760
 2.7130	 5.6240
 2.7150	 5.5410
 2.7160	 5.5710
 2.7180	 5.5360
 2.7190	 5.4530
 2.7210	 5.3790
 2.7220	 5.4190
 2.7230	 5.2340
 2.7250	 5.0930
 2.7260	 5.0340
 2.7280	 5.1620
 2.7290	 5.1660
 2.7310	 5.2080
 2.7320	 5.0050
 2.7330	 4.8600
 2.7350	 4.7350
 2.7360	 4.6240
 2.7380	 4.6120
 2.7390	 4.6930
 2.7410	 4.5510
 2.7420	 4.4880
 2.7440	 4.4600
 2.7450	 4.4360
 2.7470	 4.2660
 2.7480	 4.1990
 2.7490	 4.1830
 2.7510	 4.3070
 2.7520	 4.2670
 2.7540	 4.2290
 2.7550	 4.2100
 2.7570	 4.2610
 2.7580	 4.1560
 2.7600	 4.1140
 2.7610	 4.0680
 2.7630	 4.0880
 2.7640	 4.0240
 2.7660	 4.0130
 2.7670	 3.9060
 2.7680	 3.9490
 2.7700	 3.9580
 2.7710	 3.9690
 2.7730	 3.9380
 2.7740	 3.9610
 2.7760	 3.8570
 2.7770	 3.8330
 2.7790	 3.7090
 2.7800	 3.6870
 2.7820	 3.6480
 2.7830	 3.7840
 2.7850	 3.8310
 2.7860	 3.7890
 2.7880	 3.8210
 2.7890	 3.9300
 2.7910	 3.8140
 2.7920	 3.8500
 2.7940	 3.7950
 2.7950	 3.7540
 2.7970	 3.6960
 2.7980	 3.6810
 2.8000	 3.6850
 2.8010	 3.7980
 2.8030	 3.8150
 2.8040	 3.7860
 2.8060	 3.6760
 2.8070	 3.7230
 2.8090	 3.6960
 2.8110	 3.6620
 2.8120	 3.6940
 2.8140	 3.7860
 2.8150	 3.6500
 2.8170	 3.6430
 2.8180	 3.6620
 2.8200	 3.7460
 2.8210	 3.7360
 2.8230	 3.6950
 2.8240	 3.6190
 2.8260	 3.6590
 2.8270	 3.5580
 2.8290	 3.5450
 2.8300	 3.5840
 2.8320	 3.6660
 2.8340	 3.6250
 2.8350	 3.7310
 2.8370	 3.7390
 2.8380	 3.6110
 2.8400	 3.5580
 2.8410	 3.6620
 2.8430	 3.6230
 2.8440	 3.6370
 2.8460	 3.6720
 2.8480	 3.6890
 2.8490	 3.6670
 2.8510	 3.6950
 2.8520	 3.6630
 2.8540	 3.6630
 2.8550	 3.5820
 2.8570	 3.5920
 2.8590	 3.5420
 2.8600	 3.6230
 2.8620	 3.6650
 2.8630	 3.6630
 2.8650	 3.4940
 2.8660	 3.5500
 2.8680	 3.6370
 2.8700	 3.7100
 2.8710	 3.6110
 2.8730	 3.5720
 2.8740	 3.6120
 2.8760	 3.6980
 2.8780	 3.6000
 2.8790	 3.5040
 2.8810	 3.4920
 2.8820	 3.6080
 2.8840	 3.5730
 2.8860	 3.6390
 2.8870	 3.6340
 2.8890	 3.6620
 2.8900	 3.7190
 2.8920	 3.7200
 2.8940	 3.6150
 2.8950	 3.7050
 2.8970	 3.7070
 2.8980	 3.7270
 2.9000	 3.6780
 2.9020	 3.6530
 2.9030	 3.5820
 2.9050	 3.6760
 2.9070	 3.7320
 2.9080	 3.8410
 2.9100	 3.8060
 2.9120	 3.8510
 2.9130	 3.8270
 2.9150	 3.8640
 2.9160	 3.8390
 2.9180	 3.7440
 2.9200	 3.6910
 2.9210	 3.8180
 2.9230	 3.8210
 2.9250	 3.8860
 2.9260	 3.8380
 2.9280	 3.8290
 2.9300	 3.8800
 2.9310	 3.8860
 2.9330	 3.7060
 2.9350	 3.6940
 2.9360	 3.7020
 2.9380	 3.6870
 2.9400	 3.6620
 2.9410	 3.7460
 2.9430	 3.7850
 2.9450	 3.8250
 2.9460	 3.9220
 2.9480	 3.8950
 2.9500	 3.8900
 2.9510	 3.8540
 2.9530	 3.5850
 2.9550	 3.7000
 2.9560	 3.7920
 2.9580	 3.7500
 2.9600	 3.7620
 2.9610	 3.7930
 2.9630	 3.6540
 2.9650	 3.7500
 2.9660	 3.8990
 2.9680	 3.9830
 2.9700	 3.9800
 2.9720	 4.1350
 2.9730	 4.1210
 2.9750	 3.9970
 2.9770	 3.9560
 2.9780	 4.2660
 2.9800	 4.2410
 2.9820	 3.8770
 2.9840	 3.7770
 2.9850	 3.7770
 2.9870	 3.8310
 2.9890	 3.8610
 2.9900	 3.8090
 2.9920	 3.5970
 2.9940	 3.6590
 2.9960	 4.3080
 2.9970	 4.4380
 2.9990	 3.9740
 3.0010	 3.8460
 3.0030	 3.8640
 3.0040	 3.8560
 3.0060	 3.9200
 3.0080	 3.9030
 3.0100	 3.9230
 3.0110	 3.9740
 3.0130	 4.2330
 3.0150	 4.2100
 3.0170	 4.0870
 3.0180	 3.9050
 3.0200	 3.8260
 3.0220	 3.7480
 3.0240	 3.7630
 3.0250	 3.8320
 3.0270	 3.9470
 3.0290	 3.9540
 3.0310	 3.8810
 3.0320	 3.8470
 3.0340	 4.1730
 3.0360	 3.9860
 3.0380	 3.7020
 3.0400	 3.5100
 3.0410	 3.7190
 3.0430	 3.7160
 3.0450	 3.7440
 3.0470	 3.9110
 3.0480	 3.8930
 3.0500	 3.6800
 3.0520	 3.9660
 3.0540	 3.8880
 3.0560	 4.0250
 3.0570	 4.1540
 3.0590	 4.0740
 3.0610	 3.9600
 3.0630	 3.8870
 3.0650	 4.0470
 3.0660	 4.2330
 3.0680	 3.9920
 3.0700	 3.7910
 3.0720	 3.8820
 3.0740	 3.9760
 3.0760	 4.0180
 3.0770	 4.1530
 3.0790	 4.1090
 3.0810	 4.0610
 3.0830	 3.9780
 3.0850	 4.0120
 3.0870	 4.0100
 3.0880	 4.0230
 3.0900	 3.9160
 3.0920	 4.0950
 3.0940	 4.1350
 3.0960	 4.0110
 3.0980	 3.8570
 3.0990	 4.0630
 3.1010	 4.1270
 3.1030	 4.0490
 3.1050	 4.0470
 3.1070	 4.1090
 3.1090	 4.0410
 3.1110	 4.0630
 3.1120	 3.9910
 3.1140	 3.9960
 3.1160	 4.0190
 3.1180	 4.0180
 3.1200	 3.9800
 3.1220	 4.1340
 3.1240	 4.1650
 3.1260	 4.1250
 3.1270	 4.1410
 3.1290	 4.2320
 3.1310	 4.1400
 3.1330	 4.1420
 3.1350	 4.0640
 3.1370	 4.1890
 3.1390	 4.2420
 3.1410	 4.0960
 3.1430	 3.9550
 3.1450	 4.0390
 3.1460	 4.0860
 3.1480	 4.0230
 3.1500	 3.8890
 3.1520	 3.9710
 3.1540	 4.0900
 3.1560	 4.1610
 3.1580	 4.0160
 3.1600	 3.8850
 3.1620	 3.7870
 3.1640	 3.7120
 3.1660	 3.8360
 3.1680	 4.2390
 3.1700	 4.4690
 3.1710	 4.7640
 3.1730	 4.6770
 3.1750	 4.0690
 3.1770	 3.8940
 3.1790	 4.5600
 3.1810	 4.5640
 3.1830	 4.3000
 3.1850	 4.1150
 3.1870	 3.9530
 3.1890	 3.8320
 3.1910	 4.1630
 3.1930	 4.3300
 3.1950	 4.2790
 3.1970	 4.2730
 3.1990	 4.2760
 3.2010	 4.3180
 3.2030	 4.3980
 3.2050	 4.3420
 3.2070	 4.3790
 3.2090	 4.3890
 3.2110	 4.3750
 3.2130	 4.4070
 3.2150	 4.4610
 3.2170	 4.3600
 3.2190	 4.3880
 3.2210	 4.4580
 3.2230	 4.4930
 3.2250	 4.4640
 3.2270	 4.5200
 3.2290	 4.5270
 3.2310	 4.4860
 3.2330	 4.5030
 3.2350	 4.5610
 3.2370	 4.5560
 3.2390	 4.5100
 3.2410	 4.4030
 3.2430	 4.4410
 3.2450	 4.5430
 3.2470	 4.5990
 3.2490	 4.5220
 3.2510	 4.5090
 3.2530	 4.5220
 3.2550	 4.6220
 3.2570	 4.5880
 3.2590	 4.6130
 3.2610	 4.6360
 3.2630	 4.7890
 3.2650	 4.8220
 3.2670	 4.7520
 3.2690	 4.7730
 3.2720	 4.7640
 3.2740	 4.6390
 3.2760	 4.6350
 3.2780	 4.6070
 3.2800	 4.6450
 3.2820	 4.7240
 3.2840	 4.7360
 3.2860	 4.6960
 3.2880	 4.7310
 3.2900	 4.7870
 3.2920	 4.8460
 3.2940	 4.8080
 3.2960	 4.8100
 3.2990	 4.7540
 3.3010	 4.7510
 3.3030	 4.7350
 3.3050	 4.8170
 3.3070	 4.8460
 3.3090	 4.8270
 3.3110	 4.7500
 3.3130	 4.7170
 3.3150	 4.7350
 3.3180	 4.8410
 3.3200	 4.8630
 3.3220	 4.8460
 3.3240	 4.6980
 3.3260	 4.7040
 3.3280	 4.7390
 3.3300	 4.8200
 3.3330	 4.7910
 3.3350	 4.8440
 3.3370	 4.8180
 3.3390	 4.7760
 3.3410	 4.6730
 3.3430	 4.7550
 3.3450	 4.7260
 3.3480	 4.7310
 3.3500	 4.7580
 3.3520	 4.7160
 3.3540	 4.6100
 3.3560	 4.6080
 3.3580	 4.6730
 3.3610	 4.6540
 3.3630	 4.5310
 3.3650	 4.6120
 3.3670	 4.6210
 3.3690	 4.5990
 3.3720	 4.5010
 3.3740	 4.4860
 3.3760	 4.4220
 3.3780	 4.3760
 3.3800	 4.3700
 3.3830	 4.4050
 3.3850	 4.3630
 3.3870	 4.3410
 3.3890	 4.2200
 3.3910	 4.1690
 3.3940	 4.1820
 3.3960	 4.1820
 3.3980	 4.0970
 3.4000	 4.1990
 3.4020	 4.1640
 3.4050	 4.2050
 3.4070	 4.3110
 3.4090	 4.5010
 3.4110	 4.5610
 3.4140	 4.6590
 3.4160	 4.8250
 3.4180	 5.0960
 3.4200	 5.2790
 3.4230	 5.4250
 3.4250	 5.5520
 3.4270	 5.7480
 3.4290	 5.7500
 3.4320	 5.5880
 3.4340	 5.3620
 3.4360	 5.3080
 3.4390	 5.2270
 3.4410	 5.2000
 3.4430	 5.1410
 3.4450	 5.1840
 3.4480	 5.1970
 3.4500	 5.1780
 3.4520	 5.2330
 3.4550	 5.2150
 3.4570	 5.0990
 3.4590	 5.1280
 3.4620	 5.1460
 3.4640	 5.1660
 3.4660	 5.1890
 3.4680	 5.2170
 3.4710	 5.2090
 3.4730	 5.2050
 3.4750	 5.1110
 3.4780	 5.0690
 3.4800	 5.0240
 3.4820	 5.0050
 3.4850	 5.0030
 3.4870	 5.0170
 3.4890	 4.9500
 3.4920	 4.9440
 3.4940	 5.0450
 3.4970	 5.2330
 3.4990	 5.2510
 3.5010	 5.2430
 3.5040	 5.3610
 3.5060	 5.6650
 3.5080	 5.9170
 3.5110	 6.0920
 3.5130	 5.9860
 3.5160	 5.8330
 3.5180	 5.7530
 3.5200	 5.7950
 3.5230	 5.8350
 3.5250	 5.9340
 3.5270	 5.9570
 3.5300	 5.9690
 3.5320	 5.9370
 3.5350	 6.0000
 3.5370	 5.9810
 3.5400	 5.9390
 3.5420	 5.9070
 3.5440	 5.9570
 3.5470	 5.9860
 3.5490	 5.9250
 3.5520	 5.8510
 3.5540	 5.9060
 3.5570	 5.9770
 3.5590	 6.0460
 3.5610	 6.0590
 3.5640	 6.0560
 3.5660	 6.0630
 3.5690	 6.1600
 3.5710	 6.2210
 3.5740	 6.2540
 3.5760	 6.2170
 3.5790	 6.2370
 3.5810	 6.1530
 3.5840	 6.0710
 3.5860	 6.1240
 3.5890	 6.1400
 3.5910	 6.0600
 3.5930	 6.0700
 3.5960	 6.1520
 3.5980	 6.3060
 3.6010	 6.2360
 3.6030	 6.2450
 3.6060	 6.2190
 3.6080	 6.2720
 3.6110	 6.2580
 3.6140	 6.2200
 3.6160	 6.2020
 3.6190	 6.2220
 3.6210	 6.2580
 3.6240	 6.2580
 3.6260	 6.1690
 3.6290	 6.1740
 3.6310	 6.1790
 3.6340	 6.1900
 3.6360	 6.1990
 3.6390	 6.2400
 3.6410	 6.2570
 3.6440	 6.2230
 3.6470	 6.1820
 3.6490	 6.2230
 3.6520	 6.2630
 3.6540	 6.3530
 3.6570	 6.3620
 3.6590	 6.3270
 3.6620	 6.3260
 3.6650	 6.3310
 3.6670	 6.2810
 3.6700	 6.2990
 3.6720	 6.2620
 3.6750	 6.2450
 3.6780	 6.2420
 3.6800	 6.2980
 3.6830	 6.3870
 3.6850	 6.4230
 3.6880	 6.3720
 3.6910	 6.3420
 3.6930	 6.3380
 3.6960	 6.3830
 3.6990	 6.3900
 3.7010	 6.4130
 3.7040	 6.3830
 3.7060	 6.3990
 3.7090	 6.4230
 3.7120	 6.4470
 3.7140	 6.4810
 3.7170	 6.5090
 3.7200	 6.4440
 3.7220	 6.4100
 3.7250	 6.4580
 3.7280	 6.5870
 3.7300	 6.5700
 3.7330	 6.4880
 3.7360	 6.4440
 3.7390	 6.4470
 3.7410	 6.4670
 3.7440	 6.5660
 3.7470	 6.5890
 3.7490	 6.6520
 3.7520	 6.6570
 3.7550	 6.6280
 3.7580	 6.5170
 3.7600	 6.4960
 3.7630	 6.5120
 3.7660	 6.5700
 3.7680	 6.5850
 3.7710	 6.6010
 3.7740	 6.6400
 3.7770	 6.7130
 3.7790	 6.6870
 3.7820	 6.6890
 3.7850	 6.6240
 3.7880	 6.5820
 3.7900	 6.5610
 3.7930	 6.6520
 3.7960	 6.6660
 3.7990	 6.6610
 3.8020	 6.6770
 3.8040	 6.6710
 3.8070	 6.6250
 3.8100	 6.6850
 3.8130	 6.6680
 3.8160	 6.6490
 3.8180	 6.6030
 3.8210	 6.6150
 3.8240	 6.6610
 3.8270	 6.6900
 3.8300	 6.6570
 3.8330	 6.6050
 3.8350	 6.6030
 3.8380	 6.6700
 3.8410	 6.7440
 3.8440	 6.7660
 3.8470	 6.7540
 3.8500	 6.7010
 3.8520	 6.6560
 3.8550	 6.7040
 3.8580	 6.7540
 3.8610	 6.7760
 3.8640	 6.7480
 3.8670	 6.7640
 3.8700	 6.7730
 3.8730	 6.7550
 3.8750	 6.7400
 3.8780	 6.7480
 3.8810	 6.7770
 3.8840	 6.8110
 3.8870	 6.8290
 3.8900	 6.8380
 3.8930	 6.8230
 3.8960	 6.8070
 3.8990	 6.7970
 3.9020	 6.8200
 3.9050	 6.8070
 3.9080	 6.8270
 3.9110	 6.8040
 3.9140	 6.7680
 3.9160	 6.7700
 3.9190	 6.8590
 3.9220	 6.8900
 3.9250	 6.8530
 3.9280	 6.7790
 3.9310	 6.8040
 3.9340	 6.8060
 3.9370	 6.7760
 3.9400	 6.7770
 3.9430	 6.8280
 3.9460	 6.8120
 3.9490	 6.8650
 3.9520	 6.9000
 3.9550	 6.9130
 3.9580	 6.8630
 3.9610	 6.8360
 3.9640	 6.8920
 3.9670	 6.9490
 3.9700	 6.9090
 3.9730	 6.9540
 3.9770	 6.9470
 3.9800	 6.9190
 3.9830	 6.8790
 3.9860	 6.9140
 3.9890	 6.9240
 3.9920	 6.9300
 3.9950	 6.8930
 3.9980	 6.9050
 4.0010	 6.9150
 4.0040	 6.8860
 4.0070	 6.8530
 4.0100	 6.8930
 4.0130	 6.9450
 4.0170	 6.9750
 4.0200	 6.9200
 4.0230	 6.9220
 4.0260	 6.9690
 4.0290	 6.9580
 4.0320	 6.8870
 4.0350	 6.9290
 4.0380	 6.9750
 4.0420	 7.0200
 4.0450	 6.9550
 4.0480	 6.8840
 4.0510	 6.8510
 4.0540	 6.9340
 4.0570	 6.9710
 4.0610	 6.9660
 4.0640	 6.9510
 4.0670	 6.9550
 4.0700	 6.9480
 4.0730	 6.9390
 4.0770	 6.9180
 4.0800	 6.9480
 4.0830	 6.9620
 4.0860	 6.9120
 4.0890	 6.9370
 4.0930	 7.0410
 4.0960	 7.0550
 4.0990	 7.0460
 4.1020	 6.9830
 4.1060	 6.9340
 4.1090	 6.9480
 4.1120	 7.0210
 4.1150	 7.0500
 4.1190	 7.0470
 4.1220	 7.0040
 4.1250	 7.0000
 4.1280	 6.9810
 4.1320	 7.0080
 4.1350	 7.0190
 4.1380	 7.0230
 4.1420	 7.0080
 4.1450	 7.0750
 4.1480	 7.1190
 4.1520	 7.0630
 4.1550	 7.0560
 4.1580	 7.0300
 4.1620	 6.9710
 4.1650	 7.0250
 4.1680	 7.0640
 4.1720	 7.0660
 4.1750	 7.0690
 4.1780	 7.0620
 4.1820	 7.0370
 4.1850	 7.0460
 4.1890	 7.0120
 4.1920	 7.0130
 4.1950	 7.0640
 4.1990	 7.1380
 4.2020	 7.1070
 4.2060	 7.1440
 4.2090	 7.1350
 4.2120	 7.1010
 4.2160	 7.0220
 4.2190	 7.0680
 4.2230	 7.1150
 4.2260	 7.2150
 4.2300	 7.1510
 4.2330	 7.1760
 4.2360	 7.2390
 4.2400	 7.0710
 4.2430	 7.0210
 4.2470	 7.1510
 4.2500	 7.0670
 4.2540	 7.0430
 4.2570	 7.1070
 4.2610	 7.2240
 4.2640	 7.1470
 4.2680	 7.0780
 4.2710	 7.0800
 4.2750	 7.0680
 4.2780	 7.1350
 4.2820	 7.1980
 4.2850	 7.0330
 4.2890	 7.0900
 4.2930	 7.1180
 4.2960	 7.0420
 4.3000	 7.0220
 4.3030	 7.1510
 4.3070	 7.2130
 4.3100	 7.2010
 4.3140	 7.1900
 4.3180	 7.0840
 4.3210	 6.9760
 4.3250	 6.9720
 4.3280	 6.9580
 4.3320	 6.9970
 4.3360	 7.0280
 4.3390	 6.9720
 4.3430	 6.9660
 4.3470	 7.0160
 4.3500	 6.9890
 4.3540	 6.9170
 4.3570	 6.8510
 4.3610	 6.8760
 4.3650	 6.9250
 4.3680	 6.9260
 4.3720	 6.8940
 4.3760	 6.9450
 4.3800	 6.9360
 4.3830	 6.9150
 4.3870	 6.8830
 4.3910	 6.8950
 4.3940	 6.9200
 4.3980	 6.9310
 4.4020	 6.9100
 4.4060	 6.8450
 4.4090	 6.8520
 4.4130	 6.8860
 4.4170	 6.8460
 4.4210	 6.8470
 4.4240	 6.8640
 4.4280	 6.8420
 4.4320	 6.7980
 4.4360	 6.7880
 4.4400	 6.7600
 4.4430	 6.7620
 4.4470	 6.7650
 4.4510	 6.7730
 4.4550	 6.8230
 4.4590	 6.8420
 4.4620	 6.7970
 4.4660	 6.7950
 4.4700	 6.8110
 4.4740	 6.7850
 4.4780	 6.7600
 4.4820	 6.7910
 4.4860	 6.7660
 4.4900	 6.7250
 4.4930	 6.6970
 4.4970	 6.7170
 4.5010	 6.7210
 4.5050	 6.7380
 4.5090	 6.7720
 4.5130	 6.7840
 4.5170	 6.7530
 4.5210	 6.6640
 4.5250	 6.6060
 4.5290	 6.6840
 4.5330	 6.7050
 4.5370	 6.6450
 4.5410	 6.6470
 4.5450	 6.6500
 4.5490	 6.6060
 4.5530	 6.6500
 4.5570	 6.6590
 4.5610	 6.6820
 4.5650	 6.7200
 4.5690	 6.6920
 4.5730	 6.5830
 4.5770	 6.5390
 4.5810	 6.5620
 4.5850	 6.5910
 4.5890	 6.6350
 4.5930	 6.6430
 4.5970	 6.5990
 4.6010	 6.5670
 4.6050	 6.5600
 4.6090	 6.5440
 4.6130	 6.5110
 4.6170	 6.5420
 4.6220	 6.5780
 4.6260	 6.5630
 4.6300	 6.5650
 4.6340	 6.5320
 4.6380	 6.5020
 4.6420	 6.5720
 4.6460	 6.5520
 4.6510	 6.5110
 4.6550	 6.5260
 4.6590	 6.4880
 4.6630	 6.4860
 4.6670	 6.5160
 4.6720	 6.4860
 4.6760	 6.4940
 4.6800	 6.4980
 4.6840	 6.4840
 4.6880	 6.4490
 4.6930	 6.4500
 4.6970	 6.5020
 4.7010	 6.5660
 4.7050	 6.5640
 4.7100	 6.5150
 4.7140	 6.4730
 4.7180	 6.4450
 4.7230	 6.4810
 4.7270	 6.5480
 4.7310	 6.5530
 4.7360	 6.5230
 4.7400	 6.5340
 4.7440	 6.5400
 4.7490	 6.5570
 4.7530	 6.5240
 4.7570	 6.5010
 4.7620	 6.5380
 4.7660	 6.5250
 4.7700	 6.5370
 4.7750	 6.5850
 4.7790	 6.5960
 4.7840	 6.5530
 4.7880	 6.5510
 4.7920	 6.5380
 4.7970	 6.5250
 4.8010	 6.5060
 4.8060	 6.4610
 4.8100	 6.4840
 4.8150	 6.5220
 4.8190	 6.5540
 4.8240	 6.5440
 4.8280	 6.5480
 4.8330	 6.5340
 4.8370	 6.5520
 4.8420	 6.5990
 4.8460	 6.6300
 4.8510	 6.6220
 4.8550	 6.5510
 4.8600	 6.4960
 4.8640	 6.5230
 4.8690	 6.4780
 4.8730	 6.4630
 4.8780	 6.4010
 4.8830	 6.4420
 4.8870	 6.5520
 4.8920	 6.5970
 4.8960	 6.5790
 4.9010	 6.5820
 4.9060	 6.5870
 4.9100	 6.6320
 4.9150	 6.6290
 4.9200	 6.6010
 4.9240	 6.5740
 4.9290	 6.6320
 4.9340	 6.6450
 4.9380	 6.5910
 4.9430	 6.5730
 4.9480	 6.6220
 4.9530	 6.6580
 4.9570	 6.6710
 4.9620	 6.6610
 4.9670	 6.6560
 4.9720	 6.6110
 4.9760	 6.6290
 4.9810	 6.6970
 4.9860	 6.7340
 4.9910	 6.7340
 4.9960	 6.7500
 5.0000	 6.6800
 5.0050	 6.6510
 5.0100	 6.6810
 5.0150	 6.7360
 5.0200	 6.6900
 5.0250	 6.6660
 5.0290	 6.6500
 5.0340	 6.6350
 5.0390	 6.6780
 5.0440	 6.7510
 5.0490	 6.7510
 5.0540	 6.6910
 5.0590	 6.6960
 5.0640	 6.7100
 5.0690	 6.7080
 5.0740	 6.7800
 5.0790	 6.8070
 5.0840	 6.7720
 5.0890	 6.7310
 5.0940	 6.7010
 5.0990	 6.6910
 5.1040	 6.7270
 5.1090	 6.7820
 5.1140	 6.8220
 5.1190	 6.7440
 5.1240	 6.7210
 5.1290	 6.7220
 5.1340	 6.7330
 5.1390	 6.7230
 5.1440	 6.7460
 5.1490	 6.7570
 5.1540	 6.7320
 5.1600	 6.6820
 5.1650	 6.7690
 5.1700	 6.8290
 5.1750	 6.7600
 5.1800	 6.7200
 5.1850	 6.7420
 5.1910	 6.7570
 5.1960	 6.8060
 5.2010	 6.8030
 5.2060	 6.7490
 5.2110	 6.7160
 5.2170	 6.7160
 5.2220	 6.7090
 5.2270	 6.6980
 5.2320	 6.7110
 5.2380	 6.7480
 5.2430	 6.7340
 5.2480	 6.7050
 5.2540	 6.6450
 5.2590	 6.6400
 5.2640	 6.6690
 5.2700	 6.7040
 5.2750	 6.7190
 5.2800	 6.7130
 5.2860	 6.6930
 5.2910	 6.6920
 5.2970	 6.6400
 5.3020	 6.6670
 5.3070	 6.6290
 5.3130	 6.6050
 5.3180	 6.6250
 5.3240	 6.6270
 5.3290	 6.5850
 5.3350	 6.6090
 5.3400	 6.5720
 5.3460	 6.5740
 5.3510	 6.6300
 5.3570	 6.6240
 5.3620	 6.5510
 5.3680	 6.5390
 5.3730	 6.5360
 5.3790	 6.5610
 5.3850	 6.5180
 5.3900	 6.4860
 5.3960	 6.4660
 5.4010	 6.5250
 5.4070	 6.5010
 5.4130	 6.4870
 5.4180	 6.4840
 5.4240	 6.4240
 5.4300	 6.3640
 5.4350	 6.3730
 5.4410	 6.3590
