Name: Arctostaphylos glandulosa 1
Type: vegetation
Class: Shrub
Genus: Arctostaphylos
Species: glandulosa
Sample No.: VH230
Owner: UCSB
Wavelength Range: VSWIR
Origin: 34.5084; -119.7682; WGS84
Collection Date: 10/13/2013
Description: Samples were collected as part of the HyspIRI Airborne Campaign. 48 individual plants were sampled in three times in 2013 - spring  summer  and fall. The name of the sample includes a 1  2  or 3 which references a different individual of the species. Samples were taken to JPL and processed within 48 hours of collection. The same leaves were processed in the Nicolet and then measured using the ASD.
Measurement: Bidirectional reflectance
First Column: X
Second Column: Y
X Units: Wavelength (micrometers)
Y Units: Reflectance (percentage)
First X Value: 0.35
Last X Value: 2.5
Number of X Values: 2151
Additional Information: vegetation.shrub.arctostaphylos.glandulosa.vswir.vh230.ucsb.asd.ancillary.txt

 0.3500	 7.8410
 0.3510	 7.3480
 0.3520	 7.1850
 0.3530	 7.1700
 0.3540	 7.0190
 0.3550	 6.9200
 0.3560	 6.9970
 0.3570	 7.0040
 0.3580	 6.6310
 0.3590	 6.6960
 0.3600	 6.7430
 0.3610	 6.6530
 0.3620	 6.9740
 0.3630	 6.9220
 0.3640	 6.7750
 0.3650	 6.8800
 0.3660	 6.7590
 0.3670	 6.7100
 0.3680	 6.7670
 0.3690	 6.7720
 0.3700	 6.6160
 0.3710	 6.5520
 0.3720	 6.6680
 0.3730	 6.6580
 0.3740	 6.8000
 0.3750	 6.8750
 0.3760	 6.6660
 0.3770	 6.6740
 0.3780	 6.7290
 0.3790	 6.7360
 0.3800	 6.7040
 0.3810	 6.7140
 0.3820	 6.6480
 0.3830	 6.4940
 0.3840	 6.5540
 0.3850	 6.6180
 0.3860	 6.6450
 0.3870	 6.6590
 0.3880	 6.6640
 0.3890	 6.6350
 0.3900	 6.5970
 0.3910	 6.6210
 0.3920	 6.5890
 0.3930	 6.6070
 0.3940	 6.7160
 0.3950	 6.6630
 0.3960	 6.6060
 0.3970	 6.5840
 0.3980	 6.5790
 0.3990	 6.5920
 0.4000	 6.5830
 0.4010	 6.5490
 0.4020	 6.5370
 0.4030	 6.5310
 0.4040	 6.5100
 0.4050	 6.4790
 0.4060	 6.5160
 0.4070	 6.5080
 0.4080	 6.4990
 0.4090	 6.6130
 0.4100	 6.6050
 0.4110	 6.5380
 0.4120	 6.4970
 0.4130	 6.5310
 0.4140	 6.5400
 0.4150	 6.5280
 0.4160	 6.5320
 0.4170	 6.5520
 0.4180	 6.6120
 0.4190	 6.6770
 0.4200	 6.6680
 0.4210	 6.6710
 0.4220	 6.7260
 0.4230	 6.8220
 0.4240	 6.8480
 0.4250	 6.9130
 0.4260	 7.0080
 0.4270	 7.0770
 0.4280	 7.1520
 0.4290	 7.2710
 0.4300	 7.4200
 0.4310	 7.5230
 0.4320	 7.6320
 0.4330	 7.7650
 0.4340	 7.9170
 0.4350	 8.0260
 0.4360	 8.1620
 0.4370	 8.3240
 0.4380	 8.4680
 0.4390	 8.6140
 0.4400	 8.7590
 0.4410	 8.9010
 0.4420	 9.0560
 0.4430	 9.1970
 0.4440	 9.3260
 0.4450	 9.4520
 0.4460	 9.5660
 0.4470	 9.6900
 0.4480	 9.8280
 0.4490	 9.9570
 0.4500	10.0720
 0.4510	10.1790
 0.4520	10.2820
 0.4530	10.3610
 0.4540	10.4380
 0.4550	10.5160
 0.4560	10.5930
 0.4570	10.6480
 0.4580	10.7060
 0.4590	10.7780
 0.4600	10.8390
 0.4610	10.8830
 0.4620	10.9280
 0.4630	10.9870
 0.4640	11.0200
 0.4650	11.0370
 0.4660	11.0550
 0.4670	11.0950
 0.4680	11.1200
 0.4690	11.1430
 0.4700	11.1730
 0.4710	11.1910
 0.4720	11.2250
 0.4730	11.2470
 0.4740	11.2150
 0.4750	11.2370
 0.4760	11.2730
 0.4770	11.2910
 0.4780	11.2930
 0.4790	11.2930
 0.4800	11.2980
 0.4810	11.3100
 0.4820	11.3200
 0.4830	11.3420
 0.4840	11.3700
 0.4850	11.3860
 0.4860	11.4190
 0.4870	11.4560
 0.4880	11.4880
 0.4890	11.5220
 0.4900	11.5720
 0.4910	11.6270
 0.4920	11.6700
 0.4930	11.7340
 0.4940	11.8120
 0.4950	11.8950
 0.4960	11.9840
 0.4970	12.0680
 0.4980	12.1590
 0.4990	12.2700
 0.5000	12.3810
 0.5010	12.4990
 0.5020	12.6340
 0.5030	12.7880
 0.5040	12.9340
 0.5050	13.0900
 0.5060	13.2710
 0.5070	13.4500
 0.5080	13.6440
 0.5090	13.8540
 0.5100	14.0710
 0.5110	14.3010
 0.5120	14.5350
 0.5130	14.7730
 0.5140	15.0330
 0.5150	15.3100
 0.5160	15.5950
 0.5170	15.8840
 0.5180	16.1700
 0.5190	16.4660
 0.5200	16.7730
 0.5210	17.0850
 0.5220	17.3990
 0.5230	17.7030
 0.5240	17.9950
 0.5250	18.3040
 0.5260	18.6010
 0.5270	18.8800
 0.5280	19.1490
 0.5290	19.4230
 0.5300	19.6910
 0.5310	19.9450
 0.5320	20.1910
 0.5330	20.4370
 0.5340	20.6750
 0.5350	20.8970
 0.5360	21.1130
 0.5370	21.3180
 0.5380	21.5150
 0.5390	21.7100
 0.5400	21.8930
 0.5410	22.0650
 0.5420	22.2310
 0.5430	22.3970
 0.5440	22.5660
 0.5450	22.7300
 0.5460	22.8800
 0.5470	23.0310
 0.5480	23.1710
 0.5490	23.2970
 0.5500	23.4150
 0.5510	23.5180
 0.5520	23.6070
 0.5530	23.6890
 0.5540	23.7510
 0.5550	23.7890
 0.5560	23.8040
 0.5570	23.8000
 0.5580	23.7820
 0.5590	23.7500
 0.5600	23.7030
 0.5610	23.6430
 0.5620	23.5600
 0.5630	23.4690
 0.5640	23.3870
 0.5650	23.3010
 0.5660	23.2050
 0.5670	23.0980
 0.5680	22.9810
 0.5690	22.8480
 0.5700	22.7060
 0.5710	22.5620
 0.5720	22.4150
 0.5730	22.2680
 0.5740	22.1230
 0.5750	21.9770
 0.5760	21.8460
 0.5770	21.7240
 0.5780	21.6000
 0.5790	21.4780
 0.5800	21.3610
 0.5810	21.2520
 0.5820	21.1470
 0.5830	21.0420
 0.5840	20.9540
 0.5850	20.8800
 0.5860	20.7980
 0.5870	20.7220
 0.5880	20.6510
 0.5890	20.5810
 0.5900	20.5160
 0.5910	20.4520
 0.5920	20.3920
 0.5930	20.3380
 0.5940	20.2900
 0.5950	20.2530
 0.5960	20.2250
 0.5970	20.1970
 0.5980	20.1550
 0.5990	20.1090
 0.6000	20.0730
 0.6010	20.0250
 0.6020	19.9760
 0.6030	19.9200
 0.6040	19.8450
 0.6050	19.7610
 0.6060	19.6740
 0.6070	19.5830
 0.6080	19.4780
 0.6090	19.3640
 0.6100	19.2430
 0.6110	19.1170
 0.6120	19.0070
 0.6130	18.8910
 0.6140	18.7630
 0.6150	18.6490
 0.6160	18.5350
 0.6170	18.4260
 0.6180	18.3310
 0.6190	18.2380
 0.6200	18.1510
 0.6210	18.0760
 0.6220	18.0170
 0.6230	17.9640
 0.6240	17.9220
 0.6250	17.8920
 0.6260	17.8610
 0.6270	17.8440
 0.6280	17.8310
 0.6290	17.8070
 0.6300	17.7940
 0.6310	17.7810
 0.6320	17.7570
 0.6330	17.7230
 0.6340	17.6690
 0.6350	17.6000
 0.6360	17.5150
 0.6370	17.4000
 0.6380	17.2710
 0.6390	17.1280
 0.6400	16.9640
 0.6410	16.7830
 0.6420	16.5930
 0.6430	16.3970
 0.6440	16.1980
 0.6450	16.0010
 0.6460	15.8070
 0.6470	15.6200
 0.6480	15.4520
 0.6490	15.3090
 0.6500	15.1890
 0.6510	15.0860
 0.6520	14.9920
 0.6530	14.9030
 0.6540	14.8140
 0.6550	14.7120
 0.6560	14.5960
 0.6570	14.4630
 0.6580	14.3130
 0.6590	14.1450
 0.6600	13.9660
 0.6610	13.7810
 0.6620	13.5830
 0.6630	13.3910
 0.6640	13.2010
 0.6650	13.0140
 0.6660	12.8540
 0.6670	12.7100
 0.6680	12.5770
 0.6690	12.4530
 0.6700	12.3560
 0.6710	12.2750
 0.6720	12.2080
 0.6730	12.1590
 0.6740	12.1170
 0.6750	12.0870
 0.6760	12.0730
 0.6770	12.0600
 0.6780	12.0630
 0.6790	12.0890
 0.6800	12.1400
 0.6810	12.2190
 0.6820	12.3400
 0.6830	12.5120
 0.6840	12.7410
 0.6850	13.0330
 0.6860	13.3940
 0.6870	13.8350
 0.6880	14.3810
 0.6890	15.0180
 0.6900	15.7460
 0.6910	16.5780
 0.6920	17.5060
 0.6930	18.5200
 0.6940	19.6150
 0.6950	20.8020
 0.6960	22.0500
 0.6970	23.3440
 0.6980	24.6790
 0.6990	26.0390
 0.7000	27.4190
 0.7010	28.8050
 0.7020	30.1730
 0.7030	31.5120
 0.7040	32.8230
 0.7050	34.0980
 0.7060	35.3180
 0.7070	36.5010
 0.7080	37.6440
 0.7090	38.7400
 0.7100	39.7870
 0.7110	40.8020
 0.7120	41.7860
 0.7130	42.7170
 0.7140	43.6100
 0.7150	44.4690
 0.7160	45.2910
 0.7170	46.0730
 0.7180	46.8250
 0.7190	47.5470
 0.7200	48.2330
 0.7210	48.8870
 0.7220	49.5040
 0.7230	50.0860
 0.7240	50.6400
 0.7250	51.1550
 0.7260	51.6360
 0.7270	52.0880
 0.7280	52.5220
 0.7290	52.9190
 0.7300	53.2860
 0.7310	53.6340
 0.7320	53.9520
 0.7330	54.2510
 0.7340	54.5320
 0.7350	54.7820
 0.7360	55.0190
 0.7370	55.2450
 0.7380	55.4560
 0.7390	55.6410
 0.7400	55.8090
 0.7410	55.9710
 0.7420	56.1360
 0.7430	56.2750
 0.7440	56.4030
 0.7450	56.5230
 0.7460	56.6220
 0.7470	56.7150
 0.7480	56.8110
 0.7490	56.9060
 0.7500	56.9710
 0.7510	57.0350
 0.7520	57.1040
 0.7530	57.1720
 0.7540	57.2230
 0.7550	57.2720
 0.7560	57.3170
 0.7570	57.3460
 0.7580	57.3740
 0.7590	57.4090
 0.7600	57.4510
 0.7610	57.4790
 0.7620	57.5150
 0.7630	57.5390
 0.7640	57.5410
 0.7650	57.5730
 0.7660	57.5960
 0.7670	57.6070
 0.7680	57.6200
 0.7690	57.6410
 0.7700	57.6530
 0.7710	57.6580
 0.7720	57.6810
 0.7730	57.6910
 0.7740	57.6900
 0.7750	57.6920
 0.7760	57.7150
 0.7770	57.7300
 0.7780	57.7340
 0.7790	57.7410
 0.7800	57.7500
 0.7810	57.7570
 0.7820	57.7670
 0.7830	57.7870
 0.7840	57.7860
 0.7850	57.7840
 0.7860	57.7970
 0.7870	57.8060
 0.7880	57.8120
 0.7890	57.8110
 0.7900	57.8060
 0.7910	57.8230
 0.7920	57.8510
 0.7930	57.8690
 0.7940	57.8620
 0.7950	57.8740
 0.7960	57.8850
 0.7970	57.8890
 0.7980	57.9040
 0.7990	57.9060
 0.8000	57.9120
 0.8010	57.9330
 0.8020	57.9370
 0.8030	57.9410
 0.8040	57.9500
 0.8050	57.9620
 0.8060	57.9580
 0.8070	57.9630
 0.8080	57.9870
 0.8090	58.0170
 0.8100	58.0320
 0.8110	58.0370
 0.8120	58.0420
 0.8130	58.0530
 0.8140	58.0690
 0.8150	58.0780
 0.8160	58.0780
 0.8170	58.0990
 0.8180	58.1100
 0.8190	58.1130
 0.8200	58.1280
 0.8210	58.1440
 0.8220	58.1600
 0.8230	58.1730
 0.8240	58.1820
 0.8250	58.2060
 0.8260	58.2200
 0.8270	58.2130
 0.8280	58.2160
 0.8290	58.2340
 0.8300	58.2510
 0.8310	58.2510
 0.8320	58.2470
 0.8330	58.2450
 0.8340	58.2500
 0.8350	58.2650
 0.8360	58.2670
 0.8370	58.2760
 0.8380	58.2970
 0.8390	58.3160
 0.8400	58.3100
 0.8410	58.3110
 0.8420	58.3310
 0.8430	58.3480
 0.8440	58.3630
 0.8450	58.3670
 0.8460	58.3630
 0.8470	58.3810
 0.8480	58.3950
 0.8490	58.4040
 0.8500	58.4170
 0.8510	58.4270
 0.8520	58.4340
 0.8530	58.4330
 0.8540	58.4190
 0.8550	58.4480
 0.8560	58.4650
 0.8570	58.4540
 0.8580	58.4490
 0.8590	58.4670
 0.8600	58.4710
 0.8610	58.4500
 0.8620	58.4500
 0.8630	58.4520
 0.8640	58.4470
 0.8650	58.4400
 0.8660	58.4580
 0.8670	58.4690
 0.8680	58.4700
 0.8690	58.4690
 0.8700	58.4570
 0.8710	58.4510
 0.8720	58.4570
 0.8730	58.4710
 0.8740	58.4860
 0.8750	58.4800
 0.8760	58.4650
 0.8770	58.4810
 0.8780	58.4590
 0.8790	58.4350
 0.8800	58.4360
 0.8810	58.4450
 0.8820	58.4380
 0.8830	58.4230
 0.8840	58.4110
 0.8850	58.3970
 0.8860	58.3920
 0.8870	58.3960
 0.8880	58.3980
 0.8890	58.3710
 0.8900	58.3650
 0.8910	58.3620
 0.8920	58.3260
 0.8930	58.3140
 0.8940	58.3010
 0.8950	58.2920
 0.8960	58.3040
 0.8970	58.2900
 0.8980	58.2580
 0.8990	58.2280
 0.9000	58.2210
 0.9010	58.2150
 0.9020	58.2000
 0.9030	58.1760
 0.9040	58.1520
 0.9050	58.1300
 0.9060	58.1150
 0.9070	58.1060
 0.9080	58.0890
 0.9090	58.0750
 0.9100	58.0580
 0.9110	58.0390
 0.9120	58.0440
 0.9130	58.0260
 0.9140	57.9940
 0.9150	57.9730
 0.9160	57.9760
 0.9170	57.9540
 0.9180	57.9130
 0.9190	57.8860
 0.9200	57.8930
 0.9210	57.8970
 0.9220	57.8800
 0.9230	57.8470
 0.9240	57.8070
 0.9250	57.7860
 0.9260	57.7730
 0.9270	57.7390
 0.9280	57.7150
 0.9290	57.6990
 0.9300	57.6760
 0.9310	57.6330
 0.9320	57.6170
 0.9330	57.5830
 0.9340	57.5180
 0.9350	57.4620
 0.9360	57.4510
 0.9370	57.4330
 0.9380	57.3860
 0.9390	57.3460
 0.9400	57.3080
 0.9410	57.2680
 0.9420	57.2210
 0.9430	57.1610
 0.9440	57.1090
 0.9450	57.0600
 0.9460	57.0040
 0.9470	56.9410
 0.9480	56.8890
 0.9490	56.8130
 0.9500	56.6970
 0.9510	56.6050
 0.9520	56.5160
 0.9530	56.4250
 0.9540	56.3370
 0.9550	56.2740
 0.9560	56.1680
 0.9570	56.0530
 0.9580	55.9720
 0.9590	55.8980
 0.9600	55.7880
 0.9610	55.6890
 0.9620	55.6470
 0.9630	55.5860
 0.9640	55.4880
 0.9650	55.3970
 0.9660	55.3580
 0.9670	55.3310
 0.9680	55.3010
 0.9690	55.2530
 0.9700	55.1900
 0.9710	55.1750
 0.9720	55.1670
 0.9730	55.1420
 0.9740	55.1010
 0.9750	55.0910
 0.9760	55.0760
 0.9770	55.0570
 0.9780	55.0470
 0.9790	55.0230
 0.9800	55.0170
 0.9810	55.0230
 0.9820	55.0210
 0.9830	55.0320
 0.9840	55.0480
 0.9850	55.0460
 0.9860	55.0220
 0.9870	55.0720
 0.9880	55.1220
 0.9890	55.1500
 0.9900	55.1730
 0.9910	55.2030
 0.9920	55.2120
 0.9930	55.2210
 0.9940	55.2310
 0.9950	55.2400
 0.9960	55.2490
 0.9970	55.2580
 0.9980	55.2680
 0.9990	55.2770
 1.0000	55.2860
 1.0010	55.2950
 1.0020	55.3050
 1.0030	55.3140
 1.0040	55.3230
 1.0050	55.3330
 1.0060	55.3420
 1.0070	55.3510
 1.0080	55.3600
 1.0090	55.3700
 1.0100	55.3700
 1.0110	55.4130
 1.0120	55.4510
 1.0130	55.4860
 1.0140	55.5230
 1.0150	55.5500
 1.0160	55.5960
 1.0170	55.6400
 1.0180	55.6830
 1.0190	55.7270
 1.0200	55.7620
 1.0210	55.7900
 1.0220	55.8260
 1.0230	55.8640
 1.0240	55.9020
 1.0250	55.9360
 1.0260	55.9800
 1.0270	56.0110
 1.0280	56.0290
 1.0290	56.0540
 1.0300	56.0720
 1.0310	56.1020
 1.0320	56.1410
 1.0330	56.1870
 1.0340	56.2260
 1.0350	56.2540
 1.0360	56.2790
 1.0370	56.3120
 1.0380	56.3430
 1.0390	56.3870
 1.0400	56.4120
 1.0410	56.4240
 1.0420	56.4420
 1.0430	56.4540
 1.0440	56.4700
 1.0450	56.4920
 1.0460	56.5100
 1.0470	56.5240
 1.0480	56.5410
 1.0490	56.5660
 1.0500	56.5830
 1.0510	56.5940
 1.0520	56.6160
 1.0530	56.6230
 1.0540	56.6170
 1.0550	56.6240
 1.0560	56.6290
 1.0570	56.6400
 1.0580	56.6570
 1.0590	56.6760
 1.0600	56.7020
 1.0610	56.7200
 1.0620	56.7400
 1.0630	56.7550
 1.0640	56.7560
 1.0650	56.7660
 1.0660	56.7820
 1.0670	56.7940
 1.0680	56.8050
 1.0690	56.8170
 1.0700	56.8270
 1.0710	56.8290
 1.0720	56.8400
 1.0730	56.8590
 1.0740	56.8680
 1.0750	56.8800
 1.0760	56.8800
 1.0770	56.8670
 1.0780	56.8600
 1.0790	56.8520
 1.0800	56.8450
 1.0810	56.8390
 1.0820	56.8350
 1.0830	56.8320
 1.0840	56.8280
 1.0850	56.8260
 1.0860	56.8230
 1.0870	56.8190
 1.0880	56.8130
 1.0890	56.8090
 1.0900	56.8080
 1.0910	56.7990
 1.0920	56.7910
 1.0930	56.7750
 1.0940	56.7470
 1.0950	56.7290
 1.0960	56.7130
 1.0970	56.6940
 1.0980	56.6790
 1.0990	56.6580
 1.1000	56.6240
 1.1010	56.5990
 1.1020	56.5780
 1.1030	56.5600
 1.1040	56.5310
 1.1050	56.5090
 1.1060	56.4810
 1.1070	56.4430
 1.1080	56.4120
 1.1090	56.3910
 1.1100	56.3560
 1.1110	56.3130
 1.1120	56.2720
 1.1130	56.2270
 1.1140	56.1760
 1.1150	56.1250
 1.1160	56.0710
 1.1170	56.0140
 1.1180	55.9510
 1.1190	55.8870
 1.1200	55.8150
 1.1210	55.7400
 1.1220	55.6570
 1.1230	55.5750
 1.1240	55.4970
 1.1250	55.4090
 1.1260	55.3200
 1.1270	55.2220
 1.1280	55.1170
 1.1290	55.0080
 1.1300	54.8940
 1.1310	54.7740
 1.1320	54.6530
 1.1330	54.5180
 1.1340	54.3720
 1.1350	54.2200
 1.1360	54.0560
 1.1370	53.8920
 1.1380	53.7180
 1.1390	53.5430
 1.1400	53.3620
 1.1410	53.1690
 1.1420	52.9710
 1.1430	52.7720
 1.1440	52.5660
 1.1450	52.3480
 1.1460	52.1390
 1.1470	51.9280
 1.1480	51.7180
 1.1490	51.5070
 1.1500	51.3040
 1.1510	51.1020
 1.1520	50.9090
 1.1530	50.7220
 1.1540	50.5440
 1.1550	50.3720
 1.1560	50.2090
 1.1570	50.0550
 1.1580	49.9290
 1.1590	49.8170
 1.1600	49.7060
 1.1610	49.6140
 1.1620	49.5240
 1.1630	49.4370
 1.1640	49.3650
 1.1650	49.2920
 1.1660	49.2220
 1.1670	49.1640
 1.1680	49.1130
 1.1690	49.0660
 1.1700	49.0320
 1.1710	48.9930
 1.1720	48.9560
 1.1730	48.9170
 1.1740	48.8770
 1.1750	48.8340
 1.1760	48.7930
 1.1770	48.7510
 1.1780	48.7120
 1.1790	48.6770
 1.1800	48.6340
 1.1810	48.5880
 1.1820	48.5390
 1.1830	48.4900
 1.1840	48.4460
 1.1850	48.4080
 1.1860	48.3710
 1.1870	48.3340
 1.1880	48.2990
 1.1890	48.2650
 1.1900	48.2310
 1.1910	48.1970
 1.1920	48.1670
 1.1930	48.1400
 1.1940	48.1140
 1.1950	48.0910
 1.1960	48.0690
 1.1970	48.0500
 1.1980	48.0320
 1.1990	48.0170
 1.2000	48.0100
 1.2010	48.0040
 1.2020	48.0020
 1.2030	48.0130
 1.2040	48.0270
 1.2050	48.0450
 1.2060	48.0690
 1.2070	48.0870
 1.2080	48.1100
 1.2090	48.1420
 1.2100	48.1720
 1.2110	48.2110
 1.2120	48.2650
 1.2130	48.3150
 1.2140	48.3660
 1.2150	48.4240
 1.2160	48.4870
 1.2170	48.5430
 1.2180	48.6030
 1.2190	48.6660
 1.2200	48.7290
 1.2210	48.7940
 1.2220	48.8630
 1.2230	48.9320
 1.2240	48.9950
 1.2250	49.0620
 1.2260	49.1260
 1.2270	49.1900
 1.2280	49.2560
 1.2290	49.3170
 1.2300	49.3780
 1.2310	49.4350
 1.2320	49.4910
 1.2330	49.5440
 1.2340	49.5940
 1.2350	49.6400
 1.2360	49.6850
 1.2370	49.7270
 1.2380	49.7710
 1.2390	49.8130
 1.2400	49.8560
 1.2410	49.8960
 1.2420	49.9280
 1.2430	49.9650
 1.2440	50.0020
 1.2450	50.0360
 1.2460	50.0750
 1.2470	50.1080
 1.2480	50.1380
 1.2490	50.1710
 1.2500	50.1990
 1.2510	50.2230
 1.2520	50.2490
 1.2530	50.2750
 1.2540	50.3000
 1.2550	50.3200
 1.2560	50.3380
 1.2570	50.3560
 1.2580	50.3690
 1.2590	50.3810
 1.2600	50.3960
 1.2610	50.4080
 1.2620	50.4160
 1.2630	50.4270
 1.2640	50.4390
 1.2650	50.4430
 1.2660	50.4510
 1.2670	50.4570
 1.2680	50.4590
 1.2690	50.4650
 1.2700	50.4670
 1.2710	50.4660
 1.2720	50.4620
 1.2730	50.4550
 1.2740	50.4500
 1.2750	50.4370
 1.2760	50.4200
 1.2770	50.4100
 1.2780	50.3940
 1.2790	50.3770
 1.2800	50.3620
 1.2810	50.3430
 1.2820	50.3190
 1.2830	50.2900
 1.2840	50.2620
 1.2850	50.2340
 1.2860	50.2040
 1.2870	50.1730
 1.2880	50.1450
 1.2890	50.1070
 1.2900	50.0650
 1.2910	50.0250
 1.2920	49.9760
 1.2930	49.9280
 1.2940	49.8840
 1.2950	49.8300
 1.2960	49.7760
 1.2970	49.7300
 1.2980	49.6710
 1.2990	49.6100
 1.3000	49.5500
 1.3010	49.4760
 1.3020	49.3990
 1.3030	49.3220
 1.3040	49.2350
 1.3050	49.1500
 1.3060	49.0660
 1.3070	48.9770
 1.3080	48.8860
 1.3090	48.7870
 1.3100	48.6800
 1.3110	48.5720
 1.3120	48.4560
 1.3130	48.3300
 1.3140	48.2010
 1.3150	48.0690
 1.3160	47.9280
 1.3170	47.7790
 1.3180	47.6300
 1.3190	47.4700
 1.3200	47.3070
 1.3210	47.1420
 1.3220	46.9680
 1.3230	46.7900
 1.3240	46.6070
 1.3250	46.4210
 1.3260	46.2360
 1.3270	46.0480
 1.3280	45.8570
 1.3290	45.6580
 1.3300	45.4540
 1.3310	45.2450
 1.3320	45.0320
 1.3330	44.8190
 1.3340	44.6070
 1.3350	44.3970
 1.3360	44.1840
 1.3370	43.9640
 1.3380	43.7430
 1.3390	43.5280
 1.3400	43.3080
 1.3410	43.0910
 1.3420	42.8790
 1.3430	42.6620
 1.3440	42.4510
 1.3450	42.2460
 1.3460	42.0500
 1.3470	41.8530
 1.3480	41.6560
 1.3490	41.4640
 1.3500	41.2760
 1.3510	41.0860
 1.3520	40.8980
 1.3530	40.7170
 1.3540	40.5340
 1.3550	40.3540
 1.3560	40.1770
 1.3570	40.0000
 1.3580	39.8230
 1.3590	39.6420
 1.3600	39.4550
 1.3610	39.2640
 1.3620	39.0680
 1.3630	38.8670
 1.3640	38.6620
 1.3650	38.4470
 1.3660	38.2250
 1.3670	37.9910
 1.3680	37.7460
 1.3690	37.4960
 1.3700	37.2300
 1.3710	36.9510
 1.3720	36.6600
 1.3730	36.3500
 1.3740	36.0280
 1.3750	35.6890
 1.3760	35.3200
 1.3770	34.9270
 1.3780	34.5050
 1.3790	34.0590
 1.3800	33.5970
 1.3810	33.1080
 1.3820	32.5990
 1.3830	32.0690
 1.3840	31.5190
 1.3850	30.9420
 1.3860	30.3570
 1.3870	29.7500
 1.3880	29.1440
 1.3890	28.5280
 1.3900	27.9080
 1.3910	27.2890
 1.3920	26.6660
 1.3930	26.0420
 1.3940	25.4250
 1.3950	24.8080
 1.3960	24.2030
 1.3970	23.6120
 1.3980	23.0300
 1.3990	22.4700
 1.4000	21.9290
 1.4010	21.3990
 1.4020	20.8930
 1.4030	20.4060
 1.4040	19.9390
 1.4050	19.4990
 1.4060	19.0800
 1.4070	18.6860
 1.4080	18.3170
 1.4090	17.9670
 1.4100	17.6440
 1.4110	17.3410
 1.4120	17.0550
 1.4130	16.7910
 1.4140	16.5460
 1.4150	16.3200
 1.4160	16.1120
 1.4170	15.9230
 1.4180	15.7500
 1.4190	15.5880
 1.4200	15.4380
 1.4210	15.2960
 1.4220	15.1640
 1.4230	15.0470
 1.4240	14.9430
 1.4250	14.8470
 1.4260	14.7660
 1.4270	14.6870
 1.4280	14.6160
 1.4290	14.5510
 1.4300	14.4930
 1.4310	14.4390
 1.4320	14.3920
 1.4330	14.3480
 1.4340	14.3050
 1.4350	14.2690
 1.4360	14.2400
 1.4370	14.2140
 1.4380	14.1930
 1.4390	14.1760
 1.4400	14.1590
 1.4410	14.1450
 1.4420	14.1340
 1.4430	14.1250
 1.4440	14.1180
 1.4450	14.1150
 1.4460	14.1160
 1.4470	14.1190
 1.4480	14.1210
 1.4490	14.1250
 1.4500	14.1260
 1.4510	14.1280
 1.4520	14.1360
 1.4530	14.1440
 1.4540	14.1540
 1.4550	14.1660
 1.4560	14.1780
 1.4570	14.1930
 1.4580	14.2100
 1.4590	14.2290
 1.4600	14.2510
 1.4610	14.2730
 1.4620	14.2970
 1.4630	14.3260
 1.4640	14.3560
 1.4650	14.3900
 1.4660	14.4290
 1.4670	14.4680
 1.4680	14.5130
