Name: Pyllostachys vivax
Type: vegetation
Class: Tree
Genus: Pyllostachys
Species: vivax
Sample No.: JPL192
Owner: JPL
Wavelength Range: VSWIR
Origin: 34.12505; -118.11546; WGS84
Collection Date: 10/3/2016
Description: Samples were collected at the Huntington Garden in San Marino California as part of a JPL Subcontract studying HyTES imagery. Samples were taken to JPL and processed within 48 hours of collection. The same leaves were processed in the Nicolet and then measured using the ASD.
Measurement: Bidirectional reflectance
First Column: X
Second Column: Y
X Units: Wavelength (micrometer)
Y Units: Reflectance (percentage)
First X Value: 0.35
Last X Value: 2.5
Number of X Values: 2151
Additional Information: vegetation.tree.pyllostachys.vivax.vswir.jpl192.jpl.asd.ancillary.txt

 0.3500	 8.2590
 0.3510	 8.3100
 0.3520	 8.3830
 0.3530	 8.4130
 0.3540	 8.3720
 0.3550	 8.2580
 0.3560	 8.2610
 0.3570	 8.3320
 0.3580	 8.3070
 0.3590	 8.1760
 0.3600	 8.1020
 0.3610	 8.1470
 0.3620	 8.2180
 0.3630	 8.2430
 0.3640	 8.2290
 0.3650	 8.1960
 0.3660	 8.0980
 0.3670	 8.0850
 0.3680	 8.1220
 0.3690	 8.0700
 0.3700	 8.1350
 0.3710	 8.1640
 0.3720	 8.0840
 0.3730	 8.0580
 0.3740	 8.0410
 0.3750	 8.0480
 0.3760	 8.0860
 0.3770	 8.0530
 0.3780	 8.0050
 0.3790	 7.9790
 0.3800	 7.9900
 0.3810	 8.0080
 0.3820	 8.0300
 0.3830	 8.0490
 0.3840	 8.0200
 0.3850	 7.9650
 0.3860	 7.9390
 0.3870	 7.9810
 0.3880	 7.9900
 0.3890	 7.9770
 0.3900	 7.9650
 0.3910	 7.9740
 0.3920	 7.9890
 0.3930	 7.9940
 0.3940	 7.9810
 0.3950	 7.9660
 0.3960	 7.9580
 0.3970	 7.9520
 0.3980	 7.9430
 0.3990	 7.9730
 0.4000	 7.9880
 0.4010	 7.9680
 0.4020	 7.9490
 0.4030	 7.9680
 0.4040	 7.9770
 0.4050	 7.9420
 0.4060	 7.9520
 0.4070	 7.9700
 0.4080	 7.9820
 0.4090	 7.9930
 0.4100	 7.9980
 0.4110	 8.0080
 0.4120	 8.0260
 0.4130	 8.0380
 0.4140	 8.0460
 0.4150	 8.0530
 0.4160	 8.0590
 0.4170	 8.0670
 0.4180	 8.0860
 0.4190	 8.1080
 0.4200	 8.1100
 0.4210	 8.1220
 0.4220	 8.1370
 0.4230	 8.1420
 0.4240	 8.1360
 0.4250	 8.1370
 0.4260	 8.1440
 0.4270	 8.1450
 0.4280	 8.1440
 0.4290	 8.1460
 0.4300	 8.1470
 0.4310	 8.1360
 0.4320	 8.1230
 0.4330	 8.1120
 0.4340	 8.1050
 0.4350	 8.1000
 0.4360	 8.0960
 0.4370	 8.1010
 0.4380	 8.1260
 0.4390	 8.1490
 0.4400	 8.1670
 0.4410	 8.1830
 0.4420	 8.2080
 0.4430	 8.2190
 0.4440	 8.2210
 0.4450	 8.2290
 0.4460	 8.2310
 0.4470	 8.2360
 0.4480	 8.2470
 0.4490	 8.2620
 0.4500	 8.2720
 0.4510	 8.2780
 0.4520	 8.2790
 0.4530	 8.2800
 0.4540	 8.2850
 0.4550	 8.2960
 0.4560	 8.3090
 0.4570	 8.3170
 0.4580	 8.3170
 0.4590	 8.3150
 0.4600	 8.3240
 0.4610	 8.3220
 0.4620	 8.3170
 0.4630	 8.3210
 0.4640	 8.3220
 0.4650	 8.3230
 0.4660	 8.3270
 0.4670	 8.3330
 0.4680	 8.3370
 0.4690	 8.3400
 0.4700	 8.3410
 0.4710	 8.3390
 0.4720	 8.3420
 0.4730	 8.3450
 0.4740	 8.3420
 0.4750	 8.3440
 0.4760	 8.3460
 0.4770	 8.3460
 0.4780	 8.3500
 0.4790	 8.3530
 0.4800	 8.3560
 0.4810	 8.3600
 0.4820	 8.3540
 0.4830	 8.3520
 0.4840	 8.3520
 0.4850	 8.3410
 0.4860	 8.3350
 0.4870	 8.3390
 0.4880	 8.3500
 0.4890	 8.3620
 0.4900	 8.3700
 0.4910	 8.3800
 0.4920	 8.4020
 0.4930	 8.4270
 0.4940	 8.4450
 0.4950	 8.4600
 0.4960	 8.4910
 0.4970	 8.5230
 0.4980	 8.5540
 0.4990	 8.5870
 0.5000	 8.6260
 0.5010	 8.6700
 0.5020	 8.7170
 0.5030	 8.7630
 0.5040	 8.8220
 0.5050	 8.8860
 0.5060	 8.9470
 0.5070	 9.0200
 0.5080	 9.1020
 0.5090	 9.1940
 0.5100	 9.2990
 0.5110	 9.4090
 0.5120	 9.5330
 0.5130	 9.6700
 0.5140	 9.8120
 0.5150	 9.9630
 0.5160	10.1300
 0.5170	10.3140
 0.5180	10.5030
 0.5190	10.7020
 0.5200	10.9100
 0.5210	11.1240
 0.5220	11.3400
 0.5230	11.5560
 0.5240	11.7730
 0.5250	11.9860
 0.5260	12.1880
 0.5270	12.3820
 0.5280	12.5700
 0.5290	12.7470
 0.5300	12.9110
 0.5310	13.0610
 0.5320	13.1940
 0.5330	13.3160
 0.5340	13.4270
 0.5350	13.5250
 0.5360	13.6080
 0.5370	13.6820
 0.5380	13.7450
 0.5390	13.7900
 0.5400	13.8180
 0.5410	13.8310
 0.5420	13.8360
 0.5430	13.8540
 0.5440	13.8820
 0.5450	13.9210
 0.5460	13.9720
 0.5470	14.0340
 0.5480	14.0880
 0.5490	14.1250
 0.5500	14.1490
 0.5510	14.1680
 0.5520	14.1790
 0.5530	14.1770
 0.5540	14.1650
 0.5550	14.1400
 0.5560	14.1020
 0.5570	14.0490
 0.5580	13.9780
 0.5590	13.8920
 0.5600	13.7960
 0.5610	13.6890
 0.5620	13.5740
 0.5630	13.4530
 0.5640	13.3290
 0.5650	13.2020
 0.5660	13.0710
 0.5670	12.9360
 0.5680	12.8010
 0.5690	12.6670
 0.5700	12.5310
 0.5710	12.3950
 0.5720	12.2640
 0.5730	12.1340
 0.5740	12.0100
 0.5750	11.8970
 0.5760	11.7930
 0.5770	11.6930
 0.5780	11.5960
 0.5790	11.5040
 0.5800	11.4170
 0.5810	11.3380
 0.5820	11.2690
 0.5830	11.2020
 0.5840	11.1430
 0.5850	11.0920
 0.5860	11.0440
 0.5870	10.9920
 0.5880	10.9430
 0.5890	10.9020
 0.5900	10.8640
 0.5910	10.8240
 0.5920	10.7830
 0.5930	10.7480
 0.5940	10.7200
 0.5950	10.7000
 0.5960	10.6840
 0.5970	10.6670
 0.5980	10.6490
 0.5990	10.6290
 0.6000	10.6070
 0.6010	10.5850
 0.6020	10.5600
 0.6030	10.5290
 0.6040	10.4930
 0.6050	10.4510
 0.6060	10.4030
 0.6070	10.3510
 0.6080	10.2920
 0.6090	10.2160
 0.6100	10.1190
 0.6110	10.0090
 0.6120	 9.9530
 0.6130	 9.9280
 0.6140	 9.9100
 0.6150	 9.8720
 0.6160	 9.8310
 0.6170	 9.7880
 0.6180	 9.7430
 0.6190	 9.7000
 0.6200	 9.6610
 0.6210	 9.6270
 0.6220	 9.5990
 0.6230	 9.5770
 0.6240	 9.5590
 0.6250	 9.5430
 0.6260	 9.5310
 0.6270	 9.5220
 0.6280	 9.5130
 0.6290	 9.5010
 0.6300	 9.4880
 0.6310	 9.4760
 0.6320	 9.4670
 0.6330	 9.4610
 0.6340	 9.4450
 0.6350	 9.4190
 0.6360	 9.3850
 0.6370	 9.3470
 0.6380	 9.3050
 0.6390	 9.2580
 0.6400	 9.2050
 0.6410	 9.1530
 0.6420	 9.1020
 0.6430	 9.0510
 0.6440	 9.0000
 0.6450	 8.9500
 0.6460	 8.9020
 0.6470	 8.8600
 0.6480	 8.8230
 0.6490	 8.7920
 0.6500	 8.7640
 0.6510	 8.7440
 0.6520	 8.7300
 0.6530	 8.7200
 0.6540	 8.7100
 0.6550	 8.6950
 0.6560	 8.6810
 0.6570	 8.6670
 0.6580	 8.6460
 0.6590	 8.6270
 0.6600	 8.6080
 0.6610	 8.5860
 0.6620	 8.5650
 0.6630	 8.5470
 0.6640	 8.5330
 0.6650	 8.5240
 0.6660	 8.5140
 0.6670	 8.5070
 0.6680	 8.5050
 0.6690	 8.5070
 0.6700	 8.5150
 0.6710	 8.5270
 0.6720	 8.5410
 0.6730	 8.5560
 0.6740	 8.5750
 0.6750	 8.5990
 0.6760	 8.6250
 0.6770	 8.6510
 0.6780	 8.6810
 0.6790	 8.7180
 0.6800	 8.7570
 0.6810	 8.7980
 0.6820	 8.8420
 0.6830	 8.8890
 0.6840	 8.9400
 0.6850	 8.9970
 0.6860	 9.0620
 0.6870	 9.1370
 0.6880	 9.2310
 0.6890	 9.3490
 0.6900	 9.5000
 0.6910	 9.6870
 0.6920	 9.9210
 0.6930	10.2080
 0.6940	10.5550
 0.6950	10.9680
 0.6960	11.4460
 0.6970	11.9870
 0.6980	12.5900
 0.6990	13.2480
 0.7000	13.9540
 0.7010	14.6980
 0.7020	15.4680
 0.7030	16.2530
 0.7040	17.0490
 0.7050	17.8520
 0.7060	18.6510
 0.7070	19.4460
 0.7080	20.2390
 0.7090	21.0350
 0.7100	21.8250
 0.7110	22.6130
 0.7120	23.4000
 0.7130	24.1840
 0.7140	24.9690
 0.7150	25.7530
 0.7160	26.5330
 0.7170	27.3110
 0.7180	28.0880
 0.7190	28.8630
 0.7200	29.6320
 0.7210	30.3950
 0.7220	31.1510
 0.7230	31.8980
 0.7240	32.6330
 0.7250	33.3580
 0.7260	34.0670
 0.7270	34.7580
 0.7280	35.4300
 0.7290	36.0830
 0.7300	36.7170
 0.7310	37.3320
 0.7320	37.9200
 0.7330	38.4860
 0.7340	39.0330
 0.7350	39.5550
 0.7360	40.0510
 0.7370	40.5220
 0.7380	40.9690
 0.7390	41.3950
 0.7400	41.7950
 0.7410	42.1720
 0.7420	42.5300
 0.7430	42.8610
 0.7440	43.1670
 0.7450	43.4540
 0.7460	43.7210
 0.7470	43.9660
 0.7480	44.1910
 0.7490	44.3990
 0.7500	44.5900
 0.7510	44.7660
 0.7520	44.9260
 0.7530	45.0710
 0.7540	45.2070
 0.7550	45.3300
 0.7560	45.4400
 0.7570	45.5390
 0.7580	45.6320
 0.7590	45.7150
 0.7600	45.7890
 0.7610	45.8580
 0.7620	45.9200
 0.7630	45.9740
 0.7640	46.0200
 0.7650	46.0650
 0.7660	46.1050
 0.7670	46.1400
 0.7680	46.1700
 0.7690	46.1970
 0.7700	46.2230
 0.7710	46.2470
 0.7720	46.2650
 0.7730	46.2820
 0.7740	46.2990
 0.7750	46.3140
 0.7760	46.3240
 0.7770	46.3360
 0.7780	46.3480
 0.7790	46.3560
 0.7800	46.3650
 0.7810	46.3730
 0.7820	46.3780
 0.7830	46.3860
 0.7840	46.3890
 0.7850	46.3900
 0.7860	46.3930
 0.7870	46.3940
 0.7880	46.3940
 0.7890	46.3920
 0.7900	46.3870
 0.7910	46.3850
 0.7920	46.3840
 0.7930	46.3820
 0.7940	46.3730
 0.7950	46.3670
 0.7960	46.3600
 0.7970	46.3520
 0.7980	46.3410
 0.7990	46.3310
 0.8000	46.3190
 0.8010	46.3050
 0.8020	46.2940
 0.8030	46.2820
 0.8040	46.2700
 0.8050	46.2560
 0.8060	46.2400
 0.8070	46.2240
 0.8080	46.2080
 0.8090	46.1900
 0.8100	46.1720
 0.8110	46.1560
 0.8120	46.1410
 0.8130	46.1210
 0.8140	46.1020
 0.8150	46.0830
 0.8160	46.0650
 0.8170	46.0480
 0.8180	46.0310
 0.8190	46.0120
 0.8200	45.9920
 0.8210	45.9760
 0.8220	45.9600
 0.8230	45.9420
 0.8240	45.9220
 0.8250	45.9060
 0.8260	45.8910
 0.8270	45.8750
 0.8280	45.8580
 0.8290	45.8420
 0.8300	45.8280
 0.8310	45.8130
 0.8320	45.7970
 0.8330	45.7820
 0.8340	45.7690
 0.8350	45.7570
 0.8360	45.7470
 0.8370	45.7370
 0.8380	45.7270
 0.8390	45.7200
 0.8400	45.7110
 0.8410	45.7020
 0.8420	45.6940
 0.8430	45.6890
 0.8440	45.6820
 0.8450	45.6760
 0.8460	45.6740
 0.8470	45.6660
 0.8480	45.6610
 0.8490	45.6590
 0.8500	45.6590
 0.8510	45.6560
 0.8520	45.6560
 0.8530	45.6570
 0.8540	45.6570
 0.8550	45.6540
 0.8560	45.6550
 0.8570	45.6600
 0.8580	45.6610
 0.8590	45.6660
 0.8600	45.6710
 0.8610	45.6750
 0.8620	45.6770
 0.8630	45.6850
 0.8640	45.6920
 0.8650	45.6930
 0.8660	45.6990
 0.8670	45.7090
 0.8680	45.7180
 0.8690	45.7230
 0.8700	45.7300
 0.8710	45.7350
 0.8720	45.7430
 0.8730	45.7590
 0.8740	45.7670
 0.8750	45.7730
 0.8760	45.7820
 0.8770	45.8000
 0.8780	45.8130
 0.8790	45.8190
 0.8800	45.8220
 0.8810	45.8370
 0.8820	45.8490
 0.8830	45.8590
 0.8840	45.8680
 0.8850	45.8760
 0.8860	45.8860
 0.8870	45.8980
 0.8880	45.9120
 0.8890	45.9230
 0.8900	45.9350
 0.8910	45.9460
 0.8920	45.9540
 0.8930	45.9670
 0.8940	45.9770
 0.8950	45.9860
 0.8960	46.0040
 0.8970	46.0100
 0.8980	46.0140
 0.8990	46.0230
 0.9000	46.0380
 0.9010	46.0480
 0.9020	46.0550
 0.9030	46.0620
 0.9040	46.0710
 0.9050	46.0820
 0.9060	46.0900
 0.9070	46.0950
 0.9080	46.1020
 0.9090	46.1090
 0.9100	46.1140
 0.9110	46.1200
 0.9120	46.1350
 0.9130	46.1420
 0.9140	46.1420
 0.9150	46.1410
 0.9160	46.1450
 0.9170	46.1500
 0.9180	46.1540
 0.9190	46.1580
 0.9200	46.1600
 0.9210	46.1590
 0.9220	46.1560
 0.9230	46.1540
 0.9240	46.1530
 0.9250	46.1540
 0.9260	46.1530
 0.9270	46.1460
 0.9280	46.1370
 0.9290	46.1290
 0.9300	46.1230
 0.9310	46.1140
 0.9320	46.1050
 0.9330	46.0930
 0.9340	46.0830
 0.9350	46.0790
 0.9360	46.0700
 0.9370	46.0570
 0.9380	46.0430
 0.9390	46.0310
 0.9400	46.0180
 0.9410	46.0050
 0.9420	45.9920
 0.9430	45.9780
 0.9440	45.9550
 0.9450	45.9310
 0.9460	45.9120
 0.9470	45.8970
 0.9480	45.8790
 0.9490	45.8520
 0.9500	45.8180
 0.9510	45.7970
 0.9520	45.7790
 0.9530	45.7530
 0.9540	45.7160
 0.9550	45.6850
 0.9560	45.6650
 0.9570	45.6430
 0.9580	45.6080
 0.9590	45.5810
 0.9600	45.5580
 0.9610	45.5380
 0.9620	45.5210
 0.9630	45.5100
 0.9640	45.4880
 0.9650	45.4610
 0.9660	45.4450
 0.9670	45.4380
 0.9680	45.4260
 0.9690	45.4090
 0.9700	45.3990
 0.9710	45.3910
 0.9720	45.3850
 0.9730	45.3760
 0.9740	45.3610
 0.9750	45.3550
 0.9760	45.3500
 0.9770	45.3350
 0.9780	45.3110
 0.9790	45.3130
 0.9800	45.3150
 0.9810	45.3110
 0.9820	45.3070
 0.9830	45.3000
 0.9840	45.2930
 0.9850	45.2920
 0.9860	45.2980
 0.9870	45.2890
 0.9880	45.2850
 0.9890	45.2860
 0.9900	45.2850
 0.9910	45.2800
 0.9920	45.2820
 0.9930	45.2820
 0.9940	45.2730
 0.9950	45.2830
 0.9960	45.2790
 0.9970	45.2700
 0.9980	45.2810
 0.9990	45.2900
 1.0000	45.2920
 1.0010	46.6480
 1.0020	46.6510
 1.0030	46.6530
 1.0040	46.6470
 1.0050	46.6450
 1.0060	46.6460
 1.0070	46.6450
 1.0080	46.6440
 1.0090	46.6450
 1.0100	46.6470
 1.0110	46.6480
 1.0120	46.6520
 1.0130	46.6610
 1.0140	46.6640
 1.0150	46.6650
 1.0160	46.6650
 1.0170	46.6630
 1.0180	46.6630
 1.0190	46.6650
 1.0200	46.6650
 1.0210	46.6660
 1.0220	46.6650
 1.0230	46.6660
 1.0240	46.6690
 1.0250	46.6720
 1.0260	46.6750
 1.0270	46.6800
 1.0280	46.6860
 1.0290	46.6900
 1.0300	46.6920
 1.0310	46.6950
 1.0320	46.6970
 1.0330	46.7000
 1.0340	46.7060
 1.0350	46.7110
 1.0360	46.7130
 1.0370	46.7160
 1.0380	46.7190
 1.0390	46.7220
 1.0400	46.7240
 1.0410	46.7240
 1.0420	46.7260
 1.0430	46.7260
 1.0440	46.7290
 1.0450	46.7340
 1.0460	46.7390
 1.0470	46.7470
 1.0480	46.7510
 1.0490	46.7510
 1.0500	46.7520
 1.0510	46.7490
 1.0520	46.7480
 1.0530	46.7470
 1.0540	46.7490
 1.0550	46.7490
 1.0560	46.7470
 1.0570	46.7460
 1.0580	46.7470
 1.0590	46.7450
 1.0600	46.7380
 1.0610	46.7350
 1.0620	46.7300
 1.0630	46.7260
 1.0640	46.7260
 1.0650	46.7230
 1.0660	46.7180
 1.0670	46.7150
 1.0680	46.7130
 1.0690	46.7130
 1.0700	46.7090
 1.0710	46.7060
 1.0720	46.7020
 1.0730	46.6960
 1.0740	46.6910
 1.0750	46.6840
 1.0760	46.6790
 1.0770	46.6730
 1.0780	46.6690
 1.0790	46.6700
 1.0800	46.6680
 1.0810	46.6670
 1.0820	46.6630
 1.0830	46.6580
 1.0840	46.6530
 1.0850	46.6450
 1.0860	46.6400
 1.0870	46.6370
 1.0880	46.6360
 1.0890	46.6330
 1.0900	46.6300
 1.0910	46.6260
 1.0920	46.6190
 1.0930	46.6140
 1.0940	46.6100
 1.0950	46.6070
 1.0960	46.6060
 1.0970	46.6050
 1.0980	46.6080
 1.0990	46.6060
 1.1000	46.5960
 1.1010	46.5930
 1.1020	46.5910
 1.1030	46.5870
 1.1040	46.5860
 1.1050	46.5860
 1.1060	46.5850
 1.1070	46.5800
 1.1080	46.5780
 1.1090	46.5770
 1.1100	46.5750
 1.1110	46.5710
 1.1120	46.5680
 1.1130	46.5660
 1.1140	46.5610
 1.1150	46.5560
 1.1160	46.5500
 1.1170	46.5430
 1.1180	46.5370
 1.1190	46.5290
 1.1200	46.5230
 1.1210	46.5130
 1.1220	46.5050
 1.1230	46.4970
 1.1240	46.4830
 1.1250	46.4710
 1.1260	46.4590
 1.1270	46.4420
 1.1280	46.4210
 1.1290	46.3990
 1.1300	46.3750
 1.1310	46.3460
 1.1320	46.3150
 1.1330	46.2820
 1.1340	46.2450
 1.1350	46.2050
 1.1360	46.1620
 1.1370	46.1160
 1.1380	46.0660
 1.1390	46.0130
 1.1400	45.9590
 1.1410	45.9060
 1.1420	45.8520
 1.1430	45.7970
 1.1440	45.7410
 1.1450	45.6830
 1.1460	45.6270
 1.1470	45.5710
 1.1480	45.5180
 1.1490	45.4650
 1.1500	45.4150
 1.1510	45.3650
 1.1520	45.3190
 1.1530	45.2750
 1.1540	45.2350
 1.1550	45.1980
 1.1560	45.1650
 1.1570	45.1370
 1.1580	45.1090
 1.1590	45.0850
 1.1600	45.0630
 1.1610	45.0400
 1.1620	45.0170
 1.1630	44.9990
 1.1640	44.9830
 1.1650	44.9690
 1.1660	44.9590
 1.1670	44.9480
 1.1680	44.9380
 1.1690	44.9290
 1.1700	44.9220
 1.1710	44.9130
 1.1720	44.9030
 1.1730	44.8940
 1.1740	44.8840
 1.1750	44.8750
 1.1760	44.8700
 1.1770	44.8630
 1.1780	44.8550
 1.1790	44.8440
 1.1800	44.8310
 1.1810	44.8190
 1.1820	44.8090
 1.1830	44.8010
 1.1840	44.7920
 1.1850	44.7810
 1.1860	44.7690
 1.1870	44.7570
 1.1880	44.7470
 1.1890	44.7370
 1.1900	44.7290
 1.1910	44.7210
 1.1920	44.7130
 1.1930	44.7050
 1.1940	44.6980
 1.1950	44.6910
 1.1960	44.6850
 1.1970	44.6800
 1.1980	44.6740
 1.1990	44.6690
 1.2000	44.6660
 1.2010	44.6640
 1.2020	44.6640
 1.2030	44.6640
 1.2040	44.6660
 1.2050	44.6670
 1.2060	44.6670
 1.2070	44.6690
 1.2080	44.6700
 1.2090	44.6710
 1.2100	44.6740
 1.2110	44.6770
 1.2120	44.6800
 1.2130	44.6850
 1.2140	44.6910
 1.2150	44.6970
 1.2160	44.7030
 1.2170	44.7100
 1.2180	44.7170
 1.2190	44.7240
 1.2200	44.7330
 1.2210	44.7420
 1.2220	44.7510
 1.2230	44.7600
 1.2240	44.7700
 1.2250	44.7780
 1.2260	44.7860
 1.2270	44.7960
 1.2280	44.8050
 1.2290	44.8130
 1.2300	44.8200
 1.2310	44.8250
 1.2320	44.8310
 1.2330	44.8390
 1.2340	44.8450
 1.2350	44.8530
 1.2360	44.8590
 1.2370	44.8630
 1.2380	44.8680
 1.2390	44.8720
 1.2400	44.8750
 1.2410	44.8790
 1.2420	44.8810
 1.2430	44.8840
 1.2440	44.8870
 1.2450	44.8910
 1.2460	44.8930
 1.2470	44.8940
 1.2480	44.8970
 1.2490	44.8990
 1.2500	44.9010
 1.2510	44.9030
 1.2520	44.9040
 1.2530	44.9040
 1.2540	44.9040
 1.2550	44.9020
 1.2560	44.9000
 1.2570	44.8970
 1.2580	44.8940
 1.2590	44.8910
 1.2600	44.8880
 1.2610	44.8860
 1.2620	44.8840
 1.2630	44.8810
 1.2640	44.8770
 1.2650	44.8740
 1.2660	44.8690
 1.2670	44.8650
 1.2680	44.8610
 1.2690	44.8560
 1.2700	44.8500
 1.2710	44.8420
 1.2720	44.8350
 1.2730	44.8280
 1.2740	44.8220
 1.2750	44.8150
 1.2760	44.8080
 1.2770	44.7990
 1.2780	44.7900
 1.2790	44.7800
 1.2800	44.7700
 1.2810	44.7590
 1.2820	44.7470
 1.2830	44.7340
 1.2840	44.7190
 1.2850	44.7000
 1.2860	44.6810
 1.2870	44.6610
 1.2880	44.6390
 1.2890	44.6180
 1.2900	44.5960
 1.2910	44.5710
 1.2920	44.5450
 1.2930	44.5180
 1.2940	44.4890
 1.2950	44.4590
 1.2960	44.4270
 1.2970	44.3940
 1.2980	44.3600
 1.2990	44.3270
 1.3000	44.2940
 1.3010	44.2580
 1.3020	44.2220
 1.3030	44.1860
 1.3040	44.1480
 1.3050	44.1100
 1.3060	44.0710
 1.3070	44.0320
 1.3080	43.9940
 1.3090	43.9540
 1.3100	43.9140
 1.3110	43.8720
 1.3120	43.8300
 1.3130	43.7900
 1.3140	43.7470
 1.3150	43.7060
 1.3160	43.6620
 1.3170	43.6180
 1.3180	43.5700
 1.3190	43.5230
 1.3200	43.4780
 1.3210	43.4300
 1.3220	43.3820
 1.3230	43.3350
 1.3240	43.2850
 1.3250	43.2340
 1.3260	43.1840
 1.3270	43.1310
 1.3280	43.0780
 1.3290	43.0240
 1.3300	42.9690
 1.3310	42.9130
 1.3320	42.8560
 1.3330	42.7980
 1.3340	42.7390
 1.3350	42.6800
 1.3360	42.6200
 1.3370	42.5600
 1.3380	42.5010
 1.3390	42.4410
 1.3400	42.3810
 1.3410	42.3230
 1.3420	42.2650
 1.3430	42.2070
 1.3440	42.1500
 1.3450	42.0920
 1.3460	42.0310
 1.3470	41.9730
 1.3480	41.9160
 1.3490	41.8600
 1.3500	41.8050
 1.3510	41.7490
 1.3520	41.6930
 1.3530	41.6350
 1.3540	41.5750
 1.3550	41.5150
 1.3560	41.4550
 1.3570	41.3930
 1.3580	41.3300
 1.3590	41.2680
 1.3600	41.2020
 1.3610	41.1360
 1.3620	41.0660
 1.3630	40.9930
 1.3640	40.9170
 1.3650	40.8360
 1.3660	40.7530
 1.3670	40.6650
 1.3680	40.5700
 1.3690	40.4710
 1.3700	40.3600
 1.3710	40.2410
 1.3720	40.1140
 1.3730	39.9770
 1.3740	39.8310
 1.3750	39.6740
 1.3760	39.5030
 1.3770	39.3160
 1.3780	39.1110
 1.3790	38.8910
 1.3800	38.6550
 1.3810	38.3990
 1.3820	38.1290
 1.3830	37.8440
 1.3840	37.5410
 1.3850	37.2190
 1.3860	36.8840
 1.3870	36.5300
 1.3880	36.1670
 1.3890	35.7910
 1.3900	35.4010
 1.3910	35.0050
 1.3920	34.5990
 1.3930	34.1830
 1.3940	33.7630
 1.3950	33.3370
 1.3960	32.9100
 1.3970	32.4850
 1.3980	32.0630
 1.3990	31.6500
 1.4000	31.2440
 1.4010	30.8440
 1.4020	30.4560
 1.4030	30.0750
 1.4040	29.7070
 1.4050	29.3570
 1.4060	29.0190
 1.4070	28.6990
 1.4080	28.3950
 1.4090	28.1040
 1.4100	27.8320
 1.4110	27.5730
 1.4120	27.3300
 1.4130	27.1040
 1.4140	26.8920
 1.4150	26.6960
 1.4160	26.5150
 1.4170	26.3450
 1.4180	26.1890
 1.4190	26.0440
 1.4200	25.9110
 1.4210	25.7880
 1.4220	25.6740
 1.4230	25.5720
 1.4240	25.4780
 1.4250	25.3920
 1.4260	25.3150
 1.4270	25.2450
 1.4280	25.1810
 1.4290	25.1250
 1.4300	25.0760
 1.4310	25.0320
 1.4320	24.9960
 1.4330	24.9640
 1.4340	24.9380
 1.4350	24.9150
 1.4360	24.8970
 1.4370	24.8840
 1.4380	24.8730
 1.4390	24.8660
 1.4400	24.8620
 1.4410	24.8610
 1.4420	24.8630
 1.4430	24.8680
 1.4440	24.8770
 1.4450	24.8860
 1.4460	24.8980
 1.4470	24.9110
 1.4480	24.9250
 1.4490	24.9400
 1.4500	24.9570
 1.4510	24.9750
 1.4520	24.9950
 1.4530	25.0170
 1.4540	25.0400
 1.4550	25.0650
 1.4560	25.0920
 1.4570	25.1210
 1.4580	25.1550
 1.4590	25.1910
 1.4600	25.2320
 1.4610	25.2750
 1.4620	25.3210
 1.4630	25.3730
 1.4640	25.4290
 1.4650	25.4890
 1.4660	25.5560
 1.4670	25.6270
 1.4680	25.7040
 1.4690	25.7840
 1.4700	25.8670
 1.4710	25.9540
 1.4720	26.0450
 1.4730	26.1380
 1.4740	26.2360
 1.4750	26.3360
 1.4760	26.4390
 1.4770	26.5440
