Name: Baccharis pilularis 2
Type: vegetation
Class: Shrub
Genus: Baccharis
Species: pilularis
Sample No.: VH099
Owner: UCSB
Wavelength Range: VSWIR
Origin: 34.418; -119.8455; WGS84
Collection Date: 6/3/2013
Description: Samples were collected as part of the HyspIRI Airborne Campaign. 48 individual plants were sampled in three times in 2013 - spring  summer  and fall. The name of the sample includes a 1  2  or 3 which references a different individual of the species. Samples were taken to JPL and processed within 48 hours of collection. The same leaves were processed in the Nicolet and then measured using the ASD.
Measurement: Bidirectional reflectance
First Column: X
Second Column: Y
X Units: Wavelength (micrometers)
Y Units: Reflectance (percentage)
First X Value: 0.35
Last X Value: 2.5
Number of X Values: 2151
Additional Information: vegetation.shrub.baccharis.pilularis.vswir.vh099.ucsb.asd.ancillary.txt

 0.3500	 4.1500
 0.3510	 4.1550
 0.3520	 4.2000
 0.3530	 4.1600
 0.3540	 3.9900
 0.3550	 3.8740
 0.3560	 3.9230
 0.3570	 4.0740
 0.3580	 4.1650
 0.3590	 4.0480
 0.3600	 3.9920
 0.3610	 4.0650
 0.3620	 3.9910
 0.3630	 4.0820
 0.3640	 4.1850
 0.3650	 4.1230
 0.3660	 4.0390
 0.3670	 4.0720
 0.3680	 4.1600
 0.3690	 4.1270
 0.3700	 4.1690
 0.3710	 4.1370
 0.3720	 4.0130
 0.3730	 4.1130
 0.3740	 4.1540
 0.3750	 4.1230
 0.3760	 4.1010
 0.3770	 4.1840
 0.3780	 4.2330
 0.3790	 4.2160
 0.3800	 4.2120
 0.3810	 4.2420
 0.3820	 4.2800
 0.3830	 4.2870
 0.3840	 4.1990
 0.3850	 4.1500
 0.3860	 4.1770
 0.3870	 4.2610
 0.3880	 4.3570
 0.3890	 4.3890
 0.3900	 4.3700
 0.3910	 4.3980
 0.3920	 4.3840
 0.3930	 4.3660
 0.3940	 4.3890
 0.3950	 4.4550
 0.3960	 4.4630
 0.3970	 4.4440
 0.3980	 4.4850
 0.3990	 4.5160
 0.4000	 4.5750
 0.4010	 4.6570
 0.4020	 4.7000
 0.4030	 4.7120
 0.4040	 4.7240
 0.4050	 4.7600
 0.4060	 4.7940
 0.4070	 4.8240
 0.4080	 4.8550
 0.4090	 4.8970
 0.4100	 4.9530
 0.4110	 4.9920
 0.4120	 5.0050
 0.4130	 5.0390
 0.4140	 5.0680
 0.4150	 5.1020
 0.4160	 5.1510
 0.4170	 5.1800
 0.4180	 5.2270
 0.4190	 5.2860
 0.4200	 5.3130
 0.4210	 5.3450
 0.4220	 5.3820
 0.4230	 5.4200
 0.4240	 5.4630
 0.4250	 5.4770
 0.4260	 5.4800
 0.4270	 5.5150
 0.4280	 5.5590
 0.4290	 5.5870
 0.4300	 5.5980
 0.4310	 5.6330
 0.4320	 5.6620
 0.4330	 5.6890
 0.4340	 5.7240
 0.4350	 5.7550
 0.4360	 5.7720
 0.4370	 5.7770
 0.4380	 5.7870
 0.4390	 5.8130
 0.4400	 5.8380
 0.4410	 5.8530
 0.4420	 5.8790
 0.4430	 5.9060
 0.4440	 5.9330
 0.4450	 5.9630
 0.4460	 5.9760
 0.4470	 5.9900
 0.4480	 6.0150
 0.4490	 6.0560
 0.4500	 6.0930
 0.4510	 6.1200
 0.4520	 6.1410
 0.4530	 6.1650
 0.4540	 6.1980
 0.4550	 6.2220
 0.4560	 6.2130
 0.4570	 6.2360
 0.4580	 6.2620
 0.4590	 6.2720
 0.4600	 6.2810
 0.4610	 6.2960
 0.4620	 6.3090
 0.4630	 6.3090
 0.4640	 6.3040
 0.4650	 6.3050
 0.4660	 6.3130
 0.4670	 6.3230
 0.4680	 6.3300
 0.4690	 6.3340
 0.4700	 6.3360
 0.4710	 6.3440
 0.4720	 6.3470
 0.4730	 6.3480
 0.4740	 6.3550
 0.4750	 6.3700
 0.4760	 6.3850
 0.4770	 6.3930
 0.4780	 6.4020
 0.4790	 6.4120
 0.4800	 6.4210
 0.4810	 6.4290
 0.4820	 6.4440
 0.4830	 6.4620
 0.4840	 6.4790
 0.4850	 6.4930
 0.4860	 6.5140
 0.4870	 6.5370
 0.4880	 6.5580
 0.4890	 6.5840
 0.4900	 6.6160
 0.4910	 6.6530
 0.4920	 6.6870
 0.4930	 6.7190
 0.4940	 6.7570
 0.4950	 6.8050
 0.4960	 6.8590
 0.4970	 6.9190
 0.4980	 6.9840
 0.4990	 7.0490
 0.5000	 7.1220
 0.5010	 7.2050
 0.5020	 7.2970
 0.5030	 7.3940
 0.5040	 7.5000
 0.5050	 7.6180
 0.5060	 7.7490
 0.5070	 7.8890
 0.5080	 8.0380
 0.5090	 8.1970
 0.5100	 8.3680
 0.5110	 8.5570
 0.5120	 8.7540
 0.5130	 8.9590
 0.5140	 9.1820
 0.5150	 9.4200
 0.5160	 9.6650
 0.5170	 9.9120
 0.5180	10.1780
 0.5190	10.4460
 0.5200	10.7130
 0.5210	10.9890
 0.5220	11.2660
 0.5230	11.5400
 0.5240	11.8060
 0.5250	12.0640
 0.5260	12.3150
 0.5270	12.5540
 0.5280	12.7720
 0.5290	12.9780
 0.5300	13.1720
 0.5310	13.3490
 0.5320	13.5140
 0.5330	13.6700
 0.5340	13.8120
 0.5350	13.9340
 0.5360	14.0420
 0.5370	14.1400
 0.5380	14.2340
 0.5390	14.3260
 0.5400	14.4110
 0.5410	14.4930
 0.5420	14.5750
 0.5430	14.6480
 0.5440	14.7190
 0.5450	14.7840
 0.5460	14.8330
 0.5470	14.8740
 0.5480	14.9080
 0.5490	14.9410
 0.5500	14.9790
 0.5510	15.0090
 0.5520	15.0260
 0.5530	15.0320
 0.5540	15.0220
 0.5550	14.9930
 0.5560	14.9490
 0.5570	14.8920
 0.5580	14.8240
 0.5590	14.7450
 0.5600	14.6560
 0.5610	14.5570
 0.5620	14.4450
 0.5630	14.3230
 0.5640	14.1900
 0.5650	14.0540
 0.5660	13.9140
 0.5670	13.7720
 0.5680	13.6230
 0.5690	13.4650
 0.5700	13.3040
 0.5710	13.1460
 0.5720	12.9920
 0.5730	12.8430
 0.5740	12.7000
 0.5750	12.5560
 0.5760	12.4140
 0.5770	12.2790
 0.5780	12.1580
 0.5790	12.0590
 0.5800	11.9580
 0.5810	11.8550
 0.5820	11.7580
 0.5830	11.6670
 0.5840	11.5780
 0.5850	11.4950
 0.5860	11.4280
 0.5870	11.3710
 0.5880	11.3180
 0.5890	11.2680
 0.5900	11.2160
 0.5910	11.1650
 0.5920	11.1170
 0.5930	11.0720
 0.5940	11.0350
 0.5950	11.0060
 0.5960	10.9810
 0.5970	10.9480
 0.5980	10.9170
 0.5990	10.8880
 0.6000	10.8580
 0.6010	10.8210
 0.6020	10.7770
 0.6030	10.7280
 0.6040	10.6730
 0.6050	10.6140
 0.6060	10.5480
 0.6070	10.4760
 0.6080	10.3990
 0.6090	10.3230
 0.6100	10.2500
 0.6110	10.1810
 0.6120	10.0930
 0.6130	 9.9960
 0.6140	 9.8990
 0.6150	 9.8060
 0.6160	 9.7240
 0.6170	 9.6490
 0.6180	 9.5770
 0.6190	 9.5170
 0.6200	 9.4640
 0.6210	 9.4130
 0.6220	 9.3650
 0.6230	 9.3240
 0.6240	 9.2920
 0.6250	 9.2660
 0.6260	 9.2470
 0.6270	 9.2280
 0.6280	 9.2100
 0.6290	 9.1990
 0.6300	 9.1890
 0.6310	 9.1720
 0.6320	 9.1480
 0.6330	 9.1240
 0.6340	 9.0960
 0.6350	 9.0560
 0.6360	 9.0010
 0.6370	 8.9420
 0.6380	 8.8710
 0.6390	 8.7890
 0.6400	 8.7060
 0.6410	 8.6160
 0.6420	 8.5230
 0.6430	 8.4270
 0.6440	 8.3310
 0.6450	 8.2340
 0.6460	 8.1400
 0.6470	 8.0530
 0.6480	 7.9720
 0.6490	 7.9000
 0.6500	 7.8380
 0.6510	 7.7830
 0.6520	 7.7280
 0.6530	 7.6770
 0.6540	 7.6290
 0.6550	 7.5770
 0.6560	 7.5180
 0.6570	 7.4530
 0.6580	 7.3820
 0.6590	 7.3070
 0.6600	 7.2270
 0.6610	 7.1460
 0.6620	 7.0670
 0.6630	 6.9920
 0.6640	 6.9220
 0.6650	 6.8570
 0.6660	 6.8010
 0.6670	 6.7530
 0.6680	 6.7130
 0.6690	 6.6790
 0.6700	 6.6550
 0.6710	 6.6400
 0.6720	 6.6330
 0.6730	 6.6320
 0.6740	 6.6350
 0.6750	 6.6450
 0.6760	 6.6610
 0.6770	 6.6810
 0.6780	 6.7100
 0.6790	 6.7490
 0.6800	 6.7940
 0.6810	 6.8480
 0.6820	 6.9130
 0.6830	 6.9930
 0.6840	 7.1000
 0.6850	 7.2250
 0.6860	 7.3770
 0.6870	 7.5680
 0.6880	 7.8000
 0.6890	 8.0790
 0.6900	 8.4120
 0.6910	 8.8030
 0.6920	 9.2560
 0.6930	 9.7750
 0.6940	10.3620
 0.6950	11.0050
 0.6960	11.7090
 0.6970	12.4670
 0.6980	13.2710
 0.6990	14.1170
 0.7000	15.0000
 0.7010	15.9110
 0.7020	16.8420
 0.7030	17.7850
 0.7040	18.7350
 0.7050	19.6890
 0.7060	20.6420
 0.7070	21.5920
 0.7080	22.5370
 0.7090	23.4800
 0.7100	24.4160
 0.7110	25.3490
 0.7120	26.2780
 0.7130	27.2020
 0.7140	28.1140
 0.7150	29.0190
 0.7160	29.9140
 0.7170	30.7900
 0.7180	31.6600
 0.7190	32.5200
 0.7200	33.3600
 0.7210	34.1810
 0.7220	34.9820
 0.7230	35.7610
 0.7240	36.5190
 0.7250	37.2520
 0.7260	37.9580
 0.7270	38.6380
 0.7280	39.2890
 0.7290	39.9120
 0.7300	40.5030
 0.7310	41.0580
 0.7320	41.5950
 0.7330	42.1010
 0.7340	42.5760
 0.7350	43.0320
 0.7360	43.4620
 0.7370	43.8650
 0.7380	44.2390
 0.7390	44.5910
 0.7400	44.9210
 0.7410	45.2320
 0.7420	45.5250
 0.7430	45.7960
 0.7440	46.0450
 0.7450	46.2740
 0.7460	46.4840
 0.7470	46.6770
 0.7480	46.8590
 0.7490	47.0330
 0.7500	47.1910
 0.7510	47.3340
 0.7520	47.4610
 0.7530	47.5750
 0.7540	47.6880
 0.7550	47.7910
 0.7560	47.8840
 0.7570	47.9710
 0.7580	48.0500
 0.7590	48.1250
 0.7600	48.1970
 0.7610	48.2610
 0.7620	48.3200
 0.7630	48.3740
 0.7640	48.4240
 0.7650	48.4720
 0.7660	48.5170
 0.7670	48.5560
 0.7680	48.5870
 0.7690	48.6270
 0.7700	48.6700
 0.7710	48.7100
 0.7720	48.7400
 0.7730	48.7760
 0.7740	48.8100
 0.7750	48.8330
 0.7760	48.8610
 0.7770	48.8930
 0.7780	48.9270
 0.7790	48.9590
 0.7800	48.9800
 0.7810	49.0040
 0.7820	49.0350
 0.7830	49.0630
 0.7840	49.0880
 0.7850	49.1100
 0.7860	49.1340
 0.7870	49.1700
 0.7880	49.2000
 0.7890	49.2250
 0.7900	49.2500
 0.7910	49.2740
 0.7920	49.2940
 0.7930	49.3140
 0.7940	49.3400
 0.7950	49.3620
 0.7960	49.3840
 0.7970	49.4100
 0.7980	49.4350
 0.7990	49.4550
 0.8000	49.4740
 0.8010	49.4920
 0.8020	49.5060
 0.8030	49.5230
 0.8040	49.5430
 0.8050	49.5630
 0.8060	49.5780
 0.8070	49.5880
 0.8080	49.5970
 0.8090	49.6120
 0.8100	49.6250
 0.8110	49.6410
 0.8120	49.6570
 0.8130	49.6630
 0.8140	49.6740
 0.8150	49.6880
 0.8160	49.6990
 0.8170	49.7040
 0.8180	49.7100
 0.8190	49.7170
 0.8200	49.7250
 0.8210	49.7390
 0.8220	49.7480
 0.8230	49.7510
 0.8240	49.7600
 0.8250	49.7620
 0.8260	49.7610
 0.8270	49.7600
 0.8280	49.7630
 0.8290	49.7680
 0.8300	49.7760
 0.8310	49.7850
 0.8320	49.7790
 0.8330	49.7780
 0.8340	49.7820
 0.8350	49.7850
 0.8360	49.7920
 0.8370	49.7970
 0.8380	49.8020
 0.8390	49.8170
 0.8400	49.8260
 0.8410	49.8340
 0.8420	49.8440
 0.8430	49.8550
 0.8440	49.8660
 0.8450	49.8740
 0.8460	49.8790
 0.8470	49.8900
 0.8480	49.9010
 0.8490	49.9110
 0.8500	49.9240
 0.8510	49.9400
 0.8520	49.9530
 0.8530	49.9620
 0.8540	49.9720
 0.8550	49.9840
 0.8560	49.9960
 0.8570	50.0050
 0.8580	50.0170
 0.8590	50.0320
 0.8600	50.0460
 0.8610	50.0590
 0.8620	50.0720
 0.8630	50.0810
 0.8640	50.0900
 0.8650	50.1020
 0.8660	50.1240
 0.8670	50.1410
 0.8680	50.1510
 0.8690	50.1610
 0.8700	50.1820
 0.8710	50.1990
 0.8720	50.2120
 0.8730	50.2280
 0.8740	50.2470
 0.8750	50.2590
 0.8760	50.2710
 0.8770	50.2950
 0.8780	50.3050
 0.8790	50.3120
 0.8800	50.3280
 0.8810	50.3540
 0.8820	50.3730
 0.8830	50.3880
 0.8840	50.4040
 0.8850	50.4110
 0.8860	50.4280
 0.8870	50.4500
 0.8880	50.4650
 0.8890	50.4780
 0.8900	50.4910
 0.8910	50.5050
 0.8920	50.5240
 0.8930	50.5390
 0.8940	50.5550
 0.8950	50.5730
 0.8960	50.5880
 0.8970	50.6070
 0.8980	50.6290
 0.8990	50.6460
 0.9000	50.6500
 0.9010	50.6670
 0.9020	50.6850
 0.9030	50.6950
 0.9040	50.6980
 0.9050	50.7140
 0.9060	50.7380
 0.9070	50.7590
 0.9080	50.7680
 0.9090	50.7750
 0.9100	50.7880
 0.9110	50.8070
 0.9120	50.8220
 0.9130	50.8320
 0.9140	50.8410
 0.9150	50.8540
 0.9160	50.8630
 0.9170	50.8630
 0.9180	50.8690
 0.9190	50.8920
 0.9200	50.8950
 0.9210	50.8900
 0.9220	50.8860
 0.9230	50.8850
 0.9240	50.8840
 0.9250	50.8840
 0.9260	50.8760
 0.9270	50.8490
 0.9280	50.8380
 0.9290	50.8280
 0.9300	50.8110
 0.9310	50.7920
 0.9320	50.7630
 0.9330	50.7350
 0.9340	50.7090
 0.9350	50.6730
 0.9360	50.6530
 0.9370	50.6290
 0.9380	50.5930
 0.9390	50.5670
 0.9400	50.5360
 0.9410	50.4850
 0.9420	50.4200
 0.9430	50.3800
 0.9440	50.3390
 0.9450	50.2880
 0.9460	50.2230
 0.9470	50.1510
 0.9480	50.0800
 0.9490	50.0060
 0.9500	49.9280
 0.9510	49.8430
 0.9520	49.7490
 0.9530	49.6460
 0.9540	49.5430
 0.9550	49.4580
 0.9560	49.3720
 0.9570	49.2810
 0.9580	49.1920
 0.9590	49.1030
 0.9600	49.0340
 0.9610	48.9880
 0.9620	48.9570
 0.9630	48.9270
 0.9640	48.8950
 0.9650	48.8620
 0.9660	48.8350
 0.9670	48.8220
 0.9680	48.8050
 0.9690	48.7880
 0.9700	48.7790
 0.9710	48.7640
 0.9720	48.7560
 0.9730	48.7560
 0.9740	48.7580
 0.9750	48.7690
 0.9760	48.7780
 0.9770	48.7910
 0.9780	48.8160
 0.9790	48.8310
 0.9800	48.8340
 0.9810	48.8390
 0.9820	48.8640
 0.9830	48.8840
 0.9840	48.9120
 0.9850	48.9400
 0.9860	48.9570
 0.9870	48.9870
 0.9880	49.0190
 0.9890	49.0470
 0.9900	49.0710
 0.9910	49.1070
 0.9920	49.1830
 0.9930	49.2580
 0.9940	49.3340
 0.9950	49.4090
 0.9960	49.4850
 0.9970	49.5600
 0.9980	49.6360
 0.9990	49.7110
 1.0000	49.7870
 1.0010	49.8620
 1.0020	49.9380
 1.0030	50.0130
 1.0040	50.0890
 1.0050	50.1640
 1.0060	50.2400
 1.0070	50.3150
 1.0080	50.3910
 1.0090	50.4660
 1.0100	50.4660
 1.0110	50.5090
 1.0120	50.5520
 1.0130	50.5950
 1.0140	50.6360
 1.0150	50.6770
 1.0160	50.7200
 1.0170	50.7610
 1.0180	50.8020
 1.0190	50.8480
 1.0200	50.8880
 1.0210	50.9290
 1.0220	50.9680
 1.0230	51.0070
 1.0240	51.0450
 1.0250	51.0820
 1.0260	51.1180
 1.0270	51.1550
 1.0280	51.1930
 1.0290	51.2300
 1.0300	51.2680
 1.0310	51.3060
 1.0320	51.3430
 1.0330	51.3780
 1.0340	51.4170
 1.0350	51.4500
 1.0360	51.4780
 1.0370	51.5090
 1.0380	51.5410
 1.0390	51.5720
 1.0400	51.5990
 1.0410	51.6240
 1.0420	51.6510
 1.0430	51.6740
 1.0440	51.7020
 1.0450	51.7370
 1.0460	51.7660
 1.0470	51.7930
 1.0480	51.8180
 1.0490	51.8370
 1.0500	51.8600
 1.0510	51.8830
 1.0520	51.9070
 1.0530	51.9280
 1.0540	51.9510
 1.0550	51.9700
 1.0560	51.9860
 1.0570	52.0010
 1.0580	52.0160
 1.0590	52.0300
 1.0600	52.0410
 1.0610	52.0530
 1.0620	52.0670
 1.0630	52.0780
 1.0640	52.0870
 1.0650	52.0950
 1.0660	52.1000
 1.0670	52.1060
 1.0680	52.1110
 1.0690	52.1140
 1.0700	52.1200
 1.0710	52.1270
 1.0720	52.1290
 1.0730	52.1310
 1.0740	52.1310
 1.0750	52.1250
 1.0760	52.1230
 1.0770	52.1250
 1.0780	52.1230
 1.0790	52.1220
 1.0800	52.1170
 1.0810	52.1040
 1.0820	52.0970
 1.0830	52.0930
 1.0840	52.0860
 1.0850	52.0840
 1.0860	52.0770
 1.0870	52.0670
 1.0880	52.0540
 1.0890	52.0380
 1.0900	52.0180
 1.0910	52.0030
 1.0920	51.9870
 1.0930	51.9720
 1.0940	51.9620
 1.0950	51.9470
 1.0960	51.9300
 1.0970	51.9120
 1.0980	51.8940
 1.0990	51.8740
 1.1000	51.8500
 1.1010	51.8300
 1.1020	51.8100
 1.1030	51.7900
 1.1040	51.7740
 1.1050	51.7560
 1.1060	51.7350
 1.1070	51.7110
 1.1080	51.6890
 1.1090	51.6670
 1.1100	51.6430
 1.1110	51.6210
 1.1120	51.5950
 1.1130	51.5670
 1.1140	51.5380
 1.1150	51.5100
 1.1160	51.4770
 1.1170	51.4420
 1.1180	51.4020
 1.1190	51.3570
 1.1200	51.3080
 1.1210	51.2540
 1.1220	51.1980
 1.1230	51.1390
 1.1240	51.0720
 1.1250	50.9950
 1.1260	50.9150
 1.1270	50.8180
 1.1280	50.7110
 1.1290	50.5910
 1.1300	50.4600
 1.1310	50.3170
 1.1320	50.1610
 1.1330	49.9960
 1.1340	49.8210
 1.1350	49.6340
 1.1360	49.4380
 1.1370	49.2300
 1.1380	49.0120
 1.1390	48.7870
 1.1400	48.5530
 1.1410	48.3180
 1.1420	48.0810
 1.1430	47.8410
 1.1440	47.6070
 1.1450	47.3690
 1.1460	47.1460
 1.1470	46.9260
 1.1480	46.7190
 1.1490	46.5190
 1.1500	46.3360
 1.1510	46.1610
 1.1520	46.0040
 1.1530	45.8640
 1.1540	45.7350
 1.1550	45.6200
 1.1560	45.5170
 1.1570	45.4260
 1.1580	45.3460
 1.1590	45.2760
 1.1600	45.2160
 1.1610	45.1660
 1.1620	45.1220
 1.1630	45.0840
 1.1640	45.0530
 1.1650	45.0250
 1.1660	45.0030
 1.1670	44.9820
 1.1680	44.9660
 1.1690	44.9500
 1.1700	44.9360
 1.1710	44.9220
 1.1720	44.9100
 1.1730	44.8970
 1.1740	44.8860
 1.1750	44.8750
 1.1760	44.8650
 1.1770	44.8520
 1.1780	44.8350
 1.1790	44.8170
 1.1800	44.7990
 1.1810	44.7800
 1.1820	44.7630
 1.1830	44.7480
 1.1840	44.7310
 1.1850	44.7160
 1.1860	44.7030
 1.1870	44.6890
 1.1880	44.6780
 1.1890	44.6670
 1.1900	44.6600
 1.1910	44.6530
 1.1920	44.6520
 1.1930	44.6550
 1.1940	44.6590
 1.1950	44.6660
 1.1960	44.6740
 1.1970	44.6840
 1.1980	44.6950
 1.1990	44.7090
 1.2000	44.7260
 1.2010	44.7480
 1.2020	44.7700
 1.2030	44.7940
 1.2040	44.8220
 1.2050	44.8490
 1.2060	44.8760
 1.2070	44.9040
 1.2080	44.9320
 1.2090	44.9640
 1.2100	44.9970
 1.2110	45.0320
 1.2120	45.0690
 1.2130	45.1080
 1.2140	45.1480
 1.2150	45.1890
 1.2160	45.2330
 1.2170	45.2750
 1.2180	45.3170
 1.2190	45.3590
 1.2200	45.4010
 1.2210	45.4450
 1.2220	45.4890
 1.2230	45.5320
 1.2240	45.5750
 1.2250	45.6170
 1.2260	45.6580
 1.2270	45.7000
 1.2280	45.7400
 1.2290	45.7810
 1.2300	45.8190
 1.2310	45.8570
 1.2320	45.8940
 1.2330	45.9280
 1.2340	45.9640
 1.2350	46.0020
 1.2360	46.0370
 1.2370	46.0700
 1.2380	46.1040
 1.2390	46.1350
 1.2400	46.1630
 1.2410	46.1920
 1.2420	46.2200
 1.2430	46.2460
 1.2440	46.2720
 1.2450	46.3010
 1.2460	46.3280
 1.2470	46.3520
 1.2480	46.3750
 1.2490	46.3970
 1.2500	46.4160
 1.2510	46.4370
 1.2520	46.4600
 1.2530	46.4770
 1.2540	46.4940
 1.2550	46.5120
 1.2560	46.5280
 1.2570	46.5410
 1.2580	46.5540
 1.2590	46.5650
 1.2600	46.5720
 1.2610	46.5780
 1.2620	46.5820
 1.2630	46.5870
 1.2640	46.5900
 1.2650	46.5890
 1.2660	46.5890
 1.2670	46.5880
 1.2680	46.5830
 1.2690	46.5770
 1.2700	46.5690
 1.2710	46.5570
 1.2720	46.5440
 1.2730	46.5310
 1.2740	46.5150
 1.2750	46.4980
 1.2760	46.4800
 1.2770	46.4580
 1.2780	46.4350
 1.2790	46.4090
 1.2800	46.3830
 1.2810	46.3560
 1.2820	46.3240
 1.2830	46.2920
 1.2840	46.2550
 1.2850	46.2160
 1.2860	46.1760
 1.2870	46.1310
 1.2880	46.0840
 1.2890	46.0330
 1.2900	45.9800
 1.2910	45.9220
 1.2920	45.8630
 1.2930	45.7980
 1.2940	45.7280
 1.2950	45.6550
 1.2960	45.5760
 1.2970	45.4940
 1.2980	45.4120
 1.2990	45.3260
 1.3000	45.2390
 1.3010	45.1470
 1.3020	45.0500
 1.3030	44.9480
 1.3040	44.8410
 1.3050	44.7310
 1.3060	44.6180
 1.3070	44.5010
 1.3080	44.3800
 1.3090	44.2550
 1.3100	44.1270
 1.3110	43.9920
 1.3120	43.8520
 1.3130	43.7090
 1.3140	43.5600
 1.3150	43.4070
 1.3160	43.2510
 1.3170	43.0930
 1.3180	42.9290
 1.3190	42.7610
 1.3200	42.5890
 1.3210	42.4130
 1.3220	42.2340
 1.3230	42.0520
 1.3240	41.8650
 1.3250	41.6770
 1.3260	41.4850
 1.3270	41.2910
 1.3280	41.0950
 1.3290	40.8950
 1.3300	40.6950
 1.3310	40.4930
 1.3320	40.2890
 1.3330	40.0900
 1.3340	39.8900
 1.3350	39.6890
 1.3360	39.4890
 1.3370	39.2870
 1.3380	39.0860
 1.3390	38.8890
 1.3400	38.6930
 1.3410	38.5010
 1.3420	38.3100
 1.3430	38.1200
 1.3440	37.9330
 1.3450	37.7470
 1.3460	37.5630
 1.3470	37.3830
 1.3480	37.2050
 1.3490	37.0290
 1.3500	36.8560
 1.3510	36.6840
 1.3520	36.5120
 1.3530	36.3410
 1.3540	36.1690
 1.3550	35.9960
 1.3560	35.8220
 1.3570	35.6470
 1.3580	35.4700
 1.3590	35.2910
 1.3600	35.1080
 1.3610	34.9210
 1.3620	34.7260
 1.3630	34.5270
 1.3640	34.3180
 1.3650	34.0970
 1.3660	33.8690
 1.3670	33.6260
 1.3680	33.3710
 1.3690	33.1040
 1.3700	32.8160
 1.3710	32.5140
 1.3720	32.1930
 1.3730	31.8500
 1.3740	31.4940
 1.3750	31.1150
 1.3760	30.7110
 1.3770	30.2860
 1.3780	29.8300
 1.3790	29.3520
 1.3800	28.8540
 1.3810	28.3290
 1.3820	27.7920
 1.3830	27.2370
 1.3840	26.6690
 1.3850	26.0840
 1.3860	25.4930
 1.3870	24.8850
 1.3880	24.2850
 1.3890	23.6800
 1.3900	23.0740
 1.3910	22.4800
 1.3920	21.8890
 1.3930	21.3030
 1.3940	20.7330
 1.3950	20.1690
 1.3960	19.6230
 1.3970	19.0980
 1.3980	18.5910
 1.3990	18.1120
 1.4000	17.6550
 1.4010	17.2170
 1.4020	16.8070
 1.4030	16.4170
 1.4040	16.0500
 1.4050	15.7090
 1.4060	15.3870
 1.4070	15.0920
 1.4080	14.8180
 1.4090	14.5620
 1.4100	14.3280
 1.4110	14.1090
 1.4120	13.9080
 1.4130	13.7250
 1.4140	13.5560
 1.4150	13.4030
 1.4160	13.2630
 1.4170	13.1340
 1.4180	13.0170
 1.4190	12.9100
 1.4200	12.8120
 1.4210	12.7230
 1.4220	12.6410
 1.4230	12.5680
 1.4240	12.5010
 1.4250	12.4400
 1.4260	12.3870
 1.4270	12.3370
 1.4280	12.2940
 1.4290	12.2550
 1.4300	12.2210
 1.4310	12.1910
 1.4320	12.1650
 1.4330	12.1430
 1.4340	12.1250
 1.4350	12.1090
 1.4360	12.0960
 1.4370	12.0870
 1.4380	12.0810
 1.4390	12.0770
 1.4400	12.0760
 1.4410	12.0760
 1.4420	12.0790
 1.4430	12.0820
 1.4440	12.0870
 1.4450	12.0950
 1.4460	12.1030
 1.4470	12.1130
 1.4480	12.1230
 1.4490	12.1350
 1.4500	12.1480
 1.4510	12.1620
 1.4520	12.1780
 1.4530	12.1960
 1.4540	12.2150
 1.4550	12.2360
 1.4560	12.2600
 1.4570	12.2850
 1.4580	12.3130
 1.4590	12.3440
 1.4600	12.3800
 1.4610	12.4190
 1.4620	12.4620
 1.4630	12.5090
 1.4640	12.5600
 1.4650	12.6140
 1.4660	12.6720
 1.4670	12.7350
 1.4680	12.8020
 1.4690	12.8720
 1.4700	12.9460
