Name: Quercus lobata 1
Type: vegetation
Class: Tree
Genus: Quercus
Species: lobata
Sample No.: VH181
Owner: UCSB
Wavelength Range: VSWIR
Origin: 34.7139; -120.0598; WGS84
Collection Date: 6/9/2013
Description: Samples were collected as part of the HyspIRI Airborne Campaign. 48 individual plants were sampled in three times in 2013 - spring  summer  and fall. The name of the sample includes a 1  2  or 3 which references a different individual of the species. Samples were taken to JPL and processed within 48 hours of collection. The same leaves were processed in the Nicolet and then measured using the ASD.
Measurement: Bidirectional reflectance
First Column: X
Second Column: Y
X Units: Wavelength (micrometers)
Y Units: Reflectance (percentage)
First X Value: 0.35
Last X Value: 2.5
Number of X Values: 2151
Additional Information: vegetation.tree.quercus.lobata.vswir.vh181.ucsb.asd.ancillary.txt

 0.3500	 4.9920
 0.3510	 4.8910
 0.3520	 4.9570
 0.3530	 5.0230
 0.3540	 4.9210
 0.3550	 4.8430
 0.3560	 4.8320
 0.3570	 4.9050
 0.3580	 5.0290
 0.3590	 4.9750
 0.3600	 4.8500
 0.3610	 4.7720
 0.3620	 4.8320
 0.3630	 4.8480
 0.3640	 4.8060
 0.3650	 4.7550
 0.3660	 4.7870
 0.3670	 4.8610
 0.3680	 4.8900
 0.3690	 4.7880
 0.3700	 4.7610
 0.3710	 4.8050
 0.3720	 4.8750
 0.3730	 4.9540
 0.3740	 4.9130
 0.3750	 4.8580
 0.3760	 4.9100
 0.3770	 4.9110
 0.3780	 4.8960
 0.3790	 4.9270
 0.3800	 5.0580
 0.3810	 5.0130
 0.3820	 4.9390
 0.3830	 4.9610
 0.3840	 4.9840
 0.3850	 5.0150
 0.3860	 5.0450
 0.3870	 5.0660
 0.3880	 5.0890
 0.3890	 5.0710
 0.3900	 5.0460
 0.3910	 5.1380
 0.3920	 5.2060
 0.3930	 5.2120
 0.3940	 5.1800
 0.3950	 5.2240
 0.3960	 5.2610
 0.3970	 5.3080
 0.3980	 5.4050
 0.3990	 5.3930
 0.4000	 5.3880
 0.4010	 5.4410
 0.4020	 5.5020
 0.4030	 5.5530
 0.4040	 5.5810
 0.4050	 5.5890
 0.4060	 5.6310
 0.4070	 5.6860
 0.4080	 5.7360
 0.4090	 5.7750
 0.4100	 5.8480
 0.4110	 5.9130
 0.4120	 5.9450
 0.4130	 5.9710
 0.4140	 6.0050
 0.4150	 6.0600
 0.4160	 6.1450
 0.4170	 6.1880
 0.4180	 6.2120
 0.4190	 6.2530
 0.4200	 6.3320
 0.4210	 6.3840
 0.4220	 6.4120
 0.4230	 6.4340
 0.4240	 6.4720
 0.4250	 6.4990
 0.4260	 6.5270
 0.4270	 6.5760
 0.4280	 6.5940
 0.4290	 6.6100
 0.4300	 6.6400
 0.4310	 6.6790
 0.4320	 6.7080
 0.4330	 6.7300
 0.4340	 6.7420
 0.4350	 6.7630
 0.4360	 6.7850
 0.4370	 6.8020
 0.4380	 6.8160
 0.4390	 6.8340
 0.4400	 6.8460
 0.4410	 6.8490
 0.4420	 6.8740
 0.4430	 6.8790
 0.4440	 6.8770
 0.4450	 6.8920
 0.4460	 6.9060
 0.4470	 6.9280
 0.4480	 6.9470
 0.4490	 6.9360
 0.4500	 6.9530
 0.4510	 6.9740
 0.4520	 6.9720
 0.4530	 6.9750
 0.4540	 6.9940
 0.4550	 7.0160
 0.4560	 7.0160
 0.4570	 7.0250
 0.4580	 7.0380
 0.4590	 7.0410
 0.4600	 7.0480
 0.4610	 7.0510
 0.4620	 7.0570
 0.4630	 7.0660
 0.4640	 7.0660
 0.4650	 7.0660
 0.4660	 7.0680
 0.4670	 7.0710
 0.4680	 7.0790
 0.4690	 7.0900
 0.4700	 7.0960
 0.4710	 7.0900
 0.4720	 7.0880
 0.4730	 7.0880
 0.4740	 7.0840
 0.4750	 7.0860
 0.4760	 7.0920
 0.4770	 7.0980
 0.4780	 7.1010
 0.4790	 7.1000
 0.4800	 7.0960
 0.4810	 7.1020
 0.4820	 7.1150
 0.4830	 7.1220
 0.4840	 7.1250
 0.4850	 7.1340
 0.4860	 7.1430
 0.4870	 7.1500
 0.4880	 7.1570
 0.4890	 7.1570
 0.4900	 7.1660
 0.4910	 7.1760
 0.4920	 7.1800
 0.4930	 7.1890
 0.4940	 7.2000
 0.4950	 7.2100
 0.4960	 7.2260
 0.4970	 7.2340
 0.4980	 7.2490
 0.4990	 7.2750
 0.5000	 7.2860
 0.5010	 7.3020
 0.5020	 7.3290
 0.5030	 7.3510
 0.5040	 7.3810
 0.5050	 7.4140
 0.5060	 7.4500
 0.5070	 7.4940
 0.5080	 7.5360
 0.5090	 7.5790
 0.5100	 7.6280
 0.5110	 7.6880
 0.5120	 7.7590
 0.5130	 7.8410
 0.5140	 7.9210
 0.5150	 8.0130
 0.5160	 8.1160
 0.5170	 8.2250
 0.5180	 8.3360
 0.5190	 8.4580
 0.5200	 8.5880
 0.5210	 8.7160
 0.5220	 8.8520
 0.5230	 8.9930
 0.5240	 9.1310
 0.5250	 9.2690
 0.5260	 9.3960
 0.5270	 9.5170
 0.5280	 9.6370
 0.5290	 9.7500
 0.5300	 9.8530
 0.5310	 9.9450
 0.5320	10.0330
 0.5330	10.1130
 0.5340	10.1840
 0.5350	10.2490
 0.5360	10.3090
 0.5370	10.3580
 0.5380	10.4050
 0.5390	10.4490
 0.5400	10.4920
 0.5410	10.5370
 0.5420	10.5870
 0.5430	10.6210
 0.5440	10.6560
 0.5450	10.6920
 0.5460	10.7210
 0.5470	10.7370
 0.5480	10.7530
 0.5490	10.7680
 0.5500	10.7820
 0.5510	10.7970
 0.5520	10.8050
 0.5530	10.8000
 0.5540	10.7860
 0.5550	10.7630
 0.5560	10.7310
 0.5570	10.6870
 0.5580	10.6350
 0.5590	10.5770
 0.5600	10.5110
 0.5610	10.4390
 0.5620	10.3660
 0.5630	10.2910
 0.5640	10.2130
 0.5650	10.1290
 0.5660	10.0380
 0.5670	 9.9430
 0.5680	 9.8520
 0.5690	 9.7580
 0.5700	 9.6630
 0.5710	 9.5650
 0.5720	 9.4720
 0.5730	 9.3870
 0.5740	 9.3130
 0.5750	 9.2420
 0.5760	 9.1700
 0.5770	 9.1030
 0.5780	 9.0350
 0.5790	 8.9720
 0.5800	 8.9150
 0.5810	 8.8670
 0.5820	 8.8240
 0.5830	 8.7840
 0.5840	 8.7470
 0.5850	 8.7140
 0.5860	 8.6840
 0.5870	 8.6590
 0.5880	 8.6360
 0.5890	 8.6110
 0.5900	 8.5960
 0.5910	 8.5880
 0.5920	 8.5830
 0.5930	 8.5750
 0.5940	 8.5640
 0.5950	 8.5490
 0.5960	 8.5320
 0.5970	 8.5210
 0.5980	 8.5090
 0.5990	 8.4910
 0.6000	 8.4760
 0.6010	 8.4590
 0.6020	 8.4410
 0.6030	 8.4210
 0.6040	 8.3960
 0.6050	 8.3710
 0.6060	 8.3440
 0.6070	 8.3130
 0.6080	 8.2780
 0.6090	 8.2490
 0.6100	 8.2250
 0.6110	 8.2090
 0.6120	 8.1710
 0.6130	 8.1260
 0.6140	 8.0850
 0.6150	 8.0520
 0.6160	 8.0200
 0.6170	 7.9900
 0.6180	 7.9660
 0.6190	 7.9430
 0.6200	 7.9220
 0.6210	 7.9050
 0.6220	 7.8910
 0.6230	 7.8760
 0.6240	 7.8630
 0.6250	 7.8520
 0.6260	 7.8470
 0.6270	 7.8380
 0.6280	 7.8260
 0.6290	 7.8210
 0.6300	 7.8170
 0.6310	 7.8140
 0.6320	 7.8090
 0.6330	 7.8010
 0.6340	 7.7940
 0.6350	 7.7830
 0.6360	 7.7720
 0.6370	 7.7600
 0.6380	 7.7430
 0.6390	 7.7210
 0.6400	 7.6970
 0.6410	 7.6730
 0.6420	 7.6510
 0.6430	 7.6280
 0.6440	 7.6080
 0.6450	 7.5860
 0.6460	 7.5640
 0.6470	 7.5440
 0.6480	 7.5250
 0.6490	 7.5070
 0.6500	 7.4900
 0.6510	 7.4740
 0.6520	 7.4640
 0.6530	 7.4530
 0.6540	 7.4440
 0.6550	 7.4330
 0.6560	 7.4190
 0.6570	 7.4060
 0.6580	 7.3920
 0.6590	 7.3750
 0.6600	 7.3600
 0.6610	 7.3470
 0.6620	 7.3340
 0.6630	 7.3260
 0.6640	 7.3210
 0.6650	 7.3120
 0.6660	 7.3080
 0.6670	 7.3070
 0.6680	 7.3060
 0.6690	 7.3100
 0.6700	 7.3150
 0.6710	 7.3230
 0.6720	 7.3330
 0.6730	 7.3440
 0.6740	 7.3570
 0.6750	 7.3700
 0.6760	 7.3820
 0.6770	 7.4010
 0.6780	 7.4240
 0.6790	 7.4500
 0.6800	 7.4710
 0.6810	 7.4960
 0.6820	 7.5210
 0.6830	 7.5500
 0.6840	 7.5810
 0.6850	 7.6150
 0.6860	 7.6530
 0.6870	 7.6930
 0.6880	 7.7410
 0.6890	 7.7990
 0.6900	 7.8710
 0.6910	 7.9670
 0.6920	 8.0820
 0.6930	 8.2290
 0.6940	 8.4210
 0.6950	 8.6500
 0.6960	 8.9240
 0.6970	 9.2470
 0.6980	 9.6180
 0.6990	10.0400
 0.7000	10.5100
 0.7010	11.0200
 0.7020	11.5760
 0.7030	12.1660
 0.7040	12.7860
 0.7050	13.4360
 0.7060	14.1070
 0.7070	14.8010
 0.7080	15.5130
 0.7090	16.2380
 0.7100	16.9820
 0.7110	17.7400
 0.7120	18.5080
 0.7130	19.2840
 0.7140	20.0720
 0.7150	20.8670
 0.7160	21.6620
 0.7170	22.4600
 0.7180	23.2610
 0.7190	24.0610
 0.7200	24.8570
 0.7210	25.6460
 0.7220	26.4300
 0.7230	27.2060
 0.7240	27.9650
 0.7250	28.7040
 0.7260	29.4280
 0.7270	30.1380
 0.7280	30.8220
 0.7290	31.4830
 0.7300	32.1200
 0.7310	32.7310
 0.7320	33.3150
 0.7330	33.8770
 0.7340	34.4160
 0.7350	34.9220
 0.7360	35.4090
 0.7370	35.8700
 0.7380	36.3010
 0.7390	36.7130
 0.7400	37.0990
 0.7410	37.4610
 0.7420	37.8050
 0.7430	38.1270
 0.7440	38.4240
 0.7450	38.6960
 0.7460	38.9500
 0.7470	39.1910
 0.7480	39.4110
 0.7490	39.6080
 0.7500	39.7990
 0.7510	39.9680
 0.7520	40.1220
 0.7530	40.2700
 0.7540	40.3970
 0.7550	40.5140
 0.7560	40.6230
 0.7570	40.7200
 0.7580	40.8070
 0.7590	40.8880
 0.7600	40.9620
 0.7610	41.0260
 0.7620	41.0900
 0.7630	41.1470
 0.7640	41.1900
 0.7650	41.2390
 0.7660	41.2820
 0.7670	41.3190
 0.7680	41.3550
 0.7690	41.3840
 0.7700	41.4100
 0.7710	41.4360
 0.7720	41.4570
 0.7730	41.4790
 0.7740	41.5030
 0.7750	41.5280
 0.7760	41.5420
 0.7770	41.5540
 0.7780	41.5690
 0.7790	41.5850
 0.7800	41.5950
 0.7810	41.6100
 0.7820	41.6290
 0.7830	41.6450
 0.7840	41.6530
 0.7850	41.6580
 0.7860	41.6640
 0.7870	41.6760
 0.7880	41.6860
 0.7890	41.6960
 0.7900	41.7100
 0.7910	41.7180
 0.7920	41.7230
 0.7930	41.7290
 0.7940	41.7370
 0.7950	41.7460
 0.7960	41.7520
 0.7970	41.7560
 0.7980	41.7560
 0.7990	41.7590
 0.8000	41.7620
 0.8010	41.7610
 0.8020	41.7650
 0.8030	41.7620
 0.8040	41.7590
 0.8050	41.7660
 0.8060	41.7650
 0.8070	41.7640
 0.8080	41.7640
 0.8090	41.7610
 0.8100	41.7570
 0.8110	41.7590
 0.8120	41.7640
 0.8130	41.7560
 0.8140	41.7440
 0.8150	41.7360
 0.8160	41.7350
 0.8170	41.7370
 0.8180	41.7330
 0.8190	41.7250
 0.8200	41.7170
 0.8210	41.7140
 0.8220	41.7170
 0.8230	41.7180
 0.8240	41.7080
 0.8250	41.6920
 0.8260	41.6820
 0.8270	41.6820
 0.8280	41.6790
 0.8290	41.6690
 0.8300	41.6610
 0.8310	41.6610
 0.8320	41.6560
 0.8330	41.6480
 0.8340	41.6430
 0.8350	41.6440
 0.8360	41.6370
 0.8370	41.6300
 0.8380	41.6280
 0.8390	41.6280
 0.8400	41.6230
 0.8410	41.6180
 0.8420	41.6170
 0.8430	41.6200
 0.8440	41.6160
 0.8450	41.6130
 0.8460	41.6160
 0.8470	41.6190
 0.8480	41.6190
 0.8490	41.6190
 0.8500	41.6230
 0.8510	41.6220
 0.8520	41.6230
 0.8530	41.6270
 0.8540	41.6290
 0.8550	41.6330
 0.8560	41.6310
 0.8570	41.6280
 0.8580	41.6360
 0.8590	41.6380
 0.8600	41.6400
 0.8610	41.6470
 0.8620	41.6440
 0.8630	41.6450
 0.8640	41.6470
 0.8650	41.6500
 0.8660	41.6580
 0.8670	41.6620
 0.8680	41.6640
 0.8690	41.6680
 0.8700	41.6720
 0.8710	41.6770
 0.8720	41.6810
 0.8730	41.6830
 0.8740	41.6920
 0.8750	41.7040
 0.8760	41.7120
 0.8770	41.7100
 0.8780	41.7150
 0.8790	41.7240
 0.8800	41.7330
 0.8810	41.7380
 0.8820	41.7380
 0.8830	41.7410
 0.8840	41.7500
 0.8850	41.7520
 0.8860	41.7570
 0.8870	41.7630
 0.8880	41.7630
 0.8890	41.7600
 0.8900	41.7630
 0.8910	41.7720
 0.8920	41.7830
 0.8930	41.7890
 0.8940	41.7940
 0.8950	41.7960
 0.8960	41.7980
 0.8970	41.8040
 0.8980	41.8070
 0.8990	41.8060
 0.9000	41.8060
 0.9010	41.8100
 0.9020	41.8220
 0.9030	41.8380
 0.9040	41.8410
 0.9050	41.8450
 0.9060	41.8490
 0.9070	41.8500
 0.9080	41.8470
 0.9090	41.8470
 0.9100	41.8490
 0.9110	41.8510
 0.9120	41.8580
 0.9130	41.8660
 0.9140	41.8710
 0.9150	41.8700
 0.9160	41.8730
 0.9170	41.8800
 0.9180	41.8820
 0.9190	41.8750
 0.9200	41.8810
 0.9210	41.8870
 0.9220	41.8860
 0.9230	41.8740
 0.9240	41.8660
 0.9250	41.8660
 0.9260	41.8680
 0.9270	41.8630
 0.9280	41.8540
 0.9290	41.8430
 0.9300	41.8310
 0.9310	41.8160
 0.9320	41.8150
 0.9330	41.8080
 0.9340	41.7940
 0.9350	41.7900
 0.9360	41.7760
 0.9370	41.7560
 0.9380	41.7370
 0.9390	41.7210
 0.9400	41.7070
 0.9410	41.6940
 0.9420	41.6760
 0.9430	41.6420
 0.9440	41.6180
 0.9450	41.5990
 0.9460	41.5770
 0.9470	41.5550
 0.9480	41.5200
 0.9490	41.4840
 0.9500	41.4550
 0.9510	41.4200
 0.9520	41.3790
 0.9530	41.3400
 0.9540	41.3040
 0.9550	41.2590
 0.9560	41.2140
 0.9570	41.1770
 0.9580	41.1500
 0.9590	41.1090
 0.9600	41.0740
 0.9610	41.0460
 0.9620	41.0190
 0.9630	40.9970
 0.9640	40.9780
 0.9650	40.9590
 0.9660	40.9350
 0.9670	40.9070
 0.9680	40.9040
 0.9690	40.9100
 0.9700	40.8960
 0.9710	40.8790
 0.9720	40.8650
 0.9730	40.8580
 0.9740	40.8560
 0.9750	40.8370
 0.9760	40.8390
 0.9770	40.8530
 0.9780	40.8470
 0.9790	40.8410
 0.9800	40.8440
 0.9810	40.8450
 0.9820	40.8300
 0.9830	40.8410
 0.9840	40.8620
 0.9850	40.8730
 0.9860	40.8650
 0.9870	40.8690
 0.9880	40.8800
 0.9890	40.8880
 0.9900	40.8860
 0.9910	40.9010
 0.9920	40.9090
 0.9930	40.9160
 0.9940	40.9340
 0.9950	40.9370
 0.9960	40.9560
 0.9970	40.9820
 0.9980	40.9920
 0.9990	41.0030
 1.0000	41.1270
 1.0010	41.3480
 1.0020	41.4710
 1.0030	41.4910
 1.0040	41.5110
 1.0050	41.5250
 1.0060	41.5430
 1.0070	41.5570
 1.0080	41.5690
 1.0090	41.5770
 1.0100	41.5890
 1.0110	41.6000
 1.0120	41.6130
 1.0130	41.6270
 1.0140	41.6400
 1.0150	41.6540
 1.0160	41.6650
 1.0170	41.6740
 1.0180	41.6840
 1.0190	41.6900
 1.0200	41.6980
 1.0210	41.7110
 1.0220	41.7240
 1.0230	41.7360
 1.0240	41.7500
 1.0250	41.7630
 1.0260	41.7760
 1.0270	41.7870
 1.0280	41.7990
 1.0290	41.8100
 1.0300	41.8170
 1.0310	41.8260
 1.0320	41.8360
 1.0330	41.8430
 1.0340	41.8540
 1.0350	41.8600
 1.0360	41.8650
 1.0370	41.8790
 1.0380	41.8890
 1.0390	41.9020
 1.0400	41.9120
 1.0410	41.9230
 1.0420	41.9310
 1.0430	41.9340
 1.0440	41.9410
 1.0450	41.9500
 1.0460	41.9580
 1.0470	41.9700
 1.0480	41.9790
 1.0490	41.9850
 1.0500	41.9910
 1.0510	41.9960
 1.0520	42.0040
 1.0530	42.0090
 1.0540	42.0150
 1.0550	42.0190
 1.0560	42.0210
 1.0570	42.0260
 1.0580	42.0350
 1.0590	42.0370
 1.0600	42.0360
 1.0610	42.0380
 1.0620	42.0380
 1.0630	42.0400
 1.0640	42.0490
 1.0650	42.0520
 1.0660	42.0480
 1.0670	42.0480
 1.0680	42.0470
 1.0690	42.0440
 1.0700	42.0440
 1.0710	42.0470
 1.0720	42.0470
 1.0730	42.0460
 1.0740	42.0440
 1.0750	42.0430
 1.0760	42.0390
 1.0770	42.0330
 1.0780	42.0280
 1.0790	42.0200
 1.0800	42.0170
 1.0810	42.0210
 1.0820	42.0200
 1.0830	42.0160
 1.0840	42.0140
 1.0850	42.0090
 1.0860	42.0040
 1.0870	41.9990
 1.0880	41.9970
 1.0890	41.9930
 1.0900	41.9870
 1.0910	41.9830
 1.0920	41.9820
 1.0930	41.9760
 1.0940	41.9660
 1.0950	41.9580
 1.0960	41.9510
 1.0970	41.9420
 1.0980	41.9320
 1.0990	41.9240
 1.1000	41.9130
 1.1010	41.9040
 1.1020	41.8960
 1.1030	41.8920
 1.1040	41.8860
 1.1050	41.8760
 1.1060	41.8660
 1.1070	41.8550
 1.1080	41.8450
 1.1090	41.8340
 1.1100	41.8220
 1.1110	41.8110
 1.1120	41.7990
 1.1130	41.7850
 1.1140	41.7710
 1.1150	41.7580
 1.1160	41.7450
 1.1170	41.7330
 1.1180	41.7190
 1.1190	41.7040
 1.1200	41.6860
 1.1210	41.6670
 1.1220	41.6450
 1.1230	41.6200
 1.1240	41.5940
 1.1250	41.5640
 1.1260	41.5320
 1.1270	41.4950
 1.1280	41.4540
 1.1290	41.4090
 1.1300	41.3590
 1.1310	41.3060
 1.1320	41.2500
 1.1330	41.1890
 1.1340	41.1260
 1.1350	41.0550
 1.1360	40.9790
 1.1370	40.8990
 1.1380	40.8120
 1.1390	40.7220
 1.1400	40.6300
 1.1410	40.5350
 1.1420	40.4390
 1.1430	40.3410
 1.1440	40.2430
 1.1450	40.1420
 1.1460	40.0460
 1.1470	39.9470
 1.1480	39.8530
 1.1490	39.7610
 1.1500	39.6740
 1.1510	39.5900
 1.1520	39.5120
 1.1530	39.4390
 1.1540	39.3730
 1.1550	39.3120
 1.1560	39.2550
 1.1570	39.2030
 1.1580	39.1570
 1.1590	39.1170
 1.1600	39.0820
 1.1610	39.0530
 1.1620	39.0270
 1.1630	39.0030
 1.1640	38.9820
 1.1650	38.9630
 1.1660	38.9450
 1.1670	38.9310
 1.1680	38.9200
 1.1690	38.9090
 1.1700	38.8990
 1.1710	38.8900
 1.1720	38.8820
 1.1730	38.8740
 1.1740	38.8680
 1.1750	38.8610
 1.1760	38.8520
 1.1770	38.8420
 1.1780	38.8310
 1.1790	38.8200
 1.1800	38.8090
 1.1810	38.7970
 1.1820	38.7840
 1.1830	38.7700
 1.1840	38.7580
 1.1850	38.7460
 1.1860	38.7360
 1.1870	38.7280
 1.1880	38.7200
 1.1890	38.7140
 1.1900	38.7090
 1.1910	38.7040
 1.1920	38.7010
 1.1930	38.7000
 1.1940	38.6980
 1.1950	38.6950
 1.1960	38.6950
 1.1970	38.6930
 1.1980	38.6930
 1.1990	38.6970
 1.2000	38.6990
 1.2010	38.7020
 1.2020	38.7070
 1.2030	38.7120
 1.2040	38.7180
 1.2050	38.7280
 1.2060	38.7380
 1.2070	38.7480
 1.2080	38.7600
 1.2090	38.7730
 1.2100	38.7850
 1.2110	38.7990
 1.2120	38.8130
 1.2130	38.8280
 1.2140	38.8430
 1.2150	38.8600
 1.2160	38.8800
 1.2170	38.8990
 1.2180	38.9180
 1.2190	38.9370
 1.2200	38.9560
 1.2210	38.9750
 1.2220	38.9940
 1.2230	39.0130
 1.2240	39.0310
 1.2250	39.0490
 1.2260	39.0670
 1.2270	39.0850
 1.2280	39.1010
 1.2290	39.1170
 1.2300	39.1350
 1.2310	39.1520
 1.2320	39.1680
 1.2330	39.1860
 1.2340	39.2000
 1.2350	39.2120
 1.2360	39.2250
 1.2370	39.2360
 1.2380	39.2470
 1.2390	39.2610
 1.2400	39.2730
 1.2410	39.2850
 1.2420	39.2970
 1.2430	39.3060
 1.2440	39.3160
 1.2450	39.3270
 1.2460	39.3400
 1.2470	39.3500
 1.2480	39.3580
 1.2490	39.3670
 1.2500	39.3710
 1.2510	39.3770
 1.2520	39.3830
 1.2530	39.3870
 1.2540	39.3910
 1.2550	39.3940
 1.2560	39.4000
 1.2570	39.4060
 1.2580	39.4100
 1.2590	39.4130
 1.2600	39.4140
 1.2610	39.4160
 1.2620	39.4170
 1.2630	39.4200
 1.2640	39.4200
 1.2650	39.4190
 1.2660	39.4170
 1.2670	39.4130
 1.2680	39.4090
 1.2690	39.4040
 1.2700	39.4000
 1.2710	39.3930
 1.2720	39.3870
 1.2730	39.3830
 1.2740	39.3760
 1.2750	39.3680
 1.2760	39.3580
 1.2770	39.3470
 1.2780	39.3380
 1.2790	39.3280
 1.2800	39.3160
 1.2810	39.3050
 1.2820	39.2920
 1.2830	39.2780
 1.2840	39.2630
 1.2850	39.2470
 1.2860	39.2300
 1.2870	39.2110
 1.2880	39.1900
 1.2890	39.1700
 1.2900	39.1470
 1.2910	39.1210
 1.2920	39.0960
 1.2930	39.0690
 1.2940	39.0430
 1.2950	39.0160
 1.2960	38.9880
 1.2970	38.9580
 1.2980	38.9240
 1.2990	38.8870
 1.3000	38.8500
 1.3010	38.8120
 1.3020	38.7720
 1.3030	38.7300
 1.3040	38.6860
 1.3050	38.6380
 1.3060	38.5890
 1.3070	38.5390
 1.3080	38.4860
 1.3090	38.4320
 1.3100	38.3770
 1.3110	38.3210
 1.3120	38.2630
 1.3130	38.2030
 1.3140	38.1380
 1.3150	38.0690
 1.3160	38.0000
 1.3170	37.9290
 1.3180	37.8550
 1.3190	37.7800
 1.3200	37.7030
 1.3210	37.6220
 1.3220	37.5380
 1.3230	37.4520
 1.3240	37.3640
 1.3250	37.2750
 1.3260	37.1830
 1.3270	37.0890
 1.3280	36.9940
 1.3290	36.8940
 1.3300	36.7960
 1.3310	36.6970
 1.3320	36.5950
 1.3330	36.4940
 1.3340	36.3890
 1.3350	36.2820
 1.3360	36.1760
 1.3370	36.0680
 1.3380	35.9620
 1.3390	35.8550
 1.3400	35.7470
 1.3410	35.6400
 1.3420	35.5340
 1.3430	35.4280
 1.3440	35.3240
 1.3450	35.2210
 1.3460	35.1190
 1.3470	35.0180
 1.3480	34.9170
 1.3490	34.8170
 1.3500	34.7190
 1.3510	34.6190
 1.3520	34.5180
 1.3530	34.4180
 1.3540	34.3150
 1.3550	34.2130
 1.3560	34.1150
 1.3570	34.0120
 1.3580	33.9090
 1.3590	33.8040
 1.3600	33.6950
 1.3610	33.5830
 1.3620	33.4680
 1.3630	33.3500
 1.3640	33.2260
 1.3650	33.0970
 1.3660	32.9630
 1.3670	32.8190
 1.3680	32.6680
 1.3690	32.5090
 1.3700	32.3370
 1.3710	32.1570
 1.3720	31.9640
 1.3730	31.7570
 1.3740	31.5380
 1.3750	31.3020
 1.3760	31.0480
 1.3770	30.7770
 1.3780	30.4850
 1.3790	30.1740
 1.3800	29.8440
 1.3810	29.4920
 1.3820	29.1250
 1.3830	28.7380
 1.3840	28.3360
 1.3850	27.9180
 1.3860	27.4860
 1.3870	27.0350
 1.3880	26.5780
 1.3890	26.1100
 1.3900	25.6320
 1.3910	25.1530
 1.3920	24.6670
 1.3930	24.1770
 1.3940	23.6890
 1.3950	23.1970
 1.3960	22.7110
 1.3970	22.2330
 1.3980	21.7640
 1.3990	21.3110
 1.4000	20.8700
 1.4010	20.4400
 1.4020	20.0280
 1.4030	19.6300
 1.4040	19.2500
 1.4050	18.8890
 1.4060	18.5460
 1.4070	18.2240
 1.4080	17.9200
 1.4090	17.6330
 1.4100	17.3680
 1.4110	17.1180
 1.4120	16.8880
 1.4130	16.6750
 1.4140	16.4770
 1.4150	16.2960
 1.4160	16.1290
 1.4170	15.9740
 1.4180	15.8340
 1.4190	15.7040
 1.4200	15.5870
 1.4210	15.4810
 1.4220	15.3840
 1.4230	15.2970
 1.4240	15.2170
 1.4250	15.1450
 1.4260	15.0830
 1.4270	15.0250
 1.4280	14.9760
 1.4290	14.9310
 1.4300	14.8920
 1.4310	14.8580
 1.4320	14.8300
 1.4330	14.8060
 1.4340	14.7870
 1.4350	14.7720
 1.4360	14.7600
 1.4370	14.7520
 1.4380	14.7460
 1.4390	14.7430
 1.4400	14.7430
 1.4410	14.7450
 1.4420	14.7500
 1.4430	14.7570
 1.4440	14.7650
 1.4450	14.7740
 1.4460	14.7850
 1.4470	14.7980
 1.4480	14.8100
 1.4490	14.8240
 1.4500	14.8400
 1.4510	14.8560
 1.4520	14.8740
 1.4530	14.8930
 1.4540	14.9120
 1.4550	14.9340
 1.4560	14.9580
 1.4570	14.9830
 1.4580	15.0120
 1.4590	15.0440
 1.4600	15.0790
 1.4610	15.1150
 1.4620	15.1550
 1.4630	15.1990
 1.4640	15.2470
 1.4650	15.3000
 1.4660	15.3570
 1.4670	15.4180
 1.4680	15.4830
 1.4690	15.5510
 1.4700	15.6230
 1.4710	15.6990
