Name: Adenostoma fasciculatum 2
Type: vegetation
Class: Shrub
Genus: Adenostoma
Species: fasciculatum
Sample No.: VH041
Owner: UCSB
Wavelength Range: VSWIR
Origin: 34.5084; -119.7687; WGS84
Collection Date: 4/1/2013
Description: Samples were collected as part of the HyspIRI Airborne Campaign. 48 individual plants were sampled in three times in 2013 - spring  summer  and fall. The name of the sample includes a 1  2  or 3 which references a different individual of the species. Samples were taken to JPL and processed within 48 hours of collection. The same leaves were processed in the Nicolet and then measured using the ASD.
Measurement: Bidirectional reflectance
First Column: X
Second Column: Y
X Units: Wavelength (micrometers)
Y Units: Reflectance (percentage)
First X Value: 0.35
Last X Value: 2.5
Number of X Values: 2151
Additional Information: vegetation.shrub.adenostoma.fasciculatum.vswir.vh041.ucsb.asd.ancillary.txt

 0.3500	 1.8710
 0.3510	 1.6420
 0.3520	 1.7660
 0.3530	 2.0060
 0.3540	 2.0270
 0.3550	 1.7230
 0.3560	 1.6560
 0.3570	 1.8050
 0.3580	 1.8510
 0.3590	 1.8510
 0.3600	 1.8270
 0.3610	 1.8230
 0.3620	 1.9230
 0.3630	 1.9130
 0.3640	 1.8470
 0.3650	 1.8180
 0.3660	 1.8010
 0.3670	 1.7950
 0.3680	 1.7860
 0.3690	 1.7480
 0.3700	 1.7360
 0.3710	 1.7310
 0.3720	 1.7130
 0.3730	 1.6640
 0.3740	 1.7600
 0.3750	 1.8590
 0.3760	 1.7900
 0.3770	 1.7830
 0.3780	 1.7880
 0.3790	 1.7900
 0.3800	 1.8060
 0.3810	 1.8250
 0.3820	 1.7860
 0.3830	 1.7050
 0.3840	 1.7860
 0.3850	 1.8010
 0.3860	 1.8020
 0.3870	 1.9010
 0.3880	 1.9410
 0.3890	 1.8630
 0.3900	 1.7480
 0.3910	 1.7930
 0.3920	 1.8210
 0.3930	 1.8130
 0.3940	 1.8000
 0.3950	 1.8390
 0.3960	 1.8690
 0.3970	 1.8780
 0.3980	 1.8800
 0.3990	 1.8550
 0.4000	 1.8510
 0.4010	 1.8790
 0.4020	 1.8990
 0.4030	 1.9090
 0.4040	 1.9230
 0.4050	 1.9510
 0.4060	 1.9700
 0.4070	 1.9570
 0.4080	 1.9450
 0.4090	 1.9960
 0.4100	 2.0440
 0.4110	 2.0630
 0.4120	 2.0590
 0.4130	 2.0740
 0.4140	 2.0840
 0.4150	 2.0990
 0.4160	 2.1300
 0.4170	 2.1470
 0.4180	 2.1600
 0.4190	 2.1820
 0.4200	 2.2240
 0.4210	 2.2520
 0.4220	 2.2650
 0.4230	 2.2740
 0.4240	 2.3140
 0.4250	 2.3240
 0.4260	 2.3250
 0.4270	 2.3670
 0.4280	 2.3860
 0.4290	 2.4110
 0.4300	 2.4460
 0.4310	 2.4490
 0.4320	 2.4750
 0.4330	 2.5030
 0.4340	 2.5100
 0.4350	 2.5280
 0.4360	 2.5420
 0.4370	 2.5510
 0.4380	 2.5580
 0.4390	 2.5610
 0.4400	 2.5650
 0.4410	 2.5750
 0.4420	 2.6030
 0.4430	 2.6170
 0.4440	 2.6280
 0.4450	 2.6530
 0.4460	 2.6610
 0.4470	 2.6740
 0.4480	 2.6940
 0.4490	 2.6990
 0.4500	 2.7080
 0.4510	 2.7220
 0.4520	 2.7380
 0.4530	 2.7480
 0.4540	 2.7530
 0.4550	 2.7650
 0.4560	 2.7940
 0.4570	 2.8010
 0.4580	 2.8030
 0.4590	 2.8110
 0.4600	 2.8140
 0.4610	 2.8220
 0.4620	 2.8360
 0.4630	 2.8490
 0.4640	 2.8450
 0.4650	 2.8470
 0.4660	 2.8580
 0.4670	 2.8650
 0.4680	 2.8740
 0.4690	 2.8760
 0.4700	 2.8710
 0.4710	 2.8780
 0.4720	 2.8920
 0.4730	 2.9010
 0.4740	 2.8920
 0.4750	 2.8980
 0.4760	 2.9100
 0.4770	 2.9190
 0.4780	 2.9210
 0.4790	 2.9220
 0.4800	 2.9260
 0.4810	 2.9330
 0.4820	 2.9420
 0.4830	 2.9490
 0.4840	 2.9530
 0.4850	 2.9640
 0.4860	 2.9700
 0.4870	 2.9840
 0.4880	 3.0080
 0.4890	 3.0120
 0.4900	 3.0180
 0.4910	 3.0310
 0.4920	 3.0460
 0.4930	 3.0740
 0.4940	 3.0920
 0.4950	 3.0960
 0.4960	 3.1140
 0.4970	 3.1410
 0.4980	 3.1720
 0.4990	 3.2020
 0.5000	 3.2260
 0.5010	 3.2610
 0.5020	 3.3040
 0.5030	 3.3410
 0.5040	 3.3860
 0.5050	 3.4350
 0.5060	 3.4840
 0.5070	 3.5430
 0.5080	 3.6030
 0.5090	 3.6650
 0.5100	 3.7360
 0.5110	 3.8190
 0.5120	 3.9030
 0.5130	 3.9860
 0.5140	 4.0700
 0.5150	 4.1740
 0.5160	 4.2920
 0.5170	 4.4120
 0.5180	 4.5320
 0.5190	 4.6570
 0.5200	 4.7880
 0.5210	 4.9180
 0.5220	 5.0490
 0.5230	 5.1820
 0.5240	 5.3170
 0.5250	 5.4450
 0.5260	 5.5710
 0.5270	 5.6940
 0.5280	 5.8120
 0.5290	 5.9170
 0.5300	 6.0140
 0.5310	 6.1060
 0.5320	 6.1920
 0.5330	 6.2720
 0.5340	 6.3460
 0.5350	 6.4160
 0.5360	 6.4800
 0.5370	 6.5350
 0.5380	 6.5820
 0.5390	 6.6300
 0.5400	 6.6760
 0.5410	 6.7240
 0.5420	 6.7740
 0.5430	 6.8260
 0.5440	 6.8660
 0.5450	 6.8990
 0.5460	 6.9320
 0.5470	 6.9530
 0.5480	 6.9730
 0.5490	 6.9970
 0.5500	 7.0190
 0.5510	 7.0370
 0.5520	 7.0510
 0.5530	 7.0570
 0.5540	 7.0570
 0.5550	 7.0480
 0.5560	 7.0300
 0.5570	 7.0030
 0.5580	 6.9700
 0.5590	 6.9310
 0.5600	 6.8850
 0.5610	 6.8370
 0.5620	 6.7820
 0.5630	 6.7210
 0.5640	 6.6550
 0.5650	 6.5870
 0.5660	 6.5170
 0.5670	 6.4440
 0.5680	 6.3670
 0.5690	 6.2880
 0.5700	 6.2050
 0.5710	 6.1190
 0.5720	 6.0390
 0.5730	 5.9630
 0.5740	 5.8910
 0.5750	 5.8200
 0.5760	 5.7550
 0.5770	 5.6950
 0.5780	 5.6410
 0.5790	 5.5970
 0.5800	 5.5540
 0.5810	 5.5090
 0.5820	 5.4640
 0.5830	 5.4210
 0.5840	 5.3780
 0.5850	 5.3390
 0.5860	 5.3060
 0.5870	 5.2800
 0.5880	 5.2560
 0.5890	 5.2290
 0.5900	 5.2050
 0.5910	 5.1850
 0.5920	 5.1670
 0.5930	 5.1480
 0.5940	 5.1370
 0.5950	 5.1240
 0.5960	 5.1080
 0.5970	 5.0990
 0.5980	 5.0970
 0.5990	 5.0930
 0.6000	 5.0790
 0.6010	 5.0630
 0.6020	 5.0490
 0.6030	 5.0320
 0.6040	 5.0080
 0.6050	 4.9850
 0.6060	 4.9580
 0.6070	 4.9240
 0.6080	 4.8920
 0.6090	 4.8570
 0.6100	 4.8260
 0.6110	 4.8030
 0.6120	 4.7700
 0.6130	 4.7260
 0.6140	 4.6810
 0.6150	 4.6490
 0.6160	 4.6150
 0.6170	 4.5810
 0.6180	 4.5480
 0.6190	 4.5250
 0.6200	 4.5040
 0.6210	 4.4850
 0.6220	 4.4700
 0.6230	 4.4580
 0.6240	 4.4450
 0.6250	 4.4300
 0.6260	 4.4300
 0.6270	 4.4270
 0.6280	 4.4230
 0.6290	 4.4230
 0.6300	 4.4210
 0.6310	 4.4210
 0.6320	 4.4200
 0.6330	 4.4120
 0.6340	 4.3990
 0.6350	 4.3850
 0.6360	 4.3690
 0.6370	 4.3450
 0.6380	 4.3150
 0.6390	 4.2820
 0.6400	 4.2450
 0.6410	 4.2130
 0.6420	 4.1750
 0.6430	 4.1310
 0.6440	 4.0930
 0.6450	 4.0560
 0.6460	 4.0170
 0.6470	 3.9760
 0.6480	 3.9420
 0.6490	 3.9120
 0.6500	 3.8870
 0.6510	 3.8660
 0.6520	 3.8490
 0.6530	 3.8330
 0.6540	 3.8150
 0.6550	 3.7970
 0.6560	 3.7770
 0.6570	 3.7530
 0.6580	 3.7240
 0.6590	 3.6980
 0.6600	 3.6660
 0.6610	 3.6290
 0.6620	 3.5980
 0.6630	 3.5710
 0.6640	 3.5440
 0.6650	 3.5170
 0.6660	 3.4960
 0.6670	 3.4790
 0.6680	 3.4630
 0.6690	 3.4480
 0.6700	 3.4380
 0.6710	 3.4370
 0.6720	 3.4420
 0.6730	 3.4420
 0.6740	 3.4450
 0.6750	 3.4540
 0.6760	 3.4670
 0.6770	 3.4820
 0.6780	 3.5020
 0.6790	 3.5260
 0.6800	 3.5530
 0.6810	 3.5820
 0.6820	 3.6190
 0.6830	 3.6650
 0.6840	 3.7180
 0.6850	 3.7830
 0.6860	 3.8600
 0.6870	 3.9480
 0.6880	 4.0540
 0.6890	 4.1840
 0.6900	 4.3430
 0.6910	 4.5310
 0.6920	 4.7500
 0.6930	 5.0090
 0.6940	 5.3100
 0.6950	 5.6460
 0.6960	 6.0270
 0.6970	 6.4500
 0.6980	 6.9090
 0.6990	 7.4120
 0.7000	 7.9480
 0.7010	 8.5110
 0.7020	 9.0970
 0.7030	 9.7100
 0.7040	10.3440
 0.7050	10.9920
 0.7060	11.6540
 0.7070	12.3310
 0.7080	13.0210
 0.7090	13.7270
 0.7100	14.4440
 0.7110	15.1780
 0.7120	15.9280
 0.7130	16.6900
 0.7140	17.4680
 0.7150	18.2590
 0.7160	19.0630
 0.7170	19.8810
 0.7180	20.7040
 0.7190	21.5340
 0.7200	22.3780
 0.7210	23.2270
 0.7220	24.0760
 0.7230	24.9240
 0.7240	25.7710
 0.7250	26.6140
 0.7260	27.4450
 0.7270	28.2620
 0.7280	29.0660
 0.7290	29.8520
 0.7300	30.6170
 0.7310	31.3600
 0.7320	32.0820
 0.7330	32.7820
 0.7340	33.4570
 0.7350	34.0990
 0.7360	34.7170
 0.7370	35.3080
 0.7380	35.8670
 0.7390	36.3980
 0.7400	36.9060
 0.7410	37.3890
 0.7420	37.8410
 0.7430	38.2700
 0.7440	38.6720
 0.7450	39.0470
 0.7460	39.3960
 0.7470	39.7220
 0.7480	40.0260
 0.7490	40.3070
 0.7500	40.5720
 0.7510	40.8160
 0.7520	41.0410
 0.7530	41.2500
 0.7540	41.4370
 0.7550	41.6100
 0.7560	41.7730
 0.7570	41.9270
 0.7580	42.0660
 0.7590	42.1930
 0.7600	42.3120
 0.7610	42.4210
 0.7620	42.5270
 0.7630	42.6220
 0.7640	42.7040
 0.7650	42.7860
 0.7660	42.8660
 0.7670	42.9410
 0.7680	43.0110
 0.7690	43.0740
 0.7700	43.1320
 0.7710	43.1850
 0.7720	43.2400
 0.7730	43.2960
 0.7740	43.3500
 0.7750	43.3970
 0.7760	43.4430
 0.7770	43.4860
 0.7780	43.5310
 0.7790	43.5830
 0.7800	43.6280
 0.7810	43.6660
 0.7820	43.7020
 0.7830	43.7480
 0.7840	43.7920
 0.7850	43.8290
 0.7860	43.8590
 0.7870	43.8980
 0.7880	43.9350
 0.7890	43.9720
 0.7900	44.0120
 0.7910	44.0540
 0.7920	44.0880
 0.7930	44.1190
 0.7940	44.1540
 0.7950	44.1860
 0.7960	44.2120
 0.7970	44.2350
 0.7980	44.2720
 0.7990	44.3030
 0.8000	44.3330
 0.8010	44.3640
 0.8020	44.3910
 0.8030	44.4120
 0.8040	44.4330
 0.8050	44.4630
 0.8060	44.4970
 0.8070	44.5210
 0.8080	44.5400
 0.8090	44.5690
 0.8100	44.5890
 0.8110	44.6120
 0.8120	44.6410
 0.8130	44.6590
 0.8140	44.6770
 0.8150	44.6950
 0.8160	44.7130
 0.8170	44.7330
 0.8180	44.7570
 0.8190	44.7790
 0.8200	44.7960
 0.8210	44.8170
 0.8220	44.8350
 0.8230	44.8500
 0.8240	44.8670
 0.8250	44.8870
 0.8260	44.9030
 0.8270	44.9140
 0.8280	44.9320
 0.8290	44.9430
 0.8300	44.9540
 0.8310	44.9690
 0.8320	44.9860
 0.8330	44.9970
 0.8340	45.0080
 0.8350	45.0240
 0.8360	45.0380
 0.8370	45.0600
 0.8380	45.0830
 0.8390	45.0930
 0.8400	45.1170
 0.8410	45.1450
 0.8420	45.1670
 0.8430	45.1900
 0.8440	45.2050
 0.8450	45.2210
 0.8460	45.2460
 0.8470	45.2770
 0.8480	45.2900
 0.8490	45.3030
 0.8500	45.3360
 0.8510	45.3540
 0.8520	45.3750
 0.8530	45.3990
 0.8540	45.4120
 0.8550	45.4280
 0.8560	45.4480
 0.8570	45.4740
 0.8580	45.5040
 0.8590	45.5220
 0.8600	45.5360
 0.8610	45.5530
 0.8620	45.5750
 0.8630	45.5960
 0.8640	45.6120
 0.8650	45.6260
 0.8660	45.6410
 0.8670	45.6640
 0.8680	45.6910
 0.8690	45.7130
 0.8700	45.7210
 0.8710	45.7350
 0.8720	45.7590
 0.8730	45.7810
 0.8740	45.7900
 0.8750	45.7970
 0.8760	45.8120
 0.8770	45.8410
 0.8780	45.8730
 0.8790	45.8940
 0.8800	45.9060
 0.8810	45.9220
 0.8820	45.9260
 0.8830	45.9340
 0.8840	45.9550
 0.8850	45.9790
 0.8860	45.9860
 0.8870	45.9860
 0.8880	45.9950
 0.8890	45.9940
 0.8900	45.9980
 0.8910	46.0090
 0.8920	46.0240
 0.8930	46.0330
 0.8940	46.0430
 0.8950	46.0520
 0.8960	46.0550
 0.8970	46.0570
 0.8980	46.0580
 0.8990	46.0630
 0.9000	46.0800
 0.9010	46.0900
 0.9020	46.0940
 0.9030	46.0960
 0.9040	46.1000
 0.9050	46.1050
 0.9060	46.1100
 0.9070	46.1130
 0.9080	46.1150
 0.9090	46.1270
 0.9100	46.1350
 0.9110	46.1330
 0.9120	46.1500
 0.9130	46.1560
 0.9140	46.1570
 0.9150	46.1640
 0.9160	46.1570
 0.9170	46.1540
 0.9180	46.1520
 0.9190	46.1460
 0.9200	46.1440
 0.9210	46.1500
 0.9220	46.1600
 0.9230	46.1660
 0.9240	46.1490
 0.9250	46.1330
 0.9260	46.1250
 0.9270	46.1160
 0.9280	46.0920
 0.9290	46.0760
 0.9300	46.0650
 0.9310	46.0310
 0.9320	46.0090
 0.9330	45.9810
 0.9340	45.9450
 0.9350	45.9240
 0.9360	45.8950
 0.9370	45.8570
 0.9380	45.8130
 0.9390	45.7720
 0.9400	45.7450
 0.9410	45.7110
 0.9420	45.6570
 0.9430	45.5990
 0.9440	45.5370
 0.9450	45.4780
 0.9460	45.4210
 0.9470	45.3570
 0.9480	45.2650
 0.9490	45.1620
 0.9500	45.0660
 0.9510	44.9700
 0.9520	44.8670
 0.9530	44.7550
 0.9540	44.6340
 0.9550	44.5020
 0.9560	44.3760
 0.9570	44.2770
 0.9580	44.2000
 0.9590	44.0820
 0.9600	43.9960
 0.9610	43.9290
 0.9620	43.8460
 0.9630	43.7720
 0.9640	43.7030
 0.9650	43.6510
 0.9660	43.6240
 0.9670	43.5890
 0.9680	43.5410
 0.9690	43.5030
 0.9700	43.4990
 0.9710	43.4730
 0.9720	43.4460
 0.9730	43.4230
 0.9740	43.4040
 0.9750	43.3950
 0.9760	43.3890
 0.9770	43.3820
 0.9780	43.3740
 0.9790	43.3820
 0.9800	43.3950
 0.9810	43.4070
 0.9820	43.4150
 0.9830	43.4350
 0.9840	43.4480
 0.9850	43.4660
 0.9860	43.5080
 0.9870	43.5460
 0.9880	43.5860
 0.9890	43.6110
 0.9900	43.6120
 0.9910	43.6720
 0.9920	43.7950
 0.9930	43.9170
 0.9940	44.0390
 0.9950	44.1620
 0.9960	44.2840
 0.9970	44.4060
 0.9980	44.5290
 0.9990	44.6510
 1.0000	44.7730
 1.0010	44.8960
 1.0020	45.0180
 1.0030	45.1400
 1.0040	45.2620
 1.0050	45.3850
 1.0060	45.5070
 1.0070	45.6290
 1.0080	45.7520
 1.0090	45.8740
 1.0100	45.8740
 1.0110	45.9320
 1.0120	45.9900
 1.0130	46.0540
 1.0140	46.1130
 1.0150	46.1670
 1.0160	46.2250
 1.0170	46.2830
 1.0180	46.3440
 1.0190	46.4060
 1.0200	46.4640
 1.0210	46.5240
 1.0220	46.5850
 1.0230	46.6430
 1.0240	46.7020
 1.0250	46.7600
 1.0260	46.8180
 1.0270	46.8750
 1.0280	46.9330
 1.0290	46.9900
 1.0300	47.0450
 1.0310	47.0990
 1.0320	47.1550
 1.0330	47.2060
 1.0340	47.2520
 1.0350	47.3040
 1.0360	47.3570
 1.0370	47.4090
 1.0380	47.4610
 1.0390	47.5160
 1.0400	47.5650
 1.0410	47.6100
 1.0420	47.6560
 1.0430	47.7000
 1.0440	47.7440
 1.0450	47.7900
 1.0460	47.8320
 1.0470	47.8740
 1.0480	47.9130
 1.0490	47.9500
 1.0500	47.9850
 1.0510	48.0180
 1.0520	48.0540
 1.0530	48.0860
 1.0540	48.1180
 1.0550	48.1470
 1.0560	48.1750
 1.0570	48.2020
 1.0580	48.2300
 1.0590	48.2560
 1.0600	48.2820
 1.0610	48.3060
 1.0620	48.3280
 1.0630	48.3490
 1.0640	48.3690
 1.0650	48.3870
 1.0660	48.4000
 1.0670	48.4170
 1.0680	48.4330
 1.0690	48.4520
 1.0700	48.4660
 1.0710	48.4810
 1.0720	48.4910
 1.0730	48.4970
 1.0740	48.5040
 1.0750	48.5100
 1.0760	48.5150
 1.0770	48.5190
 1.0780	48.5210
 1.0790	48.5190
 1.0800	48.5170
 1.0810	48.5080
 1.0820	48.5050
 1.0830	48.5090
 1.0840	48.5070
 1.0850	48.5030
 1.0860	48.4990
 1.0870	48.4930
 1.0880	48.4820
 1.0890	48.4730
 1.0900	48.4660
 1.0910	48.4550
 1.0920	48.4400
 1.0930	48.4250
 1.0940	48.4070
 1.0950	48.3910
 1.0960	48.3790
 1.0970	48.3610
 1.0980	48.3420
 1.0990	48.3250
 1.1000	48.3040
 1.1010	48.2840
 1.1020	48.2680
 1.1030	48.2500
 1.1040	48.2290
 1.1050	48.2060
 1.1060	48.1800
 1.1070	48.1530
 1.1080	48.1240
 1.1090	48.0920
 1.1100	48.0590
 1.1110	48.0250
 1.1120	47.9890
 1.1130	47.9520
 1.1140	47.9120
 1.1150	47.8730
 1.1160	47.8270
 1.1170	47.7780
 1.1180	47.7220
 1.1190	47.6610
 1.1200	47.5900
 1.1210	47.5150
 1.1220	47.4350
 1.1230	47.3450
 1.1240	47.2500
 1.1250	47.1420
 1.1260	47.0270
 1.1270	46.8980
 1.1280	46.7580
 1.1290	46.6070
 1.1300	46.4440
 1.1310	46.2690
 1.1320	46.0840
 1.1330	45.8860
 1.1340	45.6750
 1.1350	45.4510
 1.1360	45.2140
 1.1370	44.9660
 1.1380	44.7090
 1.1390	44.4440
 1.1400	44.1710
 1.1410	43.8950
 1.1420	43.6160
 1.1430	43.3310
 1.1440	43.0500
 1.1450	42.7650
 1.1460	42.4890
 1.1470	42.2110
 1.1480	41.9480
 1.1490	41.6900
 1.1500	41.4480
 1.1510	41.2150
 1.1520	40.9970
 1.1530	40.7910
 1.1540	40.5990
 1.1550	40.4190
 1.1560	40.2520
 1.1570	40.0970
 1.1580	39.9580
 1.1590	39.8300
 1.1600	39.7150
 1.1610	39.6110
 1.1620	39.5190
 1.1630	39.4340
 1.1640	39.3540
 1.1650	39.2790
 1.1660	39.2120
 1.1670	39.1500
 1.1680	39.0960
 1.1690	39.0430
 1.1700	38.9960
 1.1710	38.9480
 1.1720	38.9010
 1.1730	38.8550
 1.1740	38.8100
 1.1750	38.7660
 1.1760	38.7220
 1.1770	38.6750
 1.1780	38.6280
 1.1790	38.5780
 1.1800	38.5290
 1.1810	38.4810
 1.1820	38.4310
 1.1830	38.3830
 1.1840	38.3350
 1.1850	38.2890
 1.1860	38.2460
 1.1870	38.2080
 1.1880	38.1700
 1.1890	38.1350
 1.1900	38.1020
 1.1910	38.0710
 1.1920	38.0440
 1.1930	38.0200
 1.1940	38.0000
 1.1950	37.9840
 1.1960	37.9710
 1.1970	37.9610
 1.1980	37.9540
 1.1990	37.9540
 1.2000	37.9570
 1.2010	37.9660
 1.2020	37.9810
 1.2030	37.9990
 1.2040	38.0230
 1.2050	38.0530
 1.2060	38.0870
 1.2070	38.1280
 1.2080	38.1730
 1.2090	38.2220
 1.2100	38.2760
 1.2110	38.3330
 1.2120	38.3940
 1.2130	38.4600
 1.2140	38.5330
 1.2150	38.6070
 1.2160	38.6850
 1.2170	38.7650
 1.2180	38.8470
 1.2190	38.9300
 1.2200	39.0160
 1.2210	39.1010
 1.2220	39.1850
 1.2230	39.2720
 1.2240	39.3580
 1.2250	39.4430
 1.2260	39.5260
 1.2270	39.6090
 1.2280	39.6860
 1.2290	39.7620
 1.2300	39.8370
 1.2310	39.9060
 1.2320	39.9740
 1.2330	40.0410
 1.2340	40.1050
 1.2350	40.1680
 1.2360	40.2300
 1.2370	40.2890
 1.2380	40.3480
 1.2390	40.4060
 1.2400	40.4610
 1.2410	40.5140
 1.2420	40.5670
 1.2430	40.6180
 1.2440	40.6680
 1.2450	40.7190
 1.2460	40.7670
 1.2470	40.8120
 1.2480	40.8560
 1.2490	40.8990
 1.2500	40.9390
 1.2510	40.9770
 1.2520	41.0140
 1.2530	41.0490
 1.2540	41.0840
 1.2550	41.1180
 1.2560	41.1490
 1.2570	41.1790
 1.2580	41.2070
 1.2590	41.2310
 1.2600	41.2530
 1.2610	41.2750
 1.2620	41.2930
 1.2630	41.3100
 1.2640	41.3260
 1.2650	41.3410
 1.2660	41.3550
 1.2670	41.3660
 1.2680	41.3740
 1.2690	41.3830
 1.2700	41.3890
 1.2710	41.3930
 1.2720	41.3990
 1.2730	41.4010
 1.2740	41.4010
 1.2750	41.3990
 1.2760	41.3930
 1.2770	41.3860
 1.2780	41.3780
 1.2790	41.3660
 1.2800	41.3520
 1.2810	41.3350
 1.2820	41.3150
 1.2830	41.2920
 1.2840	41.2660
 1.2850	41.2350
 1.2860	41.2000
 1.2870	41.1620
 1.2880	41.1180
 1.2890	41.0720
 1.2900	41.0230
 1.2910	40.9680
 1.2920	40.9100
 1.2930	40.8460
 1.2940	40.7770
 1.2950	40.7030
 1.2960	40.6250
 1.2970	40.5440
 1.2980	40.4590
 1.2990	40.3690
 1.3000	40.2770
 1.3010	40.1790
 1.3020	40.0760
 1.3030	39.9700
 1.3040	39.8560
 1.3050	39.7390
 1.3060	39.6210
 1.3070	39.4970
 1.3080	39.3670
 1.3090	39.2310
 1.3100	39.0910
 1.3110	38.9440
 1.3120	38.7950
 1.3130	38.6460
 1.3140	38.4900
 1.3150	38.3300
 1.3160	38.1660
 1.3170	37.9980
 1.3180	37.8250
 1.3190	37.6480
 1.3200	37.4690
 1.3210	37.2830
 1.3220	37.0940
 1.3230	36.9030
 1.3240	36.7070
 1.3250	36.5110
 1.3260	36.3110
 1.3270	36.1070
 1.3280	35.9010
 1.3290	35.6900
 1.3300	35.4810
 1.3310	35.2710
 1.3320	35.0580
 1.3330	34.8450
 1.3340	34.6330
 1.3350	34.4190
 1.3360	34.2070
 1.3370	33.9980
 1.3380	33.7880
 1.3390	33.5790
 1.3400	33.3720
 1.3410	33.1690
 1.3420	32.9680
 1.3430	32.7700
 1.3440	32.5750
 1.3450	32.3820
 1.3460	32.1880
 1.3470	32.0010
 1.3480	31.8150
 1.3490	31.6330
 1.3500	31.4550
 1.3510	31.2810
 1.3520	31.1080
 1.3530	30.9360
 1.3540	30.7670
 1.3550	30.5980
 1.3560	30.4280
 1.3570	30.2580
 1.3580	30.0890
 1.3590	29.9170
 1.3600	29.7430
 1.3610	29.5690
 1.3620	29.3880
 1.3630	29.2040
 1.3640	29.0160
 1.3650	28.8190
 1.3660	28.6160
 1.3670	28.4060
 1.3680	28.1860
 1.3690	27.9570
 1.3700	27.7140
 1.3710	27.4590
 1.3720	27.1910
 1.3730	26.9050
 1.3740	26.6080
 1.3750	26.2940
 1.3760	25.9600
 1.3770	25.6100
 1.3780	25.2370
 1.3790	24.8450
 1.3800	24.4380
 1.3810	24.0110
 1.3820	23.5730
 1.3830	23.1220
 1.3840	22.6590
 1.3850	22.1820
 1.3860	21.7010
 1.3870	21.2060
 1.3880	20.7150
 1.3890	20.2190
 1.3900	19.7210
 1.3910	19.2320
 1.3920	18.7440
 1.3930	18.2590
 1.3940	17.7840
 1.3950	17.3120
 1.3960	16.8510
 1.3970	16.4030
 1.3980	15.9670
 1.3990	15.5530
 1.4000	15.1530
 1.4010	14.7680
 1.4020	14.4030
 1.4030	14.0500
 1.4040	13.7150
 1.4050	13.3980
 1.4060	13.0970
 1.4070	12.8170
 1.4080	12.5530
 1.4090	12.3040
 1.4100	12.0720
 1.4110	11.8540
 1.4120	11.6490
 1.4130	11.4590
 1.4140	11.2820
 1.4150	11.1190
 1.4160	10.9680
 1.4170	10.8270
 1.4180	10.6970
 1.4190	10.5750
 1.4200	10.4610
 1.4210	10.3570
 1.4220	10.2610
 1.4230	10.1730
 1.4240	10.0940
 1.4250	10.0190
 1.4260	 9.9510
 1.4270	 9.8880
 1.4280	 9.8300
 1.4290	 9.7780
 1.4300	 9.7310
 1.4310	 9.6880
 1.4320	 9.6500
 1.4330	 9.6150
 1.4340	 9.5840
 1.4350	 9.5560
 1.4360	 9.5320
 1.4370	 9.5130
 1.4380	 9.4950
 1.4390	 9.4810
 1.4400	 9.4700
 1.4410	 9.4600
 1.4420	 9.4540
 1.4430	 9.4490
 1.4440	 9.4470
 1.4450	 9.4450
 1.4460	 9.4460
 1.4470	 9.4470
 1.4480	 9.4510
 1.4490	 9.4550
 1.4500	 9.4620
 1.4510	 9.4690
 1.4520	 9.4780
 1.4530	 9.4890
 1.4540	 9.5000
 1.4550	 9.5130
 1.4560	 9.5270
 1.4570	 9.5420
 1.4580	 9.5590
 1.4590	 9.5780
 1.4600	 9.6000
 1.4610	 9.6240
 1.4620	 9.6500
 1.4630	 9.6790
 1.4640	 9.7100
 1.4650	 9.7440
 1.4660	 9.7820
 1.4670	 9.8220
 1.4680	 9.8660
 1.4690	 9.9120
