Name: Quercus ilex
Type: vegetation
Class: Tree
Genus: Quercus
Species: ilex
Sample No.: JPL255
Owner: JPL
Wavelength Range: VSWIR
Origin: 34.13179; -118.11182; WGS84
Collection Date: 10/6/2016
Description: Samples were collected at the Huntington Garden in San Marino California as part of a JPL Subcontract studying HyTES imagery. Samples were taken to JPL and processed within 48 hours of collection. The same leaves were processed in the Nicolet and then measured using the ASD.
Measurement: Bidirectional reflectance
First Column: X
Second Column: Y
X Units: Wavelength (micrometer)
Y Units: Reflectance (percentage)
First X Value: 0.35
Last X Value: 2.5
Number of X Values: 2151
Additional Information: vegetation.tree.quercus.ilex.vswir.jpl255.jpl.asd.ancillary.txt

 0.3500	 6.6980
 0.3510	 6.5330
 0.3520	 6.3620
 0.3530	 6.2810
 0.3540	 6.3150
 0.3550	 6.3430
 0.3560	 6.3460
 0.3570	 6.3330
 0.3580	 6.3290
 0.3590	 6.3540
 0.3600	 6.3260
 0.3610	 6.2450
 0.3620	 6.2440
 0.3630	 6.2280
 0.3640	 6.2290
 0.3650	 6.2740
 0.3660	 6.2400
 0.3670	 6.1820
 0.3680	 6.1520
 0.3690	 6.1810
 0.3700	 6.1820
 0.3710	 6.1810
 0.3720	 6.1920
 0.3730	 6.1900
 0.3740	 6.1500
 0.3750	 6.1100
 0.3760	 6.1160
 0.3770	 6.1590
 0.3780	 6.1450
 0.3790	 6.1150
 0.3800	 6.2060
 0.3810	 6.2240
 0.3820	 6.1900
 0.3830	 6.1580
 0.3840	 6.1750
 0.3850	 6.1390
 0.3860	 6.1090
 0.3870	 6.1710
 0.3880	 6.1850
 0.3890	 6.1810
 0.3900	 6.1770
 0.3910	 6.1700
 0.3920	 6.1730
 0.3930	 6.1750
 0.3940	 6.1750
 0.3950	 6.2130
 0.3960	 6.2330
 0.3970	 6.2390
 0.3980	 6.2580
 0.3990	 6.2740
 0.4000	 6.2920
 0.4010	 6.3120
 0.4020	 6.3230
 0.4030	 6.3440
 0.4040	 6.3610
 0.4050	 6.3660
 0.4060	 6.3930
 0.4070	 6.4220
 0.4080	 6.4450
 0.4090	 6.4610
 0.4100	 6.4730
 0.4110	 6.4910
 0.4120	 6.5180
 0.4130	 6.5420
 0.4140	 6.5670
 0.4150	 6.5890
 0.4160	 6.6070
 0.4170	 6.6320
 0.4180	 6.6570
 0.4190	 6.6790
 0.4200	 6.6980
 0.4210	 6.7050
 0.4220	 6.7200
 0.4230	 6.7480
 0.4240	 6.7530
 0.4250	 6.7680
 0.4260	 6.7870
 0.4270	 6.7920
 0.4280	 6.8070
 0.4290	 6.8170
 0.4300	 6.8150
 0.4310	 6.8150
 0.4320	 6.8070
 0.4330	 6.8010
 0.4340	 6.8090
 0.4350	 6.8180
 0.4360	 6.8250
 0.4370	 6.8340
 0.4380	 6.8500
 0.4390	 6.8800
 0.4400	 6.9050
 0.4410	 6.9150
 0.4420	 6.9260
 0.4430	 6.9360
 0.4440	 6.9440
 0.4450	 6.9520
 0.4460	 6.9680
 0.4470	 6.9830
 0.4480	 6.9920
 0.4490	 6.9920
 0.4500	 7.0060
 0.4510	 7.0200
 0.4520	 7.0230
 0.4530	 7.0370
 0.4540	 7.0450
 0.4550	 7.0520
 0.4560	 7.0710
 0.4570	 7.0770
 0.4580	 7.0790
 0.4590	 7.0840
 0.4600	 7.0950
 0.4610	 7.1010
 0.4620	 7.1050
 0.4630	 7.1120
 0.4640	 7.1190
 0.4650	 7.1210
 0.4660	 7.1200
 0.4670	 7.1220
 0.4680	 7.1300
 0.4690	 7.1390
 0.4700	 7.1430
 0.4710	 7.1430
 0.4720	 7.1500
 0.4730	 7.1570
 0.4740	 7.1530
 0.4750	 7.1570
 0.4760	 7.1670
 0.4770	 7.1760
 0.4780	 7.1760
 0.4790	 7.1760
 0.4800	 7.1770
 0.4810	 7.1770
 0.4820	 7.1770
 0.4830	 7.1800
 0.4840	 7.1830
 0.4850	 7.1790
 0.4860	 7.1790
 0.4870	 7.1830
 0.4880	 7.1880
 0.4890	 7.1960
 0.4900	 7.2020
 0.4910	 7.2100
 0.4920	 7.2230
 0.4930	 7.2320
 0.4940	 7.2410
 0.4950	 7.2530
 0.4960	 7.2730
 0.4970	 7.2860
 0.4980	 7.2940
 0.4990	 7.3040
 0.5000	 7.3230
 0.5010	 7.3440
 0.5020	 7.3650
 0.5030	 7.3840
 0.5040	 7.4020
 0.5050	 7.4230
 0.5060	 7.4490
 0.5070	 7.4780
 0.5080	 7.5130
 0.5090	 7.5500
 0.5100	 7.5860
 0.5110	 7.6280
 0.5120	 7.6760
 0.5130	 7.7290
 0.5140	 7.7890
 0.5150	 7.8540
 0.5160	 7.9250
 0.5170	 8.0010
 0.5180	 8.0840
 0.5190	 8.1740
 0.5200	 8.2690
 0.5210	 8.3670
 0.5220	 8.4680
 0.5230	 8.5700
 0.5240	 8.6740
 0.5250	 8.7790
 0.5260	 8.8810
 0.5270	 8.9810
 0.5280	 9.0750
 0.5290	 9.1660
 0.5300	 9.2510
 0.5310	 9.3280
 0.5320	 9.4030
 0.5330	 9.4720
 0.5340	 9.5330
 0.5350	 9.5890
 0.5360	 9.6350
 0.5370	 9.6750
 0.5380	 9.7110
 0.5390	 9.7420
 0.5400	 9.7600
 0.5410	 9.7680
 0.5420	 9.7710
 0.5430	 9.7820
 0.5440	 9.8020
 0.5450	 9.8310
 0.5460	 9.8660
 0.5470	 9.9060
 0.5480	 9.9430
 0.5490	 9.9740
 0.5500	 9.9960
 0.5510	10.0120
 0.5520	10.0220
 0.5530	10.0250
 0.5540	10.0230
 0.5550	10.0120
 0.5560	 9.9910
 0.5570	 9.9630
 0.5580	 9.9250
 0.5590	 9.8820
 0.5600	 9.8350
 0.5610	 9.7810
 0.5620	 9.7200
 0.5630	 9.6510
 0.5640	 9.5750
 0.5650	 9.5010
 0.5660	 9.4300
 0.5670	 9.3610
 0.5680	 9.2920
 0.5690	 9.2190
 0.5700	 9.1450
 0.5710	 9.0750
 0.5720	 9.0070
 0.5730	 8.9410
 0.5740	 8.8750
 0.5750	 8.8100
 0.5760	 8.7530
 0.5770	 8.7080
 0.5780	 8.6730
 0.5790	 8.6420
 0.5800	 8.6110
 0.5810	 8.5750
 0.5820	 8.5330
 0.5830	 8.4970
 0.5840	 8.4690
 0.5850	 8.4490
 0.5860	 8.4270
 0.5870	 8.4030
 0.5880	 8.3800
 0.5890	 8.3640
 0.5900	 8.3480
 0.5910	 8.3300
 0.5920	 8.3100
 0.5930	 8.2930
 0.5940	 8.2840
 0.5950	 8.2830
 0.5960	 8.2870
 0.5970	 8.2920
 0.5980	 8.2920
 0.5990	 8.2870
 0.6000	 8.2810
 0.6010	 8.2730
 0.6020	 8.2610
 0.6030	 8.2460
 0.6040	 8.2290
 0.6050	 8.2120
 0.6060	 8.1910
 0.6070	 8.1650
 0.6080	 8.1390
 0.6090	 8.1070
 0.6100	 8.0610
 0.6110	 8.0050
 0.6120	 7.9820
 0.6130	 7.9740
 0.6140	 7.9670
 0.6150	 7.9520
 0.6160	 7.9370
 0.6170	 7.9220
 0.6180	 7.9050
 0.6190	 7.8900
 0.6200	 7.8750
 0.6210	 7.8620
 0.6220	 7.8540
 0.6230	 7.8470
 0.6240	 7.8400
 0.6250	 7.8330
 0.6260	 7.8320
 0.6270	 7.8300
 0.6280	 7.8270
 0.6290	 7.8250
 0.6300	 7.8190
 0.6310	 7.8140
 0.6320	 7.8140
 0.6330	 7.8190
 0.6340	 7.8160
 0.6350	 7.8090
 0.6360	 7.8020
 0.6370	 7.7900
 0.6380	 7.7770
 0.6390	 7.7640
 0.6400	 7.7500
 0.6410	 7.7360
 0.6420	 7.7210
 0.6430	 7.7050
 0.6440	 7.6880
 0.6450	 7.6740
 0.6460	 7.6630
 0.6470	 7.6510
 0.6480	 7.6390
 0.6490	 7.6280
 0.6500	 7.6190
 0.6510	 7.6140
 0.6520	 7.6080
 0.6530	 7.6040
 0.6540	 7.6030
 0.6550	 7.5990
 0.6560	 7.5930
 0.6570	 7.5870
 0.6580	 7.5820
 0.6590	 7.5760
 0.6600	 7.5690
 0.6610	 7.5610
 0.6620	 7.5540
 0.6630	 7.5480
 0.6640	 7.5450
 0.6650	 7.5430
 0.6660	 7.5420
 0.6670	 7.5430
 0.6680	 7.5460
 0.6690	 7.5520
 0.6700	 7.5570
 0.6710	 7.5640
 0.6720	 7.5750
 0.6730	 7.5870
 0.6740	 7.6000
 0.6750	 7.6140
 0.6760	 7.6290
 0.6770	 7.6440
 0.6780	 7.6620
 0.6790	 7.6840
 0.6800	 7.7060
 0.6810	 7.7320
 0.6820	 7.7600
 0.6830	 7.7880
 0.6840	 7.8160
 0.6850	 7.8450
 0.6860	 7.8770
 0.6870	 7.9120
 0.6880	 7.9490
 0.6890	 7.9930
 0.6900	 8.0500
 0.6910	 8.1210
 0.6920	 8.2130
 0.6930	 8.3280
 0.6940	 8.4710
 0.6950	 8.6510
 0.6960	 8.8720
 0.6970	 9.1360
 0.6980	 9.4460
 0.6990	 9.8060
 0.7000	10.2140
 0.7010	10.6690
 0.7020	11.1680
 0.7030	11.7080
 0.7040	12.2840
 0.7050	12.8960
 0.7060	13.5410
 0.7070	14.2140
 0.7080	14.9140
 0.7090	15.6430
 0.7100	16.3950
 0.7110	17.1720
 0.7120	17.9750
 0.7130	18.8010
 0.7140	19.6510
 0.7150	20.5220
 0.7160	21.4120
 0.7170	22.3230
 0.7180	23.2490
 0.7190	24.1870
 0.7200	25.1340
 0.7210	26.0900
 0.7220	27.0510
 0.7230	28.0130
 0.7240	28.9710
 0.7250	29.9250
 0.7260	30.8690
 0.7270	31.7960
 0.7280	32.7040
 0.7290	33.5930
 0.7300	34.4590
 0.7310	35.3000
 0.7320	36.1170
 0.7330	36.9060
 0.7340	37.6630
 0.7350	38.3900
 0.7360	39.0870
 0.7370	39.7530
 0.7380	40.3880
 0.7390	40.9910
 0.7400	41.5610
 0.7410	42.0990
 0.7420	42.6080
 0.7430	43.0870
 0.7440	43.5360
 0.7450	43.9560
 0.7460	44.3470
 0.7470	44.7120
 0.7480	45.0500
 0.7490	45.3610
 0.7500	45.6520
 0.7510	45.9200
 0.7520	46.1650
 0.7530	46.3910
 0.7540	46.6000
 0.7550	46.7900
 0.7560	46.9630
 0.7570	47.1200
 0.7580	47.2660
 0.7590	47.4010
 0.7600	47.5240
 0.7610	47.6370
 0.7620	47.7370
 0.7630	47.8280
 0.7640	47.9130
 0.7650	47.9910
 0.7660	48.0640
 0.7670	48.1300
 0.7680	48.1880
 0.7690	48.2410
 0.7700	48.2900
 0.7710	48.3360
 0.7720	48.3810
 0.7730	48.4190
 0.7740	48.4550
 0.7750	48.4930
 0.7760	48.5240
 0.7770	48.5520
 0.7780	48.5810
 0.7790	48.6100
 0.7800	48.6360
 0.7810	48.6630
 0.7820	48.6890
 0.7830	48.7110
 0.7840	48.7320
 0.7850	48.7520
 0.7860	48.7690
 0.7870	48.7850
 0.7880	48.8020
 0.7890	48.8180
 0.7900	48.8320
 0.7910	48.8470
 0.7920	48.8580
 0.7930	48.8670
 0.7940	48.8770
 0.7950	48.8900
 0.7960	48.9020
 0.7970	48.9110
 0.7980	48.9160
 0.7990	48.9240
 0.8000	48.9330
 0.8010	48.9380
 0.8020	48.9470
 0.8030	48.9520
 0.8040	48.9550
 0.8050	48.9620
 0.8060	48.9650
 0.8070	48.9650
 0.8080	48.9670
 0.8090	48.9730
 0.8100	48.9740
 0.8110	48.9740
 0.8120	48.9780
 0.8130	48.9810
 0.8140	48.9820
 0.8150	48.9820
 0.8160	48.9840
 0.8170	48.9850
 0.8180	48.9870
 0.8190	48.9890
 0.8200	48.9890
 0.8210	48.9900
 0.8220	48.9920
 0.8230	48.9950
 0.8240	48.9990
 0.8250	49.0010
 0.8260	49.0020
 0.8270	49.0060
 0.8280	49.0130
 0.8290	49.0160
 0.8300	49.0170
 0.8310	49.0190
 0.8320	49.0230
 0.8330	49.0290
 0.8340	49.0380
 0.8350	49.0450
 0.8360	49.0530
 0.8370	49.0620
 0.8380	49.0710
 0.8390	49.0780
 0.8400	49.0850
 0.8410	49.0950
 0.8420	49.1060
 0.8430	49.1190
 0.8440	49.1320
 0.8450	49.1440
 0.8460	49.1530
 0.8470	49.1650
 0.8480	49.1780
 0.8490	49.1930
 0.8500	49.2070
 0.8510	49.2160
 0.8520	49.2270
 0.8530	49.2420
 0.8540	49.2560
 0.8550	49.2670
 0.8560	49.2810
 0.8570	49.2970
 0.8580	49.3070
 0.8590	49.3170
 0.8600	49.3320
 0.8610	49.3520
 0.8620	49.3670
 0.8630	49.3850
 0.8640	49.4020
 0.8650	49.4140
 0.8660	49.4280
 0.8670	49.4410
 0.8680	49.4540
 0.8690	49.4690
 0.8700	49.4880
 0.8710	49.5020
 0.8720	49.5150
 0.8730	49.5350
 0.8740	49.5540
 0.8750	49.5730
 0.8760	49.5900
 0.8770	49.6030
 0.8780	49.6100
 0.8790	49.6230
 0.8800	49.6430
 0.8810	49.6560
 0.8820	49.6740
 0.8830	49.6920
 0.8840	49.7070
 0.8850	49.7130
 0.8860	49.7250
 0.8870	49.7400
 0.8880	49.7530
 0.8890	49.7660
 0.8900	49.7770
 0.8910	49.7890
 0.8920	49.8040
 0.8930	49.8160
 0.8940	49.8270
 0.8950	49.8380
 0.8960	49.8540
 0.8970	49.8670
 0.8980	49.8760
 0.8990	49.8870
 0.9000	49.9020
 0.9010	49.9150
 0.9020	49.9270
 0.9030	49.9400
 0.9040	49.9520
 0.9050	49.9610
 0.9060	49.9700
 0.9070	49.9820
 0.9080	49.9900
 0.9090	50.0010
 0.9100	50.0140
 0.9110	50.0230
 0.9120	50.0310
 0.9130	50.0430
 0.9140	50.0530
 0.9150	50.0560
 0.9160	50.0630
 0.9170	50.0720
 0.9180	50.0810
 0.9190	50.0860
 0.9200	50.0920
 0.9210	50.0940
 0.9220	50.0940
 0.9230	50.0970
 0.9240	50.1060
 0.9250	50.1080
 0.9260	50.1010
 0.9270	50.0960
 0.9280	50.0900
 0.9290	50.0810
 0.9300	50.0720
 0.9310	50.0690
 0.9320	50.0700
 0.9330	50.0680
 0.9340	50.0590
 0.9350	50.0420
 0.9360	50.0280
 0.9370	50.0150
 0.9380	50.0030
 0.9390	49.9930
 0.9400	49.9780
 0.9410	49.9630
 0.9420	49.9510
 0.9430	49.9250
 0.9440	49.9020
 0.9450	49.8770
 0.9460	49.8490
 0.9470	49.8230
 0.9480	49.8020
 0.9490	49.7760
 0.9500	49.7370
 0.9510	49.6970
 0.9520	49.6580
 0.9530	49.6150
 0.9540	49.5670
 0.9550	49.5300
 0.9560	49.4910
 0.9570	49.4500
 0.9580	49.4070
 0.9590	49.3710
 0.9600	49.3270
 0.9610	49.2880
 0.9620	49.2650
 0.9630	49.2340
 0.9640	49.2120
 0.9650	49.1920
 0.9660	49.1670
 0.9670	49.1680
 0.9680	49.1580
 0.9690	49.1410
 0.9700	49.1300
 0.9710	49.1060
 0.9720	49.0940
 0.9730	49.0940
 0.9740	49.0910
 0.9750	49.0870
 0.9760	49.0850
 0.9770	49.0880
 0.9780	49.0980
 0.9790	49.0940
 0.9800	49.0830
 0.9810	49.0770
 0.9820	49.0830
 0.9830	49.0970
 0.9840	49.1090
 0.9850	49.1090
 0.9860	49.1010
 0.9870	49.1130
 0.9880	49.1340
 0.9890	49.1580
 0.9900	49.1820
 0.9910	49.1950
 0.9920	49.1980
 0.9930	49.2070
 0.9940	49.2400
 0.9950	49.2650
 0.9960	49.2890
 0.9970	49.3090
 0.9980	49.3190
 0.9990	49.3340
 1.0000	49.3560
 1.0010	50.4540
 1.0020	50.4690
 1.0030	50.4840
 1.0040	50.5020
 1.0050	50.5180
 1.0060	50.5370
 1.0070	50.5610
 1.0080	50.5830
 1.0090	50.6060
 1.0100	50.6250
 1.0110	50.6420
 1.0120	50.6600
 1.0130	50.6760
 1.0140	50.6940
 1.0150	50.7160
 1.0160	50.7340
 1.0170	50.7510
 1.0180	50.7720
 1.0190	50.7930
 1.0200	50.8110
 1.0210	50.8280
 1.0220	50.8450
 1.0230	50.8650
 1.0240	50.8860
 1.0250	50.9040
 1.0260	50.9240
 1.0270	50.9430
 1.0280	50.9610
 1.0290	50.9780
 1.0300	50.9950
 1.0310	51.0140
 1.0320	51.0330
 1.0330	51.0510
 1.0340	51.0720
 1.0350	51.0950
 1.0360	51.1110
 1.0370	51.1250
 1.0380	51.1410
 1.0390	51.1560
 1.0400	51.1710
 1.0410	51.1900
 1.0420	51.2040
 1.0430	51.2160
 1.0440	51.2310
 1.0450	51.2480
 1.0460	51.2610
 1.0470	51.2710
 1.0480	51.2830
 1.0490	51.2900
 1.0500	51.3000
 1.0510	51.3140
 1.0520	51.3250
 1.0530	51.3360
 1.0540	51.3460
 1.0550	51.3540
 1.0560	51.3580
 1.0570	51.3650
 1.0580	51.3720
 1.0590	51.3790
 1.0600	51.3890
 1.0610	51.3970
 1.0620	51.4030
 1.0630	51.4080
 1.0640	51.4140
 1.0650	51.4190
 1.0660	51.4230
 1.0670	51.4260
 1.0680	51.4290
 1.0690	51.4320
 1.0700	51.4350
 1.0710	51.4390
 1.0720	51.4420
 1.0730	51.4470
 1.0740	51.4480
 1.0750	51.4440
 1.0760	51.4440
 1.0770	51.4430
 1.0780	51.4440
 1.0790	51.4500
 1.0800	51.4510
 1.0810	51.4510
 1.0820	51.4500
 1.0830	51.4460
 1.0840	51.4430
 1.0850	51.4390
 1.0860	51.4370
 1.0870	51.4330
 1.0880	51.4290
 1.0890	51.4270
 1.0900	51.4250
 1.0910	51.4220
 1.0920	51.4230
 1.0930	51.4200
 1.0940	51.4150
 1.0950	51.4100
 1.0960	51.4020
 1.0970	51.3970
 1.0980	51.3970
 1.0990	51.3920
 1.1000	51.3840
 1.1010	51.3790
 1.1020	51.3710
 1.1030	51.3650
 1.1040	51.3600
 1.1050	51.3540
 1.1060	51.3470
 1.1070	51.3360
 1.1080	51.3280
 1.1090	51.3200
 1.1100	51.3110
 1.1110	51.3030
 1.1120	51.2930
 1.1130	51.2810
 1.1140	51.2690
 1.1150	51.2560
 1.1160	51.2420
 1.1170	51.2270
 1.1180	51.2110
 1.1190	51.1960
 1.1200	51.1760
 1.1210	51.1540
 1.1220	51.1320
 1.1230	51.1040
 1.1240	51.0720
 1.1250	51.0370
 1.1260	51.0020
 1.1270	50.9580
 1.1280	50.9090
 1.1290	50.8550
 1.1300	50.7940
 1.1310	50.7290
 1.1320	50.6600
 1.1330	50.5850
 1.1340	50.5050
 1.1350	50.4180
 1.1360	50.3260
 1.1370	50.2280
 1.1380	50.1220
 1.1390	50.0120
 1.1400	49.8970
 1.1410	49.7780
 1.1420	49.6560
 1.1430	49.5320
 1.1440	49.4090
 1.1450	49.2810
 1.1460	49.1590
 1.1470	49.0390
 1.1480	48.9210
 1.1490	48.8030
 1.1500	48.6930
 1.1510	48.5850
 1.1520	48.4830
 1.1530	48.3850
 1.1540	48.2960
 1.1550	48.2130
 1.1560	48.1360
 1.1570	48.0660
 1.1580	48.0020
 1.1590	47.9400
 1.1600	47.8850
 1.1610	47.8350
 1.1620	47.7890
 1.1630	47.7500
 1.1640	47.7150
 1.1650	47.6810
 1.1660	47.6510
 1.1670	47.6240
 1.1680	47.6010
 1.1690	47.5780
 1.1700	47.5580
 1.1710	47.5370
 1.1720	47.5160
 1.1730	47.4950
 1.1740	47.4730
 1.1750	47.4540
 1.1760	47.4340
 1.1770	47.4130
 1.1780	47.3910
 1.1790	47.3680
 1.1800	47.3470
 1.1810	47.3230
 1.1820	47.3000
 1.1830	47.2780
 1.1840	47.2550
 1.1850	47.2330
 1.1860	47.2140
 1.1870	47.1930
 1.1880	47.1750
 1.1890	47.1570
 1.1900	47.1420
 1.1910	47.1290
 1.1920	47.1180
 1.1930	47.1090
 1.1940	47.0990
 1.1950	47.0890
 1.1960	47.0810
 1.1970	47.0760
 1.1980	47.0710
 1.1990	47.0710
 1.2000	47.0740
 1.2010	47.0760
 1.2020	47.0810
 1.2030	47.0870
 1.2040	47.0950
 1.2050	47.1040
 1.2060	47.1130
 1.2070	47.1270
 1.2080	47.1380
 1.2090	47.1550
 1.2100	47.1760
 1.2110	47.1960
 1.2120	47.2180
 1.2130	47.2420
 1.2140	47.2650
 1.2150	47.2930
 1.2160	47.3250
 1.2170	47.3570
 1.2180	47.3910
 1.2190	47.4260
 1.2200	47.4580
 1.2210	47.4920
 1.2220	47.5270
 1.2230	47.5610
 1.2240	47.6000
 1.2250	47.6360
 1.2260	47.6720
 1.2270	47.7070
 1.2280	47.7390
 1.2290	47.7710
 1.2300	47.8020
 1.2310	47.8310
 1.2320	47.8590
 1.2330	47.8860
 1.2340	47.9130
 1.2350	47.9400
 1.2360	47.9650
 1.2370	47.9910
 1.2380	48.0160
 1.2390	48.0380
 1.2400	48.0610
 1.2410	48.0850
 1.2420	48.1060
 1.2430	48.1240
 1.2440	48.1440
 1.2450	48.1620
 1.2460	48.1800
 1.2470	48.1980
 1.2480	48.2140
 1.2490	48.2310
 1.2500	48.2460
 1.2510	48.2620
 1.2520	48.2770
 1.2530	48.2890
 1.2540	48.3010
 1.2550	48.3120
 1.2560	48.3220
 1.2570	48.3320
 1.2580	48.3390
 1.2590	48.3470
 1.2600	48.3550
 1.2610	48.3600
 1.2620	48.3620
 1.2630	48.3670
 1.2640	48.3670
 1.2650	48.3660
 1.2660	48.3650
 1.2670	48.3650
 1.2680	48.3650
 1.2690	48.3660
 1.2700	48.3660
 1.2710	48.3650
 1.2720	48.3600
 1.2730	48.3550
 1.2740	48.3500
 1.2750	48.3440
 1.2760	48.3400
 1.2770	48.3350
 1.2780	48.3280
 1.2790	48.3210
 1.2800	48.3100
 1.2810	48.2980
 1.2820	48.2840
 1.2830	48.2700
 1.2840	48.2530
 1.2850	48.2350
 1.2860	48.2160
 1.2870	48.1940
 1.2880	48.1680
 1.2890	48.1440
 1.2900	48.1160
 1.2910	48.0830
 1.2920	48.0500
 1.2930	48.0110
 1.2940	47.9710
 1.2950	47.9310
 1.2960	47.8890
 1.2970	47.8460
 1.2980	47.8000
 1.2990	47.7520
 1.3000	47.7020
 1.3010	47.6480
 1.3020	47.5910
 1.3030	47.5320
 1.3040	47.4710
 1.3050	47.4070
 1.3060	47.3420
 1.3070	47.2740
 1.3080	47.2050
 1.3090	47.1350
 1.3100	47.0620
 1.3110	46.9870
 1.3120	46.9080
 1.3130	46.8260
 1.3140	46.7430
 1.3150	46.6590
 1.3160	46.5710
 1.3170	46.4810
 1.3180	46.3880
 1.3190	46.2910
 1.3200	46.1890
 1.3210	46.0860
 1.3220	45.9810
 1.3230	45.8750
 1.3240	45.7690
 1.3250	45.6610
 1.3260	45.5490
 1.3270	45.4340
 1.3280	45.3150
 1.3290	45.1920
 1.3300	45.0690
 1.3310	44.9440
 1.3320	44.8180
 1.3330	44.6900
 1.3340	44.5610
 1.3350	44.4320
 1.3360	44.3010
 1.3370	44.1690
 1.3380	44.0370
 1.3390	43.9040
 1.3400	43.7700
 1.3410	43.6400
 1.3420	43.5080
 1.3430	43.3770
 1.3440	43.2470
 1.3450	43.1180
 1.3460	42.9900
 1.3470	42.8650
 1.3480	42.7390
 1.3490	42.6160
 1.3500	42.4960
 1.3510	42.3740
 1.3520	42.2540
 1.3530	42.1370
 1.3540	42.0160
 1.3550	41.8970
 1.3560	41.7770
 1.3570	41.6560
 1.3580	41.5350
 1.3590	41.4100
 1.3600	41.2820
 1.3610	41.1510
 1.3620	41.0150
 1.3630	40.8740
 1.3640	40.7290
 1.3650	40.5740
 1.3660	40.4140
 1.3670	40.2470
 1.3680	40.0680
 1.3690	39.8810
 1.3700	39.6800
 1.3710	39.4670
 1.3720	39.2410
 1.3730	38.9980
 1.3740	38.7410
 1.3750	38.4650
 1.3760	38.1680
 1.3770	37.8520
 1.3780	37.5100
 1.3790	37.1460
 1.3800	36.7600
 1.3810	36.3470
 1.3820	35.9140
 1.3830	35.4580
 1.3840	34.9820
 1.3850	34.4830
 1.3860	33.9670
 1.3870	33.4270
 1.3880	32.8780
 1.3890	32.3120
 1.3900	31.7330
 1.3910	31.1520
 1.3920	30.5630
 1.3930	29.9690
 1.3940	29.3770
 1.3950	28.7800
 1.3960	28.1900
 1.3970	27.6110
 1.3980	27.0390
 1.3990	26.4870
 1.4000	25.9480
 1.4010	25.4210
 1.4020	24.9150
 1.4030	24.4220
 1.4040	23.9500
 1.4050	23.5000
 1.4060	23.0710
 1.4070	22.6690
 1.4080	22.2860
 1.4090	21.9220
 1.4100	21.5820
 1.4110	21.2610
 1.4120	20.9620
 1.4130	20.6820
 1.4140	20.4190
 1.4150	20.1780
 1.4160	19.9540
 1.4170	19.7450
 1.4180	19.5550
 1.4190	19.3760
 1.4200	19.2110
 1.4210	19.0590
 1.4220	18.9180
 1.4230	18.7890
 1.4240	18.6710
 1.4250	18.5630
 1.4260	18.4660
 1.4270	18.3760
 1.4280	18.2950
 1.4290	18.2200
 1.4300	18.1540
 1.4310	18.0930
 1.4320	18.0410
 1.4330	17.9940
 1.4340	17.9540
 1.4350	17.9180
 1.4360	17.8870
 1.4370	17.8610
 1.4380	17.8400
 1.4390	17.8220
 1.4400	17.8090
 1.4410	17.7990
 1.4420	17.7930
 1.4430	17.7890
 1.4440	17.7880
 1.4450	17.7890
 1.4460	17.7920
 1.4470	17.7970
 1.4480	17.8050
 1.4490	17.8140
 1.4500	17.8270
 1.4510	17.8400
 1.4520	17.8540
 1.4530	17.8700
 1.4540	17.8880
 1.4550	17.9090
 1.4560	17.9310
 1.4570	17.9560
 1.4580	17.9840
 1.4590	18.0140
 1.4600	18.0480
 1.4610	18.0860
 1.4620	18.1280
 1.4630	18.1740
 1.4640	18.2250
 1.4650	18.2790
 1.4660	18.3390
 1.4670	18.4040
 1.4680	18.4740
 1.4690	18.5480
 1.4700	18.6250
 1.4710	18.7070
 1.4720	18.7920
 1.4730	18.8820
 1.4740	18.9760
 1.4750	19.0730
 1.4760	19.1750
 1.4770	19.2780
 1.4780	19.3830
