Name: Lagerstroemia indica
Type: vegetation
Class: Tree
Genus: Lagerstroemia
Species: indica
Sample No.: JPL220
Owner: JPL
Wavelength Range: VSWIR
Origin: 34.12435; -118.11367; WGS84
Collection Date: 10/3/2016
Description: Samples were collected at the Huntington Garden in San Marino California as part of a JPL Subcontract studying HyTES imagery. Samples were taken to JPL and processed within 48 hours of collection. The same leaves were processed in the Nicolet and then measured using the ASD.
Measurement: Bidirectional reflectance
First Column: X
Second Column: Y
X Units: Wavelength (micrometer)
Y Units: Reflectance (percentage)
First X Value: 0.35
Last X Value: 2.5
Number of X Values: 2151
Additional Information: vegetation.tree.lagerstroemia.indica.vswir.jpl220.jpl.asd.ancillary.txt

 0.3500	 6.2630
 0.3510	 6.2800
 0.3520	 6.2720
 0.3530	 6.2760
 0.3540	 6.3100
 0.3550	 6.2260
 0.3560	 6.2400
 0.3570	 6.2760
 0.3580	 6.1490
 0.3590	 6.1790
 0.3600	 6.2090
 0.3610	 6.1570
 0.3620	 6.1140
 0.3630	 6.0620
 0.3640	 6.0530
 0.3650	 6.1140
 0.3660	 6.1090
 0.3670	 6.1230
 0.3680	 6.1500
 0.3690	 6.1190
 0.3700	 6.0600
 0.3710	 6.0220
 0.3720	 6.0370
 0.3730	 6.0990
 0.3740	 6.0880
 0.3750	 6.0620
 0.3760	 6.0980
 0.3770	 6.0670
 0.3780	 6.0210
 0.3790	 6.0060
 0.3800	 6.0500
 0.3810	 6.0150
 0.3820	 5.9700
 0.3830	 5.9770
 0.3840	 6.0130
 0.3850	 6.0430
 0.3860	 6.0370
 0.3870	 5.9920
 0.3880	 5.9980
 0.3890	 6.0390
 0.3900	 6.0650
 0.3910	 6.0070
 0.3920	 5.9940
 0.3930	 5.9950
 0.3940	 5.9830
 0.3950	 6.0290
 0.3960	 6.0720
 0.3970	 6.0830
 0.3980	 6.0530
 0.3990	 6.0190
 0.4000	 6.0030
 0.4010	 6.0190
 0.4020	 6.0690
 0.4030	 6.0700
 0.4040	 6.0600
 0.4050	 6.0850
 0.4060	 6.1040
 0.4070	 6.1240
 0.4080	 6.1420
 0.4090	 6.1510
 0.4100	 6.1810
 0.4110	 6.2240
 0.4120	 6.2620
 0.4130	 6.2720
 0.4140	 6.2980
 0.4150	 6.3340
 0.4160	 6.3650
 0.4170	 6.4170
 0.4180	 6.4490
 0.4190	 6.4630
 0.4200	 6.4970
 0.4210	 6.5420
 0.4220	 6.5840
 0.4230	 6.6170
 0.4240	 6.6550
 0.4250	 6.6830
 0.4260	 6.7100
 0.4270	 6.7550
 0.4280	 6.7980
 0.4290	 6.8260
 0.4300	 6.8400
 0.4310	 6.8540
 0.4320	 6.8680
 0.4330	 6.8930
 0.4340	 6.9360
 0.4350	 6.9580
 0.4360	 6.9860
 0.4370	 7.0220
 0.4380	 7.0520
 0.4390	 7.0820
 0.4400	 7.1230
 0.4410	 7.1760
 0.4420	 7.2110
 0.4430	 7.2540
 0.4440	 7.3050
 0.4450	 7.3580
 0.4460	 7.4110
 0.4470	 7.4630
 0.4480	 7.5140
 0.4490	 7.5650
 0.4500	 7.6170
 0.4510	 7.6740
 0.4520	 7.7400
 0.4530	 7.8050
 0.4540	 7.8640
 0.4550	 7.9190
 0.4560	 7.9750
 0.4570	 8.0270
 0.4580	 8.0740
 0.4590	 8.1190
 0.4600	 8.1700
 0.4610	 8.2180
 0.4620	 8.2570
 0.4630	 8.2860
 0.4640	 8.3110
 0.4650	 8.3340
 0.4660	 8.3590
 0.4670	 8.3850
 0.4680	 8.4120
 0.4690	 8.4300
 0.4700	 8.4360
 0.4710	 8.4610
 0.4720	 8.4740
 0.4730	 8.4760
 0.4740	 8.4850
 0.4750	 8.4920
 0.4760	 8.5000
 0.4770	 8.5120
 0.4780	 8.5260
 0.4790	 8.5410
 0.4800	 8.5610
 0.4810	 8.5900
 0.4820	 8.6150
 0.4830	 8.6460
 0.4840	 8.6840
 0.4850	 8.7230
 0.4860	 8.7630
 0.4870	 8.8180
 0.4880	 8.8920
 0.4890	 8.9580
 0.4900	 9.0360
 0.4910	 9.1230
 0.4920	 9.2120
 0.4930	 9.3090
 0.4940	 9.4120
 0.4950	 9.5200
 0.4960	 9.6380
 0.4970	 9.7660
 0.4980	 9.8980
 0.4990	10.0310
 0.5000	10.1710
 0.5010	10.3180
 0.5020	10.4730
 0.5030	10.6390
 0.5040	10.8160
 0.5050	10.9950
 0.5060	11.1710
 0.5070	11.3610
 0.5080	11.5630
 0.5090	11.7720
 0.5100	11.9800
 0.5110	12.1990
 0.5120	12.4270
 0.5130	12.6640
 0.5140	12.9060
 0.5150	13.1480
 0.5160	13.3920
 0.5170	13.6420
 0.5180	13.9070
 0.5190	14.1720
 0.5200	14.4320
 0.5210	14.6950
 0.5220	14.9510
 0.5230	15.2030
 0.5240	15.4530
 0.5250	15.6910
 0.5260	15.9260
 0.5270	16.1510
 0.5280	16.3600
 0.5290	16.5620
 0.5300	16.7580
 0.5310	16.9440
 0.5320	17.1140
 0.5330	17.2760
 0.5340	17.4300
 0.5350	17.5720
 0.5360	17.7090
 0.5370	17.8370
 0.5380	17.9590
 0.5390	18.0790
 0.5400	18.1940
 0.5410	18.3100
 0.5420	18.4260
 0.5430	18.5330
 0.5440	18.6310
 0.5450	18.7240
 0.5460	18.8180
 0.5470	18.9060
 0.5480	18.9940
 0.5490	19.0800
 0.5500	19.1590
 0.5510	19.2300
 0.5520	19.2950
 0.5530	19.3540
 0.5540	19.4050
 0.5550	19.4470
 0.5560	19.4810
 0.5570	19.5070
 0.5580	19.5220
 0.5590	19.5350
 0.5600	19.5510
 0.5610	19.5640
 0.5620	19.5710
 0.5630	19.5700
 0.5640	19.5590
 0.5650	19.5470
 0.5660	19.5310
 0.5670	19.5120
 0.5680	19.4930
 0.5690	19.4640
 0.5700	19.4250
 0.5710	19.3840
 0.5720	19.3450
 0.5730	19.3140
 0.5740	19.2910
 0.5750	19.2740
 0.5760	19.2600
 0.5770	19.2480
 0.5780	19.2390
 0.5790	19.2460
 0.5800	19.2580
 0.5810	19.2660
 0.5820	19.2660
 0.5830	19.2590
 0.5840	19.2470
 0.5850	19.2370
 0.5860	19.2380
 0.5870	19.2550
 0.5880	19.2860
 0.5890	19.3270
 0.5900	19.3760
 0.5910	19.4300
 0.5920	19.4860
 0.5930	19.5420
 0.5940	19.5980
 0.5950	19.6590
 0.5960	19.7260
 0.5970	19.7890
 0.5980	19.8450
 0.5990	19.8960
 0.6000	19.9390
 0.6010	19.9670
 0.6020	19.9880
 0.6030	20.0020
 0.6040	20.0020
 0.6050	19.9990
 0.6060	19.9880
 0.6070	19.9620
 0.6080	19.9260
 0.6090	19.8810
 0.6100	19.8330
 0.6110	19.7870
 0.6120	19.7190
 0.6130	19.6390
 0.6140	19.5590
 0.6150	19.4860
 0.6160	19.4190
 0.6170	19.3560
 0.6180	19.2960
 0.6190	19.2480
 0.6200	19.2090
 0.6210	19.1780
 0.6220	19.1540
 0.6230	19.1400
 0.6240	19.1380
 0.6250	19.1440
 0.6260	19.1550
 0.6270	19.1760
 0.6280	19.2060
 0.6290	19.2390
 0.6300	19.2750
 0.6310	19.3090
 0.6320	19.3380
 0.6330	19.3630
 0.6340	19.3760
 0.6350	19.3760
 0.6360	19.3630
 0.6370	19.3320
 0.6380	19.2830
 0.6390	19.2170
 0.6400	19.1380
 0.6410	19.0440
 0.6420	18.9380
 0.6430	18.8200
 0.6440	18.6890
 0.6450	18.5530
 0.6460	18.4150
 0.6470	18.2730
 0.6480	18.1340
 0.6490	18.0090
 0.6500	17.8990
 0.6510	17.7950
 0.6520	17.6960
 0.6530	17.5920
 0.6540	17.4780
 0.6550	17.3460
 0.6560	17.1930
 0.6570	17.0130
 0.6580	16.8020
 0.6590	16.5680
 0.6600	16.3130
 0.6610	16.0420
 0.6620	15.7600
 0.6630	15.4810
 0.6640	15.2070
 0.6650	14.9420
 0.6660	14.6960
 0.6670	14.4740
 0.6680	14.2750
 0.6690	14.1030
 0.6700	13.9580
 0.6710	13.8420
 0.6720	13.7550
 0.6730	13.6880
 0.6740	13.6400
 0.6750	13.6110
 0.6760	13.6050
 0.6770	13.6140
 0.6780	13.6470
 0.6790	13.7060
 0.6800	13.7960
 0.6810	13.9320
 0.6820	14.1230
 0.6830	14.3770
 0.6840	14.7050
 0.6850	15.1100
 0.6860	15.6010
 0.6870	16.1850
 0.6880	16.8560
 0.6890	17.6120
 0.6900	18.4440
 0.6910	19.3460
 0.6920	20.3070
 0.6930	21.3070
 0.6940	22.3300
 0.6950	23.3690
 0.6960	24.4120
 0.6970	25.4500
 0.6980	26.4720
 0.6990	27.4690
 0.7000	28.4310
 0.7010	29.3520
 0.7020	30.2280
 0.7030	31.0620
 0.7040	31.8530
 0.7050	32.5990
 0.7060	33.2990
 0.7070	33.9650
 0.7080	34.5970
 0.7090	35.1970
 0.7100	35.7680
 0.7110	36.3150
 0.7120	36.8430
 0.7130	37.3490
 0.7140	37.8360
 0.7150	38.3050
 0.7160	38.7570
 0.7170	39.1890
 0.7180	39.6070
 0.7190	40.0110
 0.7200	40.3980
 0.7210	40.7690
 0.7220	41.1230
 0.7230	41.4610
 0.7240	41.7850
 0.7250	42.0930
 0.7260	42.3830
 0.7270	42.6570
 0.7280	42.9230
 0.7290	43.1730
 0.7300	43.4070
 0.7310	43.6290
 0.7320	43.8410
 0.7330	44.0410
 0.7340	44.2260
 0.7350	44.3970
 0.7360	44.5620
 0.7370	44.7180
 0.7380	44.8630
 0.7390	45.0020
 0.7400	45.1350
 0.7410	45.2590
 0.7420	45.3740
 0.7430	45.4830
 0.7440	45.5860
 0.7450	45.6820
 0.7460	45.7700
 0.7470	45.8520
 0.7480	45.9300
 0.7490	46.0040
 0.7500	46.0730
 0.7510	46.1400
 0.7520	46.2030
 0.7530	46.2620
 0.7540	46.3170
 0.7550	46.3720
 0.7560	46.4260
 0.7570	46.4770
 0.7580	46.5270
 0.7590	46.5740
 0.7600	46.6210
 0.7610	46.6660
 0.7620	46.7100
 0.7630	46.7540
 0.7640	46.7970
 0.7650	46.8350
 0.7660	46.8720
 0.7670	46.9090
 0.7680	46.9460
 0.7690	46.9840
 0.7700	47.0220
 0.7710	47.0600
 0.7720	47.0940
 0.7730	47.1290
 0.7740	47.1630
 0.7750	47.1960
 0.7760	47.2310
 0.7770	47.2640
 0.7780	47.2950
 0.7790	47.3280
 0.7800	47.3600
 0.7810	47.3940
 0.7820	47.4290
 0.7830	47.4610
 0.7840	47.4880
 0.7850	47.5160
 0.7860	47.5450
 0.7870	47.5740
 0.7880	47.6010
 0.7890	47.6260
 0.7900	47.6530
 0.7910	47.6800
 0.7920	47.7040
 0.7930	47.7280
 0.7940	47.7540
 0.7950	47.7790
 0.7960	47.7990
 0.7970	47.8140
 0.7980	47.8330
 0.7990	47.8520
 0.8000	47.8710
 0.8010	47.8890
 0.8020	47.9030
 0.8030	47.9200
 0.8040	47.9370
 0.8050	47.9510
 0.8060	47.9670
 0.8070	47.9780
 0.8080	47.9860
 0.8090	47.9980
 0.8100	48.0110
 0.8110	48.0250
 0.8120	48.0380
 0.8130	48.0460
 0.8140	48.0520
 0.8150	48.0570
 0.8160	48.0660
 0.8170	48.0760
 0.8180	48.0850
 0.8190	48.0910
 0.8200	48.0950
 0.8210	48.1000
 0.8220	48.1060
 0.8230	48.1110
 0.8240	48.1140
 0.8250	48.1220
 0.8260	48.1290
 0.8270	48.1330
 0.8280	48.1380
 0.8290	48.1410
 0.8300	48.1410
 0.8310	48.1410
 0.8320	48.1460
 0.8330	48.1490
 0.8340	48.1530
 0.8350	48.1610
 0.8360	48.1660
 0.8370	48.1710
 0.8380	48.1790
 0.8390	48.1910
 0.8400	48.2000
 0.8410	48.2100
 0.8420	48.2230
 0.8430	48.2350
 0.8440	48.2400
 0.8450	48.2470
 0.8460	48.2620
 0.8470	48.2700
 0.8480	48.2780
 0.8490	48.2880
 0.8500	48.3020
 0.8510	48.3130
 0.8520	48.3280
 0.8530	48.3440
 0.8540	48.3550
 0.8550	48.3660
 0.8560	48.3780
 0.8570	48.3910
 0.8580	48.4050
 0.8590	48.4210
 0.8600	48.4370
 0.8610	48.4510
 0.8620	48.4650
 0.8630	48.4780
 0.8640	48.4920
 0.8650	48.5080
 0.8660	48.5230
 0.8670	48.5410
 0.8680	48.5600
 0.8690	48.5770
 0.8700	48.5950
 0.8710	48.6140
 0.8720	48.6330
 0.8730	48.6490
 0.8740	48.6640
 0.8750	48.6800
 0.8760	48.6970
 0.8770	48.7140
 0.8780	48.7350
 0.8790	48.7550
 0.8800	48.7710
 0.8810	48.7870
 0.8820	48.8000
 0.8830	48.8150
 0.8840	48.8330
 0.8850	48.8440
 0.8860	48.8590
 0.8870	48.8780
 0.8880	48.8980
 0.8890	48.9140
 0.8900	48.9310
 0.8910	48.9490
 0.8920	48.9630
 0.8930	48.9810
 0.8940	48.9950
 0.8950	49.0070
 0.8960	49.0240
 0.8970	49.0370
 0.8980	49.0520
 0.8990	49.0690
 0.9000	49.0820
 0.9010	49.1010
 0.9020	49.1130
 0.9030	49.1200
 0.9040	49.1430
 0.9050	49.1590
 0.9060	49.1680
 0.9070	49.1780
 0.9080	49.1940
 0.9090	49.2110
 0.9100	49.2230
 0.9110	49.2290
 0.9120	49.2340
 0.9130	49.2460
 0.9140	49.2620
 0.9150	49.2720
 0.9160	49.2730
 0.9170	49.2840
 0.9180	49.2970
 0.9190	49.2990
 0.9200	49.2970
 0.9210	49.2990
 0.9220	49.3030
 0.9230	49.3080
 0.9240	49.3070
 0.9250	49.3070
 0.9260	49.3070
 0.9270	49.3050
 0.9280	49.2980
 0.9290	49.2910
 0.9300	49.2820
 0.9310	49.2630
 0.9320	49.2510
 0.9330	49.2420
 0.9340	49.2280
 0.9350	49.2130
 0.9360	49.1920
 0.9370	49.1740
 0.9380	49.1610
 0.9390	49.1480
 0.9400	49.1260
 0.9410	49.1060
 0.9420	49.0870
 0.9430	49.0530
 0.9440	49.0210
 0.9450	48.9940
 0.9460	48.9690
 0.9470	48.9300
 0.9480	48.8880
 0.9490	48.8430
 0.9500	48.7930
 0.9510	48.7430
 0.9520	48.6970
 0.9530	48.6470
 0.9540	48.5890
 0.9550	48.5240
 0.9560	48.4710
 0.9570	48.4260
 0.9580	48.3820
 0.9590	48.3380
 0.9600	48.2980
 0.9610	48.2640
 0.9620	48.2360
 0.9630	48.2120
 0.9640	48.1880
 0.9650	48.1620
 0.9660	48.1360
 0.9670	48.1130
 0.9680	48.1030
 0.9690	48.1000
 0.9700	48.0910
 0.9710	48.0800
 0.9720	48.0670
 0.9730	48.0590
 0.9740	48.0580
 0.9750	48.0530
 0.9760	48.0500
 0.9770	48.0470
 0.9780	48.0420
 0.9790	48.0410
 0.9800	48.0450
 0.9810	48.0590
 0.9820	48.0850
 0.9830	48.1010
 0.9840	48.1020
 0.9850	48.0990
 0.9860	48.1060
 0.9870	48.1260
 0.9880	48.1360
 0.9890	48.1500
 0.9900	48.1850
 0.9910	48.1880
 0.9920	48.1970
 0.9930	48.2160
 0.9940	48.2310
 0.9950	48.2470
 0.9960	48.2710
 0.9970	48.3010
 0.9980	48.3330
 0.9990	48.3340
 1.0000	48.3490
 1.0010	50.7380
 1.0020	50.7610
 1.0030	50.7840
 1.0040	50.8070
 1.0050	50.8340
 1.0060	50.8580
 1.0070	50.8790
 1.0080	50.9020
 1.0090	50.9260
 1.0100	50.9480
 1.0110	50.9700
 1.0120	50.9910
 1.0130	51.0080
 1.0140	51.0310
 1.0150	51.0550
 1.0160	51.0810
 1.0170	51.1060
 1.0180	51.1270
 1.0190	51.1460
 1.0200	51.1640
 1.0210	51.1860
 1.0220	51.2130
 1.0230	51.2360
 1.0240	51.2550
 1.0250	51.2780
 1.0260	51.3000
 1.0270	51.3220
 1.0280	51.3480
 1.0290	51.3700
 1.0300	51.3890
 1.0310	51.4110
 1.0320	51.4340
 1.0330	51.4560
 1.0340	51.4770
 1.0350	51.4970
 1.0360	51.5170
 1.0370	51.5400
 1.0380	51.5610
 1.0390	51.5850
 1.0400	51.6050
 1.0410	51.6220
 1.0420	51.6390
 1.0430	51.6580
 1.0440	51.6740
 1.0450	51.6860
 1.0460	51.7020
 1.0470	51.7170
 1.0480	51.7330
 1.0490	51.7530
 1.0500	51.7700
 1.0510	51.7830
 1.0520	51.7960
 1.0530	51.8080
 1.0540	51.8180
 1.0550	51.8270
 1.0560	51.8370
 1.0570	51.8440
 1.0580	51.8480
 1.0590	51.8550
 1.0600	51.8630
 1.0610	51.8680
 1.0620	51.8740
 1.0630	51.8770
 1.0640	51.8770
 1.0650	51.8780
 1.0660	51.8790
 1.0670	51.8810
 1.0680	51.8820
 1.0690	51.8840
 1.0700	51.8840
 1.0710	51.8850
 1.0720	51.8810
 1.0730	51.8720
 1.0740	51.8670
 1.0750	51.8600
 1.0760	51.8560
 1.0770	51.8550
 1.0780	51.8500
 1.0790	51.8400
 1.0800	51.8330
 1.0810	51.8240
 1.0820	51.8170
 1.0830	51.8130
 1.0840	51.8060
 1.0850	51.7980
 1.0860	51.7900
 1.0870	51.7820
 1.0880	51.7720
 1.0890	51.7630
 1.0900	51.7550
 1.0910	51.7460
 1.0920	51.7370
 1.0930	51.7280
 1.0940	51.7180
 1.0950	51.7080
 1.0960	51.6970
 1.0970	51.6870
 1.0980	51.6780
 1.0990	51.6680
 1.1000	51.6580
 1.1010	51.6480
 1.1020	51.6360
 1.1030	51.6230
 1.1040	51.6140
 1.1050	51.6030
 1.1060	51.5920
 1.1070	51.5800
 1.1080	51.5690
 1.1090	51.5560
 1.1100	51.5450
 1.1110	51.5370
 1.1120	51.5270
 1.1130	51.5180
 1.1140	51.5060
 1.1150	51.4900
 1.1160	51.4740
 1.1170	51.4580
 1.1180	51.4390
 1.1190	51.4180
 1.1200	51.3960
 1.1210	51.3730
 1.1220	51.3470
 1.1230	51.3180
 1.1240	51.2880
 1.1250	51.2510
 1.1260	51.2120
 1.1270	51.1650
 1.1280	51.1130
 1.1290	51.0550
 1.1300	50.9920
 1.1310	50.9220
 1.1320	50.8490
 1.1330	50.7660
 1.1340	50.6770
 1.1350	50.5800
 1.1360	50.4760
 1.1370	50.3640
 1.1380	50.2460
 1.1390	50.1240
 1.1400	49.9940
 1.1410	49.8630
 1.1420	49.7280
 1.1430	49.5890
 1.1440	49.4520
 1.1450	49.3130
 1.1460	49.1770
 1.1470	49.0400
 1.1480	48.9100
 1.1490	48.7800
 1.1500	48.6610
 1.1510	48.5470
 1.1520	48.4400
 1.1530	48.3390
 1.1540	48.2460
 1.1550	48.1600
 1.1560	48.0800
 1.1570	48.0100
 1.1580	47.9460
 1.1590	47.8920
 1.1600	47.8430
 1.1610	47.7980
 1.1620	47.7600
 1.1630	47.7250
 1.1640	47.6920
 1.1650	47.6630
 1.1660	47.6380
 1.1670	47.6150
 1.1680	47.5960
 1.1690	47.5780
 1.1700	47.5650
 1.1710	47.5500
 1.1720	47.5360
 1.1730	47.5230
 1.1740	47.5090
 1.1750	47.4970
 1.1760	47.4850
 1.1770	47.4720
 1.1780	47.4590
 1.1790	47.4470
 1.1800	47.4340
 1.1810	47.4220
 1.1820	47.4090
 1.1830	47.3950
 1.1840	47.3800
 1.1850	47.3660
 1.1860	47.3530
 1.1870	47.3400
 1.1880	47.3280
 1.1890	47.3180
 1.1900	47.3070
 1.1910	47.2970
 1.1920	47.2900
 1.1930	47.2840
 1.1940	47.2790
 1.1950	47.2740
 1.1960	47.2740
 1.1970	47.2730
 1.1980	47.2730
 1.1990	47.2780
 1.2000	47.2830
 1.2010	47.2900
 1.2020	47.2990
 1.2030	47.3080
 1.2040	47.3180
 1.2050	47.3270
 1.2060	47.3390
 1.2070	47.3520
 1.2080	47.3670
 1.2090	47.3860
 1.2100	47.4050
 1.2110	47.4240
 1.2120	47.4440
 1.2130	47.4650
 1.2140	47.4860
 1.2150	47.5070
 1.2160	47.5290
 1.2170	47.5500
 1.2180	47.5720
 1.2190	47.5940
 1.2200	47.6150
 1.2210	47.6380
 1.2220	47.6620
 1.2230	47.6850
 1.2240	47.7080
 1.2250	47.7310
 1.2260	47.7530
 1.2270	47.7770
 1.2280	47.7990
 1.2290	47.8200
 1.2300	47.8410
 1.2310	47.8600
 1.2320	47.8800
 1.2330	47.8990
 1.2340	47.9170
 1.2350	47.9330
 1.2360	47.9490
 1.2370	47.9650
 1.2380	47.9820
 1.2390	48.0000
 1.2400	48.0150
 1.2410	48.0290
 1.2420	48.0430
 1.2430	48.0580
 1.2440	48.0740
 1.2450	48.0910
 1.2460	48.1070
 1.2470	48.1200
 1.2480	48.1300
 1.2490	48.1390
 1.2500	48.1470
 1.2510	48.1550
 1.2520	48.1650
 1.2530	48.1750
 1.2540	48.1830
 1.2550	48.1930
 1.2560	48.2000
 1.2570	48.2060
 1.2580	48.2140
 1.2590	48.2190
 1.2600	48.2210
 1.2610	48.2240
 1.2620	48.2260
 1.2630	48.2260
 1.2640	48.2250
 1.2650	48.2250
 1.2660	48.2260
 1.2670	48.2240
 1.2680	48.2230
 1.2690	48.2210
 1.2700	48.2140
 1.2710	48.2090
 1.2720	48.2030
 1.2730	48.1990
 1.2740	48.1930
 1.2750	48.1860
 1.2760	48.1780
 1.2770	48.1660
 1.2780	48.1510
 1.2790	48.1360
 1.2800	48.1220
 1.2810	48.1030
 1.2820	48.0820
 1.2830	48.0600
 1.2840	48.0330
 1.2850	48.0050
 1.2860	47.9780
 1.2870	47.9460
 1.2880	47.9100
 1.2890	47.8710
 1.2900	47.8290
 1.2910	47.7820
 1.2920	47.7340
 1.2930	47.6870
 1.2940	47.6350
 1.2950	47.5810
 1.2960	47.5230
 1.2970	47.4600
 1.2980	47.3950
 1.2990	47.3280
 1.3000	47.2590
 1.3010	47.1890
 1.3020	47.1160
 1.3030	47.0410
 1.3040	46.9610
 1.3050	46.8830
 1.3060	46.8030
 1.3070	46.7210
 1.3080	46.6380
 1.3090	46.5510
 1.3100	46.4580
 1.3110	46.3650
 1.3120	46.2690
 1.3130	46.1710
 1.3140	46.0700
 1.3150	45.9690
 1.3160	45.8650
 1.3170	45.7590
 1.3180	45.6500
 1.3190	45.5380
 1.3200	45.4270
 1.3210	45.3130
 1.3220	45.1980
 1.3230	45.0830
 1.3240	44.9640
 1.3250	44.8430
 1.3260	44.7220
 1.3270	44.5940
 1.3280	44.4660
 1.3290	44.3370
 1.3300	44.2050
 1.3310	44.0720
 1.3320	43.9380
 1.3330	43.8030
 1.3340	43.6660
 1.3350	43.5290
 1.3360	43.3920
 1.3370	43.2540
 1.3380	43.1180
 1.3390	42.9810
 1.3400	42.8450
 1.3410	42.7120
 1.3420	42.5790
 1.3430	42.4480
 1.3440	42.3180
 1.3450	42.1910
 1.3460	42.0650
 1.3470	41.9410
 1.3480	41.8180
 1.3490	41.6960
 1.3500	41.5750
 1.3510	41.4550
 1.3520	41.3350
 1.3530	41.2150
 1.3540	41.0970
 1.3550	40.9770
 1.3560	40.8560
 1.3570	40.7340
 1.3580	40.6090
 1.3590	40.4810
 1.3600	40.3510
 1.3610	40.2170
 1.3620	40.0770
 1.3630	39.9350
 1.3640	39.7860
 1.3650	39.6270
 1.3660	39.4600
 1.3670	39.2810
 1.3680	39.0900
 1.3690	38.8890
 1.3700	38.6720
 1.3710	38.4410
 1.3720	38.1940
 1.3730	37.9270
 1.3740	37.6430
 1.3750	37.3400
 1.3760	37.0110
 1.3770	36.6590
 1.3780	36.2800
 1.3790	35.8750
 1.3800	35.4460
 1.3810	34.9900
 1.3820	34.5130
 1.3830	34.0130
 1.3840	33.4910
 1.3850	32.9470
 1.3860	32.3860
 1.3870	31.8010
 1.3880	31.2110
 1.3890	30.6070
 1.3900	29.9910
 1.3910	29.3760
 1.3920	28.7550
 1.3930	28.1300
 1.3940	27.5100
 1.3950	26.8880
 1.3960	26.2770
 1.3970	25.6790
 1.3980	25.0920
 1.3990	24.5290
 1.4000	23.9820
 1.4010	23.4490
 1.4020	22.9420
 1.4030	22.4510
 1.4040	21.9810
 1.4050	21.5380
 1.4060	21.1170
 1.4070	20.7230
 1.4080	20.3520
 1.4090	20.0010
 1.4100	19.6740
 1.4110	19.3670
 1.4120	19.0800
 1.4130	18.8120
 1.4140	18.5630
 1.4150	18.3340
 1.4160	18.1220
 1.4170	17.9260
 1.4180	17.7440
 1.4190	17.5750
 1.4200	17.4190
 1.4210	17.2750
 1.4220	17.1420
 1.4230	17.0210
 1.4240	16.9110
 1.4250	16.8080
 1.4260	16.7160
 1.4270	16.6290
 1.4280	16.5500
 1.4290	16.4770
 1.4300	16.4120
 1.4310	16.3520
 1.4320	16.3000
 1.4330	16.2520
 1.4340	16.2110
 1.4350	16.1730
 1.4360	16.1420
 1.4370	16.1140
 1.4380	16.0900
 1.4390	16.0690
 1.4400	16.0520
 1.4410	16.0400
 1.4420	16.0300
 1.4430	16.0230
 1.4440	16.0190
 1.4450	16.0170
 1.4460	16.0180
 1.4470	16.0210
 1.4480	16.0260
 1.4490	16.0320
 1.4500	16.0410
 1.4510	16.0510
 1.4520	16.0630
 1.4530	16.0770
 1.4540	16.0930
 1.4550	16.1130
 1.4560	16.1360
 1.4570	16.1600
 1.4580	16.1890
 1.4590	16.2210
 1.4600	16.2550
 1.4610	16.2940
 1.4620	16.3360
 1.4630	16.3850
 1.4640	16.4380
 1.4650	16.4950
 1.4660	16.5570
 1.4670	16.6250
 1.4680	16.6980
 1.4690	16.7750
 1.4700	16.8570
 1.4710	16.9440
 1.4720	17.0330
 1.4730	17.1270
 1.4740	17.2250
 1.4750	17.3260
 1.4760	17.4310
 1.4770	17.5390
