Name: Acer pensylvanicum
Type: Vegetation
Class: Tree
Genus: Acer
Species: pensylvanicum
Sample No.: ACPE-2-69
Owner: UCSB
Wavelength Range: VSWIR
Origin: USA; Massachusetts; Harvard Forest
Collection Date: 7/8/2013
Description: Samples were collected as part of NSF Macrosystem Biology proposal titled: Collaborative Research: Thermal controls on ecosystem metabolism and function: scaling from leaves to canopies to regions. Samples were collected and overnighted to JPL facilities for processing. The same leaves were processed in the Nicolet and then measured using the ASD.
Measurement: Bidirectional reflectance
First Column: X
Second Column: Y
X Units: Wavelength (micrometers)
Y Units: Reflectance (percentage)
First X Value: 0.35
Last X Value: 2.5
Number of X Values: 2151
Additional Information: vegetation.tree.acer.pensylvanicum.vswir.acpe-2-69.ucsb.asd.ancillary.txt

 0.3500	 4.4720
 0.3510	 4.6300
 0.3520	 4.6640
 0.3530	 4.6720
 0.3540	 4.7580
 0.3550	 4.6460
 0.3560	 4.7760
 0.3570	 4.9300
 0.3580	 4.6550
 0.3590	 4.5320
 0.3600	 4.5870
 0.3610	 4.7140
 0.3620	 4.7160
 0.3630	 4.7110
 0.3640	 4.7350
 0.3650	 4.7580
 0.3660	 4.5630
 0.3670	 4.4570
 0.3680	 4.5280
 0.3690	 4.6860
 0.3700	 4.7740
 0.3710	 4.7770
 0.3720	 4.6960
 0.3730	 4.4930
 0.3740	 4.5820
 0.3750	 4.7430
 0.3760	 4.6660
 0.3770	 4.6680
 0.3780	 4.6470
 0.3790	 4.6060
 0.3800	 4.6380
 0.3810	 4.6940
 0.3820	 4.7000
 0.3830	 4.6540
 0.3840	 4.7330
 0.3850	 4.7480
 0.3860	 4.6760
 0.3870	 4.5890
 0.3880	 4.6970
 0.3890	 4.7880
 0.3900	 4.7670
 0.3910	 4.6920
 0.3920	 4.6690
 0.3930	 4.7200
 0.3940	 4.8090
 0.3950	 4.8080
 0.3960	 4.7900
 0.3970	 4.7790
 0.3980	 4.7800
 0.3990	 4.7870
 0.4000	 4.8020
 0.4010	 4.8110
 0.4020	 4.7750
 0.4030	 4.7690
 0.4040	 4.7910
 0.4050	 4.8230
 0.4060	 4.8750
 0.4070	 4.9090
 0.4080	 4.9050
 0.4090	 4.8660
 0.4100	 4.8710
 0.4110	 4.9030
 0.4120	 4.9310
 0.4130	 4.9210
 0.4140	 4.9330
 0.4150	 4.9430
 0.4160	 4.9170
 0.4170	 4.9290
 0.4180	 4.9440
 0.4190	 4.9440
 0.4200	 4.9350
 0.4210	 4.9430
 0.4220	 4.9690
 0.4230	 4.9990
 0.4240	 5.0030
 0.4250	 5.0040
 0.4260	 5.0040
 0.4270	 4.9970
 0.4280	 5.0140
 0.4290	 5.0280
 0.4300	 5.0240
 0.4310	 5.0150
 0.4320	 5.0100
 0.4330	 5.0130
 0.4340	 5.0230
 0.4350	 5.0290
 0.4360	 5.0280
 0.4370	 5.0270
 0.4380	 5.0380
 0.4390	 5.0570
 0.4400	 5.0630
 0.4410	 5.0500
 0.4420	 5.0530
 0.4430	 5.0490
 0.4440	 5.0490
 0.4450	 5.0670
 0.4460	 5.0880
 0.4470	 5.0990
 0.4480	 5.1000
 0.4490	 5.1140
 0.4500	 5.1150
 0.4510	 5.1210
 0.4520	 5.1450
 0.4530	 5.1420
 0.4540	 5.1420
 0.4550	 5.1520
 0.4560	 5.1650
 0.4570	 5.1640
 0.4580	 5.1610
 0.4590	 5.1630
 0.4600	 5.1550
 0.4610	 5.1660
 0.4620	 5.1800
 0.4630	 5.1770
 0.4640	 5.1660
 0.4650	 5.1580
 0.4660	 5.1590
 0.4670	 5.1730
 0.4680	 5.1740
 0.4690	 5.1720
 0.4700	 5.1760
 0.4710	 5.1780
 0.4720	 5.1770
 0.4730	 5.1760
 0.4740	 5.1810
 0.4750	 5.1810
 0.4760	 5.1750
 0.4770	 5.1690
 0.4780	 5.1750
 0.4790	 5.1760
 0.4800	 5.1780
 0.4810	 5.1870
 0.4820	 5.2000
 0.4830	 5.2030
 0.4840	 5.1980
 0.4850	 5.1940
 0.4860	 5.1990
 0.4870	 5.2150
 0.4880	 5.2330
 0.4890	 5.2260
 0.4900	 5.2390
 0.4910	 5.2630
 0.4920	 5.2700
 0.4930	 5.2780
 0.4940	 5.2910
 0.4950	 5.3120
 0.4960	 5.3410
 0.4970	 5.3580
 0.4980	 5.3780
 0.4990	 5.4200
 0.5000	 5.4480
 0.5010	 5.4820
 0.5020	 5.5270
 0.5030	 5.5780
 0.5040	 5.6310
 0.5050	 5.6870
 0.5060	 5.7530
 0.5070	 5.8370
 0.5080	 5.9260
 0.5090	 6.0270
 0.5100	 6.1520
 0.5110	 6.2640
 0.5120	 6.3970
 0.5130	 6.5640
 0.5140	 6.7470
 0.5150	 6.9320
 0.5160	 7.1320
 0.5170	 7.3590
 0.5180	 7.5820
 0.5190	 7.8240
 0.5200	 8.0840
 0.5210	 8.3450
 0.5220	 8.6080
 0.5230	 8.8760
 0.5240	 9.1440
 0.5250	 9.3900
 0.5260	 9.6320
 0.5270	 9.8680
 0.5280	10.0850
 0.5290	10.2900
 0.5300	10.4740
 0.5310	10.6350
 0.5320	10.7930
 0.5330	10.9220
 0.5340	11.0340
 0.5350	11.1390
 0.5360	11.2210
 0.5370	11.2950
 0.5380	11.3660
 0.5390	11.4270
 0.5400	11.4740
 0.5410	11.5180
 0.5420	11.5650
 0.5430	11.6070
 0.5440	11.6510
 0.5450	11.6960
 0.5460	11.7350
 0.5470	11.7580
 0.5480	11.7770
 0.5490	11.7950
 0.5500	11.8060
 0.5510	11.8170
 0.5520	11.8200
 0.5530	11.8110
 0.5540	11.7910
 0.5550	11.7490
 0.5560	11.6860
 0.5570	11.6160
 0.5580	11.5320
 0.5590	11.4350
 0.5600	11.3260
 0.5610	11.2040
 0.5620	11.0670
 0.5630	10.9180
 0.5640	10.7620
 0.5650	10.6010
 0.5660	10.4310
 0.5670	10.2540
 0.5680	10.0820
 0.5690	 9.9050
 0.5700	 9.7270
 0.5710	 9.5570
 0.5720	 9.3960
 0.5730	 9.2390
 0.5740	 9.0880
 0.5750	 8.9510
 0.5760	 8.8230
 0.5770	 8.7070
 0.5780	 8.6000
 0.5790	 8.4990
 0.5800	 8.4000
 0.5810	 8.3020
 0.5820	 8.2120
 0.5830	 8.1310
 0.5840	 8.0570
 0.5850	 7.9870
 0.5860	 7.9170
 0.5870	 7.8540
 0.5880	 7.7950
 0.5890	 7.7360
 0.5900	 7.6860
 0.5910	 7.6370
 0.5920	 7.5920
 0.5930	 7.5600
 0.5940	 7.5300
 0.5950	 7.5000
 0.5960	 7.4680
 0.5970	 7.4390
 0.5980	 7.4120
 0.5990	 7.3850
 0.6000	 7.3560
 0.6010	 7.3270
 0.6020	 7.2990
 0.6030	 7.2680
 0.6040	 7.2300
 0.6050	 7.1890
 0.6060	 7.1440
 0.6070	 7.0940
 0.6080	 7.0450
 0.6090	 6.9980
 0.6100	 6.9470
 0.6110	 6.8840
 0.6120	 6.8250
 0.6130	 6.7710
 0.6140	 6.7190
 0.6150	 6.6650
 0.6160	 6.6150
 0.6170	 6.5690
 0.6180	 6.5270
 0.6190	 6.4830
 0.6200	 6.4450
 0.6210	 6.4160
 0.6220	 6.3930
 0.6230	 6.3670
 0.6240	 6.3450
 0.6250	 6.3330
 0.6260	 6.3180
 0.6270	 6.3070
 0.6280	 6.2960
 0.6290	 6.2820
 0.6300	 6.2730
 0.6310	 6.2640
 0.6320	 6.2520
 0.6330	 6.2370
 0.6340	 6.2060
 0.6350	 6.1710
 0.6360	 6.1410
 0.6370	 6.0980
 0.6380	 6.0470
 0.6390	 5.9940
 0.6400	 5.9430
 0.6410	 5.8910
 0.6420	 5.8350
 0.6430	 5.7770
 0.6440	 5.7290
 0.6450	 5.6860
 0.6460	 5.6460
 0.6470	 5.6070
 0.6480	 5.5710
 0.6490	 5.5440
 0.6500	 5.5250
 0.6510	 5.5090
 0.6520	 5.4930
 0.6530	 5.4810
 0.6540	 5.4750
 0.6550	 5.4640
 0.6560	 5.4530
 0.6570	 5.4420
 0.6580	 5.4310
 0.6590	 5.4190
 0.6600	 5.4040
 0.6610	 5.3880
 0.6620	 5.3750
 0.6630	 5.3590
 0.6640	 5.3480
 0.6650	 5.3470
 0.6660	 5.3470
 0.6670	 5.3490
 0.6680	 5.3530
 0.6690	 5.3590
 0.6700	 5.3780
 0.6710	 5.3990
 0.6720	 5.4180
 0.6730	 5.4400
 0.6740	 5.4680
 0.6750	 5.5020
 0.6760	 5.5390
 0.6770	 5.5780
 0.6780	 5.6210
 0.6790	 5.6680
 0.6800	 5.7210
 0.6810	 5.7710
 0.6820	 5.8240
 0.6830	 5.8820
 0.6840	 5.9400
 0.6850	 6.0030
 0.6860	 6.0720
 0.6870	 6.1500
 0.6880	 6.2420
 0.6890	 6.3530
 0.6900	 6.4950
 0.6910	 6.6830
 0.6920	 6.9270
 0.6930	 7.2360
 0.6940	 7.6150
 0.6950	 8.0770
 0.6960	 8.6280
 0.6970	 9.2670
 0.6980	 9.9860
 0.6990	10.7690
 0.7000	11.6110
 0.7010	12.5070
 0.7020	13.4450
 0.7030	14.4010
 0.7040	15.3650
 0.7050	16.3330
 0.7060	17.2930
 0.7070	18.2510
 0.7080	19.1990
 0.7090	20.1260
 0.7100	21.0440
 0.7110	21.9570
 0.7120	22.8630
 0.7130	23.7540
 0.7140	24.6320
 0.7150	25.4940
 0.7160	26.3400
 0.7170	27.1800
 0.7180	27.9960
 0.7190	28.7920
 0.7200	29.5780
 0.7210	30.3430
 0.7220	31.0860
 0.7230	31.8080
 0.7240	32.5080
 0.7250	33.1760
 0.7260	33.8200
 0.7270	34.4450
 0.7280	35.0370
 0.7290	35.6120
 0.7300	36.1640
 0.7310	36.6780
 0.7320	37.1760
 0.7330	37.6420
 0.7340	38.0780
 0.7350	38.5010
 0.7360	38.8830
 0.7370	39.2440
 0.7380	39.5940
 0.7390	39.8970
 0.7400	40.1960
 0.7410	40.4840
 0.7420	40.7310
 0.7430	40.9550
 0.7440	41.1660
 0.7450	41.3660
 0.7460	41.5410
 0.7470	41.6930
 0.7480	41.8260
 0.7490	41.9460
 0.7500	42.0700
 0.7510	42.1670
 0.7520	42.2480
 0.7530	42.3320
 0.7540	42.3960
 0.7550	42.4580
 0.7560	42.5220
 0.7570	42.5790
 0.7580	42.6130
 0.7590	42.6440
 0.7600	42.6780
 0.7610	42.6970
 0.7620	42.7210
 0.7630	42.7490
 0.7640	42.7740
 0.7650	42.7820
 0.7660	42.7790
 0.7670	42.7800
 0.7680	42.7980
 0.7690	42.7930
 0.7700	42.7910
 0.7710	42.8020
 0.7720	42.8100
 0.7730	42.8010
 0.7740	42.7980
 0.7750	42.8160
 0.7760	42.8210
 0.7770	42.8160
 0.7780	42.8040
 0.7790	42.7920
 0.7800	42.8020
 0.7810	42.8150
 0.7820	42.8200
 0.7830	42.8160
 0.7840	42.8110
 0.7850	42.8080
 0.7860	42.8100
 0.7870	42.8210
 0.7880	42.8280
 0.7890	42.8290
 0.7900	42.8270
 0.7910	42.8240
 0.7920	42.8250
 0.7930	42.8290
 0.7940	42.8250
 0.7950	42.8310
 0.7960	42.8390
 0.7970	42.8380
 0.7980	42.8230
 0.7990	42.8250
 0.8000	42.8320
 0.8010	42.8320
 0.8020	42.8310
 0.8030	42.8290
 0.8040	42.8230
 0.8050	42.8120
 0.8060	42.7990
 0.8070	42.8000
 0.8080	42.8080
 0.8090	42.7950
 0.8100	42.7970
 0.8110	42.7990
 0.8120	42.7880
 0.8130	42.7560
 0.8140	42.7500
 0.8150	42.7620
 0.8160	42.7700
 0.8170	42.7600
 0.8180	42.7450
 0.8190	42.7330
 0.8200	42.7230
 0.8210	42.7270
 0.8220	42.7250
 0.8230	42.7150
 0.8240	42.7080
 0.8250	42.6970
 0.8260	42.6950
 0.8270	42.6970
 0.8280	42.6770
 0.8290	42.6800
 0.8300	42.6830
 0.8310	42.6610
 0.8320	42.6360
 0.8330	42.6360
 0.8340	42.6480
 0.8350	42.6430
 0.8360	42.6340
 0.8370	42.6300
 0.8380	42.6310
 0.8390	42.6300
 0.8400	42.6210
 0.8410	42.6140
 0.8420	42.6090
 0.8430	42.5980
 0.8440	42.5930
 0.8450	42.5920
 0.8460	42.5910
 0.8470	42.5900
 0.8480	42.5970
 0.8490	42.6020
 0.8500	42.5930
 0.8510	42.5840
 0.8520	42.5740
 0.8530	42.5750
 0.8540	42.5950
 0.8550	42.5930
 0.8560	42.5880
 0.8570	42.5870
 0.8580	42.5820
 0.8590	42.5850
 0.8600	42.5870
 0.8610	42.5850
 0.8620	42.5860
 0.8630	42.5770
 0.8640	42.5690
 0.8650	42.5720
 0.8660	42.5880
 0.8670	42.5890
 0.8680	42.5870
 0.8690	42.6010
 0.8700	42.6010
 0.8710	42.5990
 0.8720	42.5990
 0.8730	42.5980
 0.8740	42.6030
 0.8750	42.6120
 0.8760	42.6200
 0.8770	42.6160
 0.8780	42.6190
 0.8790	42.6250
 0.8800	42.6250
 0.8810	42.6100
 0.8820	42.6090
 0.8830	42.6240
 0.8840	42.6400
 0.8850	42.6140
 0.8860	42.6250
 0.8870	42.6460
 0.8880	42.6390
 0.8890	42.6480
 0.8900	42.6440
 0.8910	42.6380
 0.8920	42.6520
 0.8930	42.6570
 0.8940	42.6660
 0.8950	42.6740
 0.8960	42.6670
 0.8970	42.6550
 0.8980	42.6530
 0.8990	42.6640
 0.9000	42.6810
 0.9010	42.6690
 0.9020	42.6740
 0.9030	42.7000
 0.9040	42.6950
 0.9050	42.6820
 0.9060	42.6790
 0.9070	42.6910
 0.9080	42.7050
 0.9090	42.7080
 0.9100	42.7030
 0.9110	42.6980
 0.9120	42.7060
 0.9130	42.7210
 0.9140	42.7240
 0.9150	42.7060
 0.9160	42.7140
 0.9170	42.7070
 0.9180	42.6970
 0.9190	42.7080
 0.9200	42.7260
 0.9210	42.7200
 0.9220	42.7090
 0.9230	42.7230
 0.9240	42.7290
 0.9250	42.7130
 0.9260	42.6900
 0.9270	42.6840
 0.9280	42.6880
 0.9290	42.6960
 0.9300	42.6960
 0.9310	42.6720
 0.9320	42.6490
 0.9330	42.6480
 0.9340	42.6570
 0.9350	42.6350
 0.9360	42.6370
 0.9370	42.6360
 0.9380	42.6200
 0.9390	42.6120
 0.9400	42.5910
 0.9410	42.5900
 0.9420	42.6070
 0.9430	42.5740
 0.9440	42.5670
 0.9450	42.5650
 0.9460	42.5440
 0.9470	42.5220
 0.9480	42.5050
 0.9490	42.4850
 0.9500	42.4560
 0.9510	42.4320
 0.9520	42.4100
 0.9530	42.3750
 0.9540	42.3260
 0.9550	42.3210
 0.9560	42.3130
 0.9570	42.2900
 0.9580	42.2590
 0.9590	42.2370
 0.9600	42.2100
 0.9610	42.1830
 0.9620	42.1670
 0.9630	42.1600
 0.9640	42.1450
 0.9650	42.1370
 0.9660	42.1500
 0.9670	42.1300
 0.9680	42.1080
 0.9690	42.0920
 0.9700	42.0820
 0.9710	42.0960
 0.9720	42.0860
 0.9730	42.0690
 0.9740	42.0810
 0.9750	42.0870
 0.9760	42.0990
 0.9770	42.0950
 0.9780	42.0570
 0.9790	42.0540
 0.9800	42.0630
 0.9810	42.0590
 0.9820	42.0280
 0.9830	42.0200
 0.9840	42.0060
 0.9850	42.0090
 0.9860	42.0550
 0.9870	42.0750
 0.9880	42.0770
 0.9890	42.0650
 0.9900	42.0440
 0.9910	42.0370
 0.9920	42.0410
 0.9930	42.0450
 0.9940	42.0500
 0.9950	42.0540
 0.9960	42.0580
 0.9970	42.0620
 0.9980	42.0670
 0.9990	42.0710
 1.0000	42.0750
 1.0010	42.0790
 1.0020	42.0840
 1.0030	42.0880
 1.0040	42.0920
 1.0050	42.0960
 1.0060	42.1010
 1.0070	42.1050
 1.0080	42.1090
 1.0090	42.1130
 1.0100	42.1130
 1.0110	42.1250
 1.0120	42.1350
 1.0130	42.1480
 1.0140	42.1550
 1.0150	42.1610
 1.0160	42.1620
 1.0170	42.1590
 1.0180	42.1640
 1.0190	42.1670
 1.0200	42.1690
 1.0210	42.1750
 1.0220	42.1790
 1.0230	42.1830
 1.0240	42.1880
 1.0250	42.1950
 1.0260	42.2010
 1.0270	42.2080
 1.0280	42.2180
 1.0290	42.2270
 1.0300	42.2410
 1.0310	42.2480
 1.0320	42.2500
 1.0330	42.2560
 1.0340	42.2570
 1.0350	42.2540
 1.0360	42.2600
 1.0370	42.2600
 1.0380	42.2640
 1.0390	42.2650
 1.0400	42.2720
 1.0410	42.2860
 1.0420	42.2930
 1.0430	42.3020
 1.0440	42.3070
 1.0450	42.3050
 1.0460	42.3070
 1.0470	42.3110
 1.0480	42.3140
 1.0490	42.3150
 1.0500	42.3170
 1.0510	42.3160
 1.0520	42.3190
 1.0530	42.3210
 1.0540	42.3230
 1.0550	42.3270
 1.0560	42.3330
 1.0570	42.3380
 1.0580	42.3450
 1.0590	42.3510
 1.0600	42.3570
 1.0610	42.3620
 1.0620	42.3660
 1.0630	42.3700
 1.0640	42.3710
 1.0650	42.3720
 1.0660	42.3730
 1.0670	42.3730
 1.0680	42.3720
 1.0690	42.3680
 1.0700	42.3700
 1.0710	42.3740
 1.0720	42.3760
 1.0730	42.3790
 1.0740	42.3800
 1.0750	42.3750
 1.0760	42.3730
 1.0770	42.3730
 1.0780	42.3710
 1.0790	42.3670
 1.0800	42.3650
 1.0810	42.3630
 1.0820	42.3640
 1.0830	42.3720
 1.0840	42.3730
 1.0850	42.3760
 1.0860	42.3730
 1.0870	42.3680
 1.0880	42.3570
 1.0890	42.3500
 1.0900	42.3420
 1.0910	42.3350
 1.0920	42.3270
 1.0930	42.3220
 1.0940	42.3160
 1.0950	42.3120
 1.0960	42.3110
 1.0970	42.3090
 1.0980	42.3050
 1.0990	42.3030
 1.1000	42.3030
 1.1010	42.3000
 1.1020	42.2940
 1.1030	42.2870
 1.1040	42.2810
 1.1050	42.2720
 1.1060	42.2640
 1.1070	42.2560
 1.1080	42.2480
 1.1090	42.2390
 1.1100	42.2310
 1.1110	42.2260
 1.1120	42.2170
 1.1130	42.2070
 1.1140	42.1970
 1.1150	42.1830
 1.1160	42.1740
 1.1170	42.1670
 1.1180	42.1580
 1.1190	42.1500
 1.1200	42.1450
 1.1210	42.1360
 1.1220	42.1260
 1.1230	42.1120
 1.1240	42.0940
 1.1250	42.0750
 1.1260	42.0510
 1.1270	42.0250
 1.1280	41.9950
 1.1290	41.9670
 1.1300	41.9370
 1.1310	41.9050
 1.1320	41.8720
 1.1330	41.8360
 1.1340	41.7980
 1.1350	41.7540
 1.1360	41.7050
 1.1370	41.6570
 1.1380	41.6010
 1.1390	41.5430
 1.1400	41.4870
 1.1410	41.4290
 1.1420	41.3650
 1.1430	41.3020
 1.1440	41.2450
 1.1450	41.1880
 1.1460	41.1320
 1.1470	41.0790
 1.1480	41.0270
 1.1490	40.9710
 1.1500	40.9230
 1.1510	40.8830
 1.1520	40.8420
 1.1530	40.8020
 1.1540	40.7660
 1.1550	40.7340
 1.1560	40.7050
 1.1570	40.6770
 1.1580	40.6560
 1.1590	40.6330
 1.1600	40.6110
 1.1610	40.5940
 1.1620	40.5810
 1.1630	40.5700
 1.1640	40.5580
 1.1650	40.5490
 1.1660	40.5400
 1.1670	40.5330
 1.1680	40.5310
 1.1690	40.5280
 1.1700	40.5280
 1.1710	40.5240
 1.1720	40.5190
 1.1730	40.5150
 1.1740	40.5070
 1.1750	40.5020
 1.1760	40.5010
 1.1770	40.4960
 1.1780	40.4890
 1.1790	40.4850
 1.1800	40.4790
 1.1810	40.4750
 1.1820	40.4700
 1.1830	40.4640
 1.1840	40.4580
 1.1850	40.4480
 1.1860	40.4400
 1.1870	40.4350
 1.1880	40.4300
 1.1890	40.4260
 1.1900	40.4220
 1.1910	40.4210
 1.1920	40.4170
 1.1930	40.4110
 1.1940	40.4070
 1.1950	40.4010
 1.1960	40.4010
 1.1970	40.4000
 1.1980	40.4000
 1.1990	40.4020
 1.2000	40.4000
 1.2010	40.4030
 1.2020	40.4080
 1.2030	40.4110
 1.2040	40.4140
 1.2050	40.4150
 1.2060	40.4170
 1.2070	40.4180
 1.2080	40.4210
 1.2090	40.4250
 1.2100	40.4290
 1.2110	40.4350
 1.2120	40.4460
 1.2130	40.4540
 1.2140	40.4620
 1.2150	40.4700
 1.2160	40.4750
 1.2170	40.4820
 1.2180	40.4930
 1.2190	40.5010
 1.2200	40.5080
 1.2210	40.5160
 1.2220	40.5220
 1.2230	40.5320
 1.2240	40.5440
 1.2250	40.5520
 1.2260	40.5620
 1.2270	40.5700
 1.2280	40.5760
 1.2290	40.5870
 1.2300	40.5950
 1.2310	40.6020
 1.2320	40.6080
 1.2330	40.6120
 1.2340	40.6180
 1.2350	40.6250
 1.2360	40.6320
 1.2370	40.6410
 1.2380	40.6490
 1.2390	40.6520
 1.2400	40.6550
 1.2410	40.6590
 1.2420	40.6610
 1.2430	40.6650
 1.2440	40.6690
 1.2450	40.6730
 1.2460	40.6760
 1.2470	40.6800
 1.2480	40.6850
 1.2490	40.6880
 1.2500	40.6930
 1.2510	40.7020
 1.2520	40.7060
 1.2530	40.7100
 1.2540	40.7160
 1.2550	40.7150
 1.2560	40.7170
 1.2570	40.7210
 1.2580	40.7170
 1.2590	40.7160
 1.2600	40.7160
 1.2610	40.7140
 1.2620	40.7100
 1.2630	40.7100
 1.2640	40.7090
 1.2650	40.7030
 1.2660	40.6990
 1.2670	40.6930
 1.2680	40.6860
 1.2690	40.6830
 1.2700	40.6750
 1.2710	40.6680
 1.2720	40.6640
 1.2730	40.6580
 1.2740	40.6540
 1.2750	40.6530
 1.2760	40.6460
 1.2770	40.6380
 1.2780	40.6310
 1.2790	40.6200
 1.2800	40.6120
 1.2810	40.6060
 1.2820	40.5950
 1.2830	40.5880
 1.2840	40.5820
 1.2850	40.5730
 1.2860	40.5650
 1.2870	40.5560
 1.2880	40.5450
 1.2890	40.5330
 1.2900	40.5240
 1.2910	40.5130
 1.2920	40.5030
 1.2930	40.4930
 1.2940	40.4780
 1.2950	40.4610
 1.2960	40.4420
 1.2970	40.4210
 1.2980	40.4010
 1.2990	40.3790
 1.3000	40.3600
 1.3010	40.3400
 1.3020	40.3180
 1.3030	40.2930
 1.3040	40.2630
 1.3050	40.2320
 1.3060	40.1990
 1.3070	40.1650
 1.3080	40.1330
 1.3090	40.0990
 1.3100	40.0640
 1.3110	40.0320
 1.3120	39.9950
 1.3130	39.9550
 1.3140	39.9130
 1.3150	39.8690
 1.3160	39.8210
 1.3170	39.7690
 1.3180	39.7200
 1.3190	39.6680
 1.3200	39.6140
 1.3210	39.5620
 1.3220	39.5060
 1.3230	39.4480
 1.3240	39.3920
 1.3250	39.3350
 1.3260	39.2790
 1.3270	39.2240
 1.3280	39.1620
 1.3290	39.1000
 1.3300	39.0380
 1.3310	38.9710
 1.3320	38.9060
 1.3330	38.8420
 1.3340	38.7790
 1.3350	38.7140
 1.3360	38.6460
 1.3370	38.5760
 1.3380	38.5040
 1.3390	38.4330
 1.3400	38.3640
 1.3410	38.2950
 1.3420	38.2260
 1.3430	38.1550
 1.3440	38.0830
 1.3450	38.0130
 1.3460	37.9430
 1.3470	37.8750
 1.3480	37.8100
 1.3490	37.7450
 1.3500	37.6820
 1.3510	37.6150
 1.3520	37.5500
 1.3530	37.4830
 1.3540	37.4140
 1.3550	37.3480
 1.3560	37.2810
 1.3570	37.2140
 1.3580	37.1490
 1.3590	37.0810
 1.3600	37.0100
 1.3610	36.9350
 1.3620	36.8580
 1.3630	36.7810
 1.3640	36.7010
 1.3650	36.6200
 1.3660	36.5350
 1.3670	36.4430
 1.3680	36.3450
 1.3690	36.2400
 1.3700	36.1270
 1.3710	36.0050
 1.3720	35.8740
 1.3730	35.7320
 1.3740	35.5810
 1.3750	35.4200
 1.3760	35.2460
 1.3770	35.0580
 1.3780	34.8560
 1.3790	34.6390
 1.3800	34.4080
 1.3810	34.1610
 1.3820	33.8990
 1.3830	33.6230
 1.3840	33.3320
 1.3850	33.0260
 1.3860	32.7090
 1.3870	32.3770
 1.3880	32.0390
 1.3890	31.6910
 1.3900	31.3330
 1.3910	30.9690
 1.3920	30.5950
 1.3930	30.2120
 1.3940	29.8260
 1.3950	29.4330
 1.3960	29.0410
 1.3970	28.6530
 1.3980	28.2650
 1.3990	27.8890
 1.4000	27.5190
 1.4010	27.1550
 1.4020	26.8040
 1.4030	26.4590
 1.4040	26.1240
 1.4050	25.8060
 1.4060	25.5010
 1.4070	25.2150
 1.4080	24.9440
 1.4090	24.6830
 1.4100	24.4370
 1.4110	24.2030
 1.4120	23.9840
 1.4130	23.7810
 1.4140	23.5930
 1.4150	23.4200
 1.4160	23.2580
 1.4170	23.1080
 1.4180	22.9690
 1.4190	22.8390
 1.4200	22.7200
 1.4210	22.6140
 1.4220	22.5160
 1.4230	22.4280
 1.4240	22.3490
 1.4250	22.2750
 1.4260	22.2090
 1.4270	22.1490
 1.4280	22.0960
 1.4290	22.0490
 1.4300	22.0060
 1.4310	21.9700
 1.4320	21.9420
 1.4330	21.9170
 1.4340	21.8990
 1.4350	21.8830
 1.4360	21.8690
 1.4370	21.8590
 1.4380	21.8540
 1.4390	21.8520
 1.4400	21.8530
 1.4410	21.8570
 1.4420	21.8630
 1.4430	21.8710
 1.4440	21.8810
 1.4450	21.8940
 1.4460	21.9070
 1.4470	21.9230
 1.4480	21.9420
 1.4490	21.9610
 1.4500	21.9810
 1.4510	22.0010
 1.4520	22.0210
 1.4530	22.0430
 1.4540	22.0690
 1.4550	22.0970
 1.4560	22.1270
 1.4570	22.1600
 1.4580	22.1940
 1.4590	22.2280
 1.4600	22.2680
 1.4610	22.3140
 1.4620	22.3630
 1.4630	22.4170
 1.4640	22.4760
 1.4650	22.5390
 1.4660	22.6060
 1.4670	22.6800
 1.4680	22.7580
 1.4690	22.8400
 1.4700	22.9240
 1.4710	23.0120
 1.4720	23.1040
