Name: Quercus ilex
Type: vegetation
Class: Tree
Genus: Quercus
Species: ilex
Sample No.: JPL232
Owner: JPL
Wavelength Range: VSWIR
Origin: 34.12768; -118.1133; WGS84
Collection Date: 10/3/2016
Description: Samples were collected at the Huntington Garden in San Marino California as part of a JPL Subcontract studying HyTES imagery. Samples were taken to JPL and processed within 48 hours of collection. The same leaves were processed in the Nicolet and then measured using the ASD.
Measurement: Bidirectional reflectance
First Column: X
Second Column: Y
X Units: Wavelength (micrometer)
Y Units: Reflectance (percentage)
First X Value: 0.35
Last X Value: 2.5
Number of X Values: 2151
Additional Information: vegetation.tree.quercus.ilex.vswir.jpl232.jpl.asd.ancillary.txt

 0.3500	 8.8560
 0.3510	 8.7930
 0.3520	 8.7970
 0.3530	 8.7690
 0.3540	 8.6740
 0.3550	 8.6830
 0.3560	 8.6880
 0.3570	 8.6850
 0.3580	 8.7150
 0.3590	 8.7180
 0.3600	 8.6740
 0.3610	 8.6020
 0.3620	 8.5680
 0.3630	 8.5380
 0.3640	 8.5370
 0.3650	 8.5790
 0.3660	 8.6080
 0.3670	 8.6050
 0.3680	 8.6000
 0.3690	 8.6430
 0.3700	 8.5660
 0.3710	 8.5000
 0.3720	 8.5090
 0.3730	 8.4630
 0.3740	 8.4410
 0.3750	 8.4450
 0.3760	 8.4510
 0.3770	 8.4190
 0.3780	 8.3880
 0.3790	 8.3990
 0.3800	 8.4820
 0.3810	 8.5120
 0.3820	 8.4910
 0.3830	 8.4480
 0.3840	 8.4130
 0.3850	 8.4360
 0.3860	 8.4610
 0.3870	 8.4180
 0.3880	 8.4230
 0.3890	 8.4210
 0.3900	 8.4000
 0.3910	 8.4010
 0.3920	 8.4250
 0.3930	 8.4350
 0.3940	 8.4120
 0.3950	 8.4000
 0.3960	 8.3880
 0.3970	 8.3880
 0.3980	 8.4110
 0.3990	 8.4110
 0.4000	 8.3820
 0.4010	 8.3500
 0.4020	 8.3760
 0.4030	 8.4070
 0.4040	 8.4230
 0.4050	 8.4200
 0.4060	 8.4270
 0.4070	 8.4480
 0.4080	 8.4740
 0.4090	 8.4810
 0.4100	 8.4850
 0.4110	 8.5070
 0.4120	 8.5510
 0.4130	 8.5850
 0.4140	 8.6000
 0.4150	 8.6020
 0.4160	 8.6060
 0.4170	 8.6270
 0.4180	 8.6370
 0.4190	 8.6360
 0.4200	 8.6520
 0.4210	 8.6590
 0.4220	 8.6660
 0.4230	 8.6820
 0.4240	 8.7030
 0.4250	 8.7150
 0.4260	 8.7180
 0.4270	 8.7200
 0.4280	 8.7330
 0.4290	 8.7290
 0.4300	 8.7040
 0.4310	 8.7010
 0.4320	 8.6880
 0.4330	 8.6700
 0.4340	 8.6580
 0.4350	 8.6590
 0.4360	 8.6580
 0.4370	 8.6640
 0.4380	 8.6950
 0.4390	 8.7180
 0.4400	 8.7370
 0.4410	 8.7590
 0.4420	 8.7850
 0.4430	 8.8000
 0.4440	 8.8090
 0.4450	 8.8240
 0.4460	 8.8280
 0.4470	 8.8330
 0.4480	 8.8430
 0.4490	 8.8520
 0.4500	 8.8600
 0.4510	 8.8660
 0.4520	 8.8690
 0.4530	 8.8790
 0.4540	 8.8850
 0.4550	 8.8890
 0.4560	 8.8960
 0.4570	 8.9060
 0.4580	 8.9130
 0.4590	 8.9150
 0.4600	 8.9160
 0.4610	 8.9180
 0.4620	 8.9220
 0.4630	 8.9300
 0.4640	 8.9270
 0.4650	 8.9260
 0.4660	 8.9290
 0.4670	 8.9320
 0.4680	 8.9360
 0.4690	 8.9410
 0.4700	 8.9460
 0.4710	 8.9380
 0.4720	 8.9420
 0.4730	 8.9540
 0.4740	 8.9570
 0.4750	 8.9570
 0.4760	 8.9570
 0.4770	 8.9570
 0.4780	 8.9620
 0.4790	 8.9630
 0.4800	 8.9620
 0.4810	 8.9610
 0.4820	 8.9510
 0.4830	 8.9420
 0.4840	 8.9370
 0.4850	 8.9320
 0.4860	 8.9330
 0.4870	 8.9350
 0.4880	 8.9350
 0.4890	 8.9390
 0.4900	 8.9450
 0.4910	 8.9550
 0.4920	 8.9700
 0.4930	 8.9830
 0.4940	 8.9980
 0.4950	 9.0130
 0.4960	 9.0240
 0.4970	 9.0380
 0.4980	 9.0550
 0.4990	 9.0730
 0.5000	 9.0950
 0.5010	 9.1150
 0.5020	 9.1320
 0.5030	 9.1510
 0.5040	 9.1680
 0.5050	 9.1890
 0.5060	 9.2130
 0.5070	 9.2390
 0.5080	 9.2640
 0.5090	 9.2900
 0.5100	 9.3200
 0.5110	 9.3500
 0.5120	 9.3850
 0.5130	 9.4250
 0.5140	 9.4700
 0.5150	 9.5150
 0.5160	 9.5640
 0.5170	 9.6180
 0.5180	 9.6720
 0.5190	 9.7290
 0.5200	 9.7940
 0.5210	 9.8630
 0.5220	 9.9310
 0.5230	 9.9990
 0.5240	10.0670
 0.5250	10.1350
 0.5260	10.2000
 0.5270	10.2640
 0.5280	10.3290
 0.5290	10.3940
 0.5300	10.4490
 0.5310	10.4950
 0.5320	10.5420
 0.5330	10.5850
 0.5340	10.6240
 0.5350	10.6590
 0.5360	10.6900
 0.5370	10.7080
 0.5380	10.7150
 0.5390	10.7190
 0.5400	10.7010
 0.5410	10.6640
 0.5420	10.6220
 0.5430	10.5950
 0.5440	10.5950
 0.5450	10.6230
 0.5460	10.6720
 0.5470	10.7340
 0.5480	10.7900
 0.5490	10.8280
 0.5500	10.8500
 0.5510	10.8680
 0.5520	10.8820
 0.5530	10.8920
 0.5540	10.9010
 0.5550	10.9060
 0.5560	10.9020
 0.5570	10.8880
 0.5580	10.8670
 0.5590	10.8430
 0.5600	10.8140
 0.5610	10.7780
 0.5620	10.7390
 0.5630	10.6990
 0.5640	10.6520
 0.5650	10.6060
 0.5660	10.5570
 0.5670	10.5060
 0.5680	10.4540
 0.5690	10.4000
 0.5700	10.3470
 0.5710	10.2980
 0.5720	10.2530
 0.5730	10.2150
 0.5740	10.1860
 0.5750	10.1650
 0.5760	10.1470
 0.5770	10.1280
 0.5780	10.1060
 0.5790	10.0820
 0.5800	10.0570
 0.5810	10.0310
 0.5820	10.0050
 0.5830	 9.9720
 0.5840	 9.9430
 0.5850	 9.9220
 0.5860	 9.8990
 0.5870	 9.8740
 0.5880	 9.8530
 0.5890	 9.8410
 0.5900	 9.8430
 0.5910	 9.8520
 0.5920	 9.8600
 0.5930	 9.8590
 0.5940	 9.8580
 0.5950	 9.8640
 0.5960	 9.8730
 0.5970	 9.8740
 0.5980	 9.8700
 0.5990	 9.8650
 0.6000	 9.8640
 0.6010	 9.8620
 0.6020	 9.8580
 0.6030	 9.8540
 0.6040	 9.8470
 0.6050	 9.8330
 0.6060	 9.8160
 0.6070	 9.7970
 0.6080	 9.7730
 0.6090	 9.7290
 0.6100	 9.6570
 0.6110	 9.5660
 0.6120	 9.5480
 0.6130	 9.5740
 0.6140	 9.6050
 0.6150	 9.6090
 0.6160	 9.6090
 0.6170	 9.6050
 0.6180	 9.5920
 0.6190	 9.5780
 0.6200	 9.5630
 0.6210	 9.5530
 0.6220	 9.5500
 0.6230	 9.5490
 0.6240	 9.5470
 0.6250	 9.5420
 0.6260	 9.5420
 0.6270	 9.5410
 0.6280	 9.5400
 0.6290	 9.5390
 0.6300	 9.5290
 0.6310	 9.5220
 0.6320	 9.5260
 0.6330	 9.5350
 0.6340	 9.5340
 0.6350	 9.5290
 0.6360	 9.5250
 0.6370	 9.5150
 0.6380	 9.5020
 0.6390	 9.4880
 0.6400	 9.4770
 0.6410	 9.4620
 0.6420	 9.4480
 0.6430	 9.4360
 0.6440	 9.4220
 0.6450	 9.4080
 0.6460	 9.3970
 0.6470	 9.3890
 0.6480	 9.3800
 0.6490	 9.3720
 0.6500	 9.3640
 0.6510	 9.3600
 0.6520	 9.3600
 0.6530	 9.3620
 0.6540	 9.3630
 0.6550	 9.3640
 0.6560	 9.3630
 0.6570	 9.3600
 0.6580	 9.3590
 0.6590	 9.3560
 0.6600	 9.3520
 0.6610	 9.3460
 0.6620	 9.3420
 0.6630	 9.3390
 0.6640	 9.3380
 0.6650	 9.3410
 0.6660	 9.3460
 0.6670	 9.3520
 0.6680	 9.3590
 0.6690	 9.3700
 0.6700	 9.3860
 0.6710	 9.4020
 0.6720	 9.4190
 0.6730	 9.4410
 0.6740	 9.4680
 0.6750	 9.4960
 0.6760	 9.5230
 0.6770	 9.5560
 0.6780	 9.5920
 0.6790	 9.6280
 0.6800	 9.6690
 0.6810	 9.7100
 0.6820	 9.7540
 0.6830	 9.8020
 0.6840	 9.8490
 0.6850	 9.8950
 0.6860	 9.9380
 0.6870	 9.9800
 0.6880	10.0220
 0.6890	10.0700
 0.6900	10.1270
 0.6910	10.1960
 0.6920	10.2770
 0.6930	10.3750
 0.6940	10.4950
 0.6950	10.6460
 0.6960	10.8270
 0.6970	11.0400
 0.6980	11.2890
 0.6990	11.5800
 0.7000	11.9110
 0.7010	12.2810
 0.7020	12.6870
 0.7030	13.1280
 0.7040	13.6040
 0.7050	14.1100
 0.7060	14.6430
 0.7070	15.2040
 0.7080	15.7940
 0.7090	16.4170
 0.7100	17.0680
 0.7110	17.7450
 0.7120	18.4480
 0.7130	19.1790
 0.7140	19.9380
 0.7150	20.7240
 0.7160	21.5340
 0.7170	22.3600
 0.7180	23.2060
 0.7190	24.0730
 0.7200	24.9590
 0.7210	25.8600
 0.7220	26.7700
 0.7230	27.6840
 0.7240	28.6000
 0.7250	29.5170
 0.7260	30.4290
 0.7270	31.3320
 0.7280	32.2240
 0.7290	33.1000
 0.7300	33.9580
 0.7310	34.7980
 0.7320	35.6150
 0.7330	36.4090
 0.7340	37.1750
 0.7350	37.9090
 0.7360	38.6180
 0.7370	39.2970
 0.7380	39.9430
 0.7390	40.5600
 0.7400	41.1440
 0.7410	41.6960
 0.7420	42.2160
 0.7430	42.7070
 0.7440	43.1640
 0.7450	43.5890
 0.7460	43.9850
 0.7470	44.3560
 0.7480	44.6970
 0.7490	45.0060
 0.7500	45.2990
 0.7510	45.5650
 0.7520	45.8050
 0.7530	46.0260
 0.7540	46.2320
 0.7550	46.4210
 0.7560	46.5910
 0.7570	46.7440
 0.7580	46.8860
 0.7590	47.0180
 0.7600	47.1370
 0.7610	47.2450
 0.7620	47.3440
 0.7630	47.4340
 0.7640	47.5160
 0.7650	47.5910
 0.7660	47.6580
 0.7670	47.7180
 0.7680	47.7740
 0.7690	47.8250
 0.7700	47.8720
 0.7710	47.9160
 0.7720	47.9600
 0.7730	48.0010
 0.7740	48.0370
 0.7750	48.0700
 0.7760	48.1050
 0.7770	48.1390
 0.7780	48.1700
 0.7790	48.1970
 0.7800	48.2280
 0.7810	48.2580
 0.7820	48.2880
 0.7830	48.3170
 0.7840	48.3440
 0.7850	48.3690
 0.7860	48.3910
 0.7870	48.4150
 0.7880	48.4350
 0.7890	48.4540
 0.7900	48.4770
 0.7910	48.5000
 0.7920	48.5200
 0.7930	48.5370
 0.7940	48.5560
 0.7950	48.5750
 0.7960	48.5920
 0.7970	48.6050
 0.7980	48.6180
 0.7990	48.6310
 0.8000	48.6430
 0.8010	48.6550
 0.8020	48.6680
 0.8030	48.6820
 0.8040	48.6940
 0.8050	48.7070
 0.8060	48.7160
 0.8070	48.7230
 0.8080	48.7320
 0.8090	48.7420
 0.8100	48.7490
 0.8110	48.7540
 0.8120	48.7600
 0.8130	48.7670
 0.8140	48.7760
 0.8150	48.7850
 0.8160	48.7920
 0.8170	48.7960
 0.8180	48.8020
 0.8190	48.8080
 0.8200	48.8140
 0.8210	48.8190
 0.8220	48.8270
 0.8230	48.8350
 0.8240	48.8420
 0.8250	48.8500
 0.8260	48.8550
 0.8270	48.8600
 0.8280	48.8690
 0.8290	48.8780
 0.8300	48.8870
 0.8310	48.8950
 0.8320	48.9060
 0.8330	48.9130
 0.8340	48.9190
 0.8350	48.9270
 0.8360	48.9390
 0.8370	48.9520
 0.8380	48.9640
 0.8390	48.9770
 0.8400	48.9870
 0.8410	49.0000
 0.8420	49.0140
 0.8430	49.0280
 0.8440	49.0410
 0.8450	49.0560
 0.8460	49.0710
 0.8470	49.0840
 0.8480	49.1000
 0.8490	49.1190
 0.8500	49.1340
 0.8510	49.1510
 0.8520	49.1710
 0.8530	49.1870
 0.8540	49.1960
 0.8550	49.2160
 0.8560	49.2350
 0.8570	49.2500
 0.8580	49.2660
 0.8590	49.2870
 0.8600	49.3070
 0.8610	49.3230
 0.8620	49.3440
 0.8630	49.3580
 0.8640	49.3730
 0.8650	49.3950
 0.8660	49.4200
 0.8670	49.4410
 0.8680	49.4590
 0.8690	49.4760
 0.8700	49.4970
 0.8710	49.5180
 0.8720	49.5380
 0.8730	49.5580
 0.8740	49.5750
 0.8750	49.5970
 0.8760	49.6230
 0.8770	49.6360
 0.8780	49.6520
 0.8790	49.6720
 0.8800	49.6950
 0.8810	49.7180
 0.8820	49.7390
 0.8830	49.7580
 0.8840	49.7760
 0.8850	49.7940
 0.8860	49.8120
 0.8870	49.8320
 0.8880	49.8540
 0.8890	49.8730
 0.8900	49.8900
 0.8910	49.9050
 0.8920	49.9200
 0.8930	49.9440
 0.8940	49.9670
 0.8950	49.9830
 0.8960	49.9970
 0.8970	50.0110
 0.8980	50.0290
 0.8990	50.0500
 0.9000	50.0690
 0.9010	50.0860
 0.9020	50.1020
 0.9030	50.1200
 0.9040	50.1430
 0.9050	50.1570
 0.9060	50.1690
 0.9070	50.1850
 0.9080	50.2040
 0.9090	50.2210
 0.9100	50.2350
 0.9110	50.2460
 0.9120	50.2640
 0.9130	50.2780
 0.9140	50.2870
 0.9150	50.2960
 0.9160	50.3130
 0.9170	50.3290
 0.9180	50.3390
 0.9190	50.3430
 0.9200	50.3530
 0.9210	50.3650
 0.9220	50.3780
 0.9230	50.3930
 0.9240	50.3950
 0.9250	50.4030
 0.9260	50.4140
 0.9270	50.4140
 0.9280	50.4030
 0.9290	50.4030
 0.9300	50.4160
 0.9310	50.4190
 0.9320	50.4180
 0.9330	50.4190
 0.9340	50.4200
 0.9350	50.4160
 0.9360	50.4110
 0.9370	50.4070
 0.9380	50.4050
 0.9390	50.4010
 0.9400	50.3960
 0.9410	50.3900
 0.9420	50.3850
 0.9430	50.3840
 0.9440	50.3680
 0.9450	50.3520
 0.9460	50.3450
 0.9470	50.3230
 0.9480	50.3080
 0.9490	50.2910
 0.9500	50.2620
 0.9510	50.2290
 0.9520	50.2010
 0.9530	50.1780
 0.9540	50.1560
 0.9550	50.1290
 0.9560	50.0910
 0.9570	50.0570
 0.9580	50.0390
 0.9590	50.0190
 0.9600	49.9930
 0.9610	49.9660
 0.9620	49.9460
 0.9630	49.9280
 0.9640	49.9020
 0.9650	49.8810
 0.9660	49.8760
 0.9670	49.8720
 0.9680	49.8670
 0.9690	49.8580
 0.9700	49.8460
 0.9710	49.8440
 0.9720	49.8440
 0.9730	49.8400
 0.9740	49.8310
 0.9750	49.8310
 0.9760	49.8370
 0.9770	49.8410
 0.9780	49.8370
 0.9790	49.8480
 0.9800	49.8570
 0.9810	49.8570
 0.9820	49.8520
 0.9830	49.8660
 0.9840	49.8830
 0.9850	49.8930
 0.9860	49.8990
 0.9870	49.9260
 0.9880	49.9370
 0.9890	49.9430
 0.9900	49.9680
 0.9910	49.9770
 0.9920	49.9880
 0.9930	50.0060
 0.9940	50.0220
 0.9950	50.0330
 0.9960	50.0510
 0.9970	50.0730
 0.9980	50.0920
 0.9990	50.1160
 1.0000	50.1290
 1.0010	51.2950
 1.0020	51.3130
 1.0030	51.3290
 1.0040	51.3440
 1.0050	51.3610
 1.0060	51.3770
 1.0070	51.3960
 1.0080	51.4140
 1.0090	51.4320
 1.0100	51.4500
 1.0110	51.4680
 1.0120	51.4860
 1.0130	51.5030
 1.0140	51.5210
 1.0150	51.5370
 1.0160	51.5600
 1.0170	51.5800
 1.0180	51.5990
 1.0190	51.6190
 1.0200	51.6360
 1.0210	51.6560
 1.0220	51.6800
 1.0230	51.6990
 1.0240	51.7180
 1.0250	51.7370
 1.0260	51.7540
 1.0270	51.7720
 1.0280	51.7930
 1.0290	51.8130
 1.0300	51.8290
 1.0310	51.8480
 1.0320	51.8700
 1.0330	51.8900
 1.0340	51.9070
 1.0350	51.9260
 1.0360	51.9400
 1.0370	51.9540
 1.0380	51.9680
 1.0390	51.9810
 1.0400	51.9970
 1.0410	52.0130
 1.0420	52.0280
 1.0430	52.0450
 1.0440	52.0600
 1.0450	52.0720
 1.0460	52.0850
 1.0470	52.0960
 1.0480	52.1090
 1.0490	52.1250
 1.0500	52.1390
 1.0510	52.1540
 1.0520	52.1680
 1.0530	52.1810
 1.0540	52.1890
 1.0550	52.2020
 1.0560	52.2180
 1.0570	52.2290
 1.0580	52.2390
 1.0590	52.2490
 1.0600	52.2540
 1.0610	52.2620
 1.0620	52.2720
 1.0630	52.2820
 1.0640	52.2930
 1.0650	52.3010
 1.0660	52.3080
 1.0670	52.3160
 1.0680	52.3240
 1.0690	52.3300
 1.0700	52.3370
 1.0710	52.3480
 1.0720	52.3560
 1.0730	52.3590
 1.0740	52.3670
 1.0750	52.3760
 1.0760	52.3850
 1.0770	52.3950
 1.0780	52.4040
 1.0790	52.4100
 1.0800	52.4160
 1.0810	52.4230
 1.0820	52.4290
 1.0830	52.4340
 1.0840	52.4410
 1.0850	52.4480
 1.0860	52.4560
 1.0870	52.4620
 1.0880	52.4660
 1.0890	52.4720
 1.0900	52.4770
 1.0910	52.4840
 1.0920	52.4970
 1.0930	52.5030
 1.0940	52.5070
 1.0950	52.5100
 1.0960	52.5090
 1.0970	52.5120
 1.0980	52.5180
 1.0990	52.5220
 1.1000	52.5280
 1.1010	52.5330
 1.1020	52.5370
 1.1030	52.5390
 1.1040	52.5440
 1.1050	52.5490
 1.1060	52.5510
 1.1070	52.5540
 1.1080	52.5560
 1.1090	52.5570
 1.1100	52.5580
 1.1110	52.5620
 1.1120	52.5620
 1.1130	52.5620
 1.1140	52.5600
 1.1150	52.5570
 1.1160	52.5520
 1.1170	52.5440
 1.1180	52.5360
 1.1190	52.5260
 1.1200	52.5170
 1.1210	52.5070
 1.1220	52.4960
 1.1230	52.4820
 1.1240	52.4630
 1.1250	52.4410
 1.1260	52.4140
 1.1270	52.3850
 1.1280	52.3530
 1.1290	52.3160
 1.1300	52.2760
 1.1310	52.2300
 1.1320	52.1780
 1.1330	52.1230
 1.1340	52.0640
 1.1350	52.0000
 1.1360	51.9330
 1.1370	51.8610
 1.1380	51.7840
 1.1390	51.7020
 1.1400	51.6170
 1.1410	51.5300
 1.1420	51.4400
 1.1430	51.3470
 1.1440	51.2530
 1.1450	51.1520
 1.1460	51.0590
 1.1470	50.9660
 1.1480	50.8760
 1.1490	50.7880
 1.1500	50.7030
 1.1510	50.6180
 1.1520	50.5380
 1.1530	50.4610
 1.1540	50.3910
 1.1550	50.3250
 1.1560	50.2650
 1.1570	50.2120
 1.1580	50.1620
 1.1590	50.1160
 1.1600	50.0760
 1.1610	50.0390
 1.1620	50.0060
 1.1630	49.9750
 1.1640	49.9460
 1.1650	49.9200
 1.1660	49.8980
 1.1670	49.8780
 1.1680	49.8620
 1.1690	49.8460
 1.1700	49.8320
 1.1710	49.8180
 1.1720	49.8070
 1.1730	49.7940
 1.1740	49.7830
 1.1750	49.7720
 1.1760	49.7600
 1.1770	49.7490
 1.1780	49.7360
 1.1790	49.7220
 1.1800	49.7060
 1.1810	49.6880
 1.1820	49.6710
 1.1830	49.6550
 1.1840	49.6380
 1.1850	49.6230
 1.1860	49.6080
 1.1870	49.5950
 1.1880	49.5820
 1.1890	49.5690
 1.1900	49.5590
 1.1910	49.5520
 1.1920	49.5450
 1.1930	49.5370
 1.1940	49.5330
 1.1950	49.5300
 1.1960	49.5290
 1.1970	49.5280
 1.1980	49.5290
 1.1990	49.5280
 1.2000	49.5290
 1.2010	49.5350
 1.2020	49.5440
 1.2030	49.5530
 1.2040	49.5650
 1.2050	49.5780
 1.2060	49.5910
 1.2070	49.6060
 1.2080	49.6200
 1.2090	49.6360
 1.2100	49.6570
 1.2110	49.6800
 1.2120	49.7060
 1.2130	49.7340
 1.2140	49.7640
 1.2150	49.7930
 1.2160	49.8250
 1.2170	49.8610
 1.2180	49.8940
 1.2190	49.9280
 1.2200	49.9650
 1.2210	50.0040
 1.2220	50.0420
 1.2230	50.0800
 1.2240	50.1210
 1.2250	50.1590
 1.2260	50.1980
 1.2270	50.2370
 1.2280	50.2740
 1.2290	50.3080
 1.2300	50.3430
 1.2310	50.3770
 1.2320	50.4090
 1.2330	50.4410
 1.2340	50.4730
 1.2350	50.5040
 1.2360	50.5330
 1.2370	50.5600
 1.2380	50.5880
 1.2390	50.6130
 1.2400	50.6350
 1.2410	50.6610
 1.2420	50.6840
 1.2430	50.7050
 1.2440	50.7290
 1.2450	50.7500
 1.2460	50.7700
 1.2470	50.7930
 1.2480	50.8180
 1.2490	50.8400
 1.2500	50.8600
 1.2510	50.8790
 1.2520	50.8960
 1.2530	50.9130
 1.2540	50.9300
 1.2550	50.9470
 1.2560	50.9620
 1.2570	50.9740
 1.2580	50.9860
 1.2590	50.9970
 1.2600	51.0070
 1.2610	51.0160
 1.2620	51.0250
 1.2630	51.0330
 1.2640	51.0410
 1.2650	51.0480
 1.2660	51.0530
 1.2670	51.0600
 1.2680	51.0650
 1.2690	51.0690
 1.2700	51.0720
 1.2710	51.0770
 1.2720	51.0780
 1.2730	51.0780
 1.2740	51.0790
 1.2750	51.0750
 1.2760	51.0700
 1.2770	51.0670
 1.2780	51.0630
 1.2790	51.0570
 1.2800	51.0500
 1.2810	51.0430
 1.2820	51.0350
 1.2830	51.0250
 1.2840	51.0150
 1.2850	51.0040
 1.2860	50.9910
 1.2870	50.9740
 1.2880	50.9560
 1.2890	50.9360
 1.2900	50.9130
 1.2910	50.8890
 1.2920	50.8640
 1.2930	50.8390
 1.2940	50.8110
 1.2950	50.7830
 1.2960	50.7530
 1.2970	50.7180
 1.2980	50.6830
 1.2990	50.6470
 1.3000	50.6100
 1.3010	50.5730
 1.3020	50.5330
 1.3030	50.4900
 1.3040	50.4440
 1.3050	50.3980
 1.3060	50.3510
 1.3070	50.3030
 1.3080	50.2540
 1.3090	50.2030
 1.3100	50.1480
 1.3110	50.0910
 1.3120	50.0320
 1.3130	49.9690
 1.3140	49.9050
 1.3150	49.8390
 1.3160	49.7720
 1.3170	49.7040
 1.3180	49.6350
 1.3190	49.5620
 1.3200	49.4850
 1.3210	49.4030
 1.3220	49.3210
 1.3230	49.2390
 1.3240	49.1550
 1.3250	49.0700
 1.3260	48.9810
 1.3270	48.8870
 1.3280	48.7910
 1.3290	48.6930
 1.3300	48.5920
 1.3310	48.4900
 1.3320	48.3870
 1.3330	48.2800
 1.3340	48.1730
 1.3350	48.0640
 1.3360	47.9530
 1.3370	47.8420
 1.3380	47.7300
 1.3390	47.6200
 1.3400	47.5070
 1.3410	47.3950
 1.3420	47.2830
 1.3430	47.1700
 1.3440	47.0580
 1.3450	46.9480
 1.3460	46.8380
 1.3470	46.7290
 1.3480	46.6200
 1.3490	46.5130
 1.3500	46.4070
 1.3510	46.3020
 1.3520	46.1980
 1.3530	46.0930
 1.3540	45.9880
 1.3550	45.8820
 1.3560	45.7760
 1.3570	45.6680
 1.3580	45.5590
 1.3590	45.4480
 1.3600	45.3320
 1.3610	45.2130
 1.3620	45.0910
 1.3630	44.9650
 1.3640	44.8360
 1.3650	44.7020
 1.3660	44.5610
 1.3670	44.4150
 1.3680	44.2600
 1.3690	44.0950
 1.3700	43.9200
 1.3710	43.7330
 1.3720	43.5340
 1.3730	43.3190
 1.3740	43.0900
 1.3750	42.8430
 1.3760	42.5740
 1.3770	42.2850
 1.3780	41.9720
 1.3790	41.6370
 1.3800	41.2790
 1.3810	40.8940
 1.3820	40.4890
 1.3830	40.0620
 1.3840	39.6110
 1.3850	39.1380
 1.3860	38.6470
 1.3870	38.1310
 1.3880	37.6060
 1.3890	37.0620
 1.3900	36.5050
 1.3910	35.9440
 1.3920	35.3710
 1.3930	34.7900
 1.3940	34.2070
 1.3950	33.6160
 1.3960	33.0290
 1.3970	32.4480
 1.3980	31.8730
 1.3990	31.3150
 1.4000	30.7670
 1.4010	30.2290
 1.4020	29.7100
 1.4030	29.2020
 1.4040	28.7140
 1.4050	28.2480
 1.4060	27.7990
 1.4070	27.3760
 1.4080	26.9730
 1.4090	26.5870
 1.4100	26.2250
 1.4110	25.8810
 1.4120	25.5580
 1.4130	25.2560
 1.4140	24.9730
 1.4150	24.7110
 1.4160	24.4660
 1.4170	24.2370
 1.4180	24.0270
 1.4190	23.8300
 1.4200	23.6470
 1.4210	23.4790
 1.4220	23.3220
 1.4230	23.1780
 1.4240	23.0470
 1.4250	22.9250
 1.4260	22.8140
 1.4270	22.7110
 1.4280	22.6180
 1.4290	22.5320
 1.4300	22.4560
 1.4310	22.3870
 1.4320	22.3260
 1.4330	22.2710
 1.4340	22.2240
 1.4350	22.1810
 1.4360	22.1430
 1.4370	22.1120
 1.4380	22.0840
 1.4390	22.0600
 1.4400	22.0430
 1.4410	22.0290
 1.4420	22.0190
 1.4430	22.0130
 1.4440	22.0090
 1.4450	22.0080
 1.4460	22.0100
 1.4470	22.0140
 1.4480	22.0200
 1.4490	22.0290
 1.4500	22.0400
 1.4510	22.0520
 1.4520	22.0670
 1.4530	22.0840
 1.4540	22.1020
 1.4550	22.1230
 1.4560	22.1450
 1.4570	22.1700
 1.4580	22.1980
 1.4590	22.2300
 1.4600	22.2650
 1.4610	22.3050
 1.4620	22.3490
 1.4630	22.3960
 1.4640	22.4490
 1.4650	22.5070
 1.4660	22.5710
 1.4670	22.6390
 1.4680	22.7130
 1.4690	22.7910
 1.4700	22.8740
 1.4710	22.9620
 1.4720	23.0540
 1.4730	23.1500
 1.4740	23.2500
 1.4750	23.3520
 1.4760	23.4590
 1.4770	23.5690
 1.4780	23.6820
