Name: Macadamia integrifolia
Type: vegetation
Class: Tree
Genus: Macadamia
Species: integrifolia
Sample No.: JPL165
Owner: JPL
Wavelength Range: VSWIR
Origin: 34.12554; -118.11224; WGS84
Collection Date: 9/14/2016
Description: Samples were collected at the Huntington Garden in San Marino California as part of a JPL Subcontract studying HyTES imagery. Samples were taken to JPL and processed within 48 hours of collection. The same leaves were processed in the Nicolet and then measured using the ASD.
Measurement: Bidirectional reflectance
First Column: X
Second Column: Y
X Units: Wavelength (micrometer)
Y Units: Reflectance (percentage)
First X Value: 0.35
Last X Value: 2.5
Number of X Values: 2151
Additional Information: vegetation.tree.macadamia.integrifolia.vswir.jpl165.jpl.asd.ancillary.txt

 0.3500	11.7050
 0.3510	11.6910
 0.3520	11.6130
 0.3530	11.5580
 0.3540	11.5770
 0.3550	11.5990
 0.3560	11.5540
 0.3570	11.4810
 0.3580	11.4610
 0.3590	11.4390
 0.3600	11.4250
 0.3610	11.4190
 0.3620	11.3880
 0.3630	11.3620
 0.3640	11.3230
 0.3650	11.2680
 0.3660	11.2790
 0.3670	11.3330
 0.3680	11.3530
 0.3690	11.2520
 0.3700	11.2490
 0.3710	11.2910
 0.3720	11.3020
 0.3730	11.2450
 0.3740	11.2220
 0.3750	11.2230
 0.3760	11.2110
 0.3770	11.1980
 0.3780	11.1850
 0.3790	11.1870
 0.3800	11.2300
 0.3810	11.2410
 0.3820	11.2140
 0.3830	11.1740
 0.3840	11.1840
 0.3850	11.1870
 0.3860	11.1550
 0.3870	11.0940
 0.3880	11.1270
 0.3890	11.1810
 0.3900	11.1970
 0.3910	11.1550
 0.3920	11.1240
 0.3930	11.1220
 0.3940	11.1370
 0.3950	11.1230
 0.3960	11.1010
 0.3970	11.0840
 0.3980	11.0770
 0.3990	11.0870
 0.4000	11.0670
 0.4010	11.0160
 0.4020	11.0020
 0.4030	11.0100
 0.4040	11.0140
 0.4050	10.9960
 0.4060	10.9900
 0.4070	10.9970
 0.4080	11.0110
 0.4090	11.0200
 0.4100	11.0340
 0.4110	11.0400
 0.4120	11.0340
 0.4130	11.0370
 0.4140	11.0310
 0.4150	11.0180
 0.4160	11.0080
 0.4170	11.0340
 0.4180	11.0430
 0.4190	11.0250
 0.4200	11.0160
 0.4210	11.0000
 0.4220	11.0020
 0.4230	11.0270
 0.4240	11.0090
 0.4250	10.9940
 0.4260	10.9870
 0.4270	10.9780
 0.4280	10.9800
 0.4290	10.9790
 0.4300	10.9620
 0.4310	10.9210
 0.4320	10.8840
 0.4330	10.8460
 0.4340	10.8010
 0.4350	10.7740
 0.4360	10.7690
 0.4370	10.7870
 0.4380	10.8290
 0.4390	10.8740
 0.4400	10.9180
 0.4410	10.9570
 0.4420	10.9890
 0.4430	11.0040
 0.4440	11.0110
 0.4450	11.0230
 0.4460	11.0210
 0.4470	11.0310
 0.4480	11.0520
 0.4490	11.0470
 0.4500	11.0440
 0.4510	11.0530
 0.4520	11.0710
 0.4530	11.0720
 0.4540	11.0740
 0.4550	11.0850
 0.4560	11.0960
 0.4570	11.0930
 0.4580	11.0940
 0.4590	11.1090
 0.4600	11.1190
 0.4610	11.1220
 0.4620	11.1230
 0.4630	11.1270
 0.4640	11.1340
 0.4650	11.1420
 0.4660	11.1490
 0.4670	11.1520
 0.4680	11.1550
 0.4690	11.1590
 0.4700	11.1640
 0.4710	11.1770
 0.4720	11.1840
 0.4730	11.1860
 0.4740	11.1910
 0.4750	11.1890
 0.4760	11.1910
 0.4770	11.2000
 0.4780	11.2070
 0.4790	11.2060
 0.4800	11.2020
 0.4810	11.2000
 0.4820	11.1920
 0.4830	11.1760
 0.4840	11.1550
 0.4850	11.1400
 0.4860	11.1310
 0.4870	11.1250
 0.4880	11.1200
 0.4890	11.1330
 0.4900	11.1570
 0.4910	11.1860
 0.4920	11.2090
 0.4930	11.2430
 0.4940	11.2800
 0.4950	11.3160
 0.4960	11.3560
 0.4970	11.3990
 0.4980	11.4480
 0.4990	11.5050
 0.5000	11.5710
 0.5010	11.6360
 0.5020	11.7040
 0.5030	11.7850
 0.5040	11.8790
 0.5050	11.9840
 0.5060	12.0990
 0.5070	12.2160
 0.5080	12.3520
 0.5090	12.5090
 0.5100	12.6810
 0.5110	12.8670
 0.5120	13.0720
 0.5130	13.2950
 0.5140	13.5370
 0.5150	13.7930
 0.5160	14.0650
 0.5170	14.3550
 0.5180	14.6560
 0.5190	14.9670
 0.5200	15.2820
 0.5210	15.5940
 0.5220	15.9070
 0.5230	16.2170
 0.5240	16.5180
 0.5250	16.8010
 0.5260	17.0750
 0.5270	17.3360
 0.5280	17.5780
 0.5290	17.7960
 0.5300	17.9960
 0.5310	18.1790
 0.5320	18.3380
 0.5330	18.4830
 0.5340	18.6130
 0.5350	18.7270
 0.5360	18.8140
 0.5370	18.8840
 0.5380	18.9340
 0.5390	18.9550
 0.5400	18.9380
 0.5410	18.8840
 0.5420	18.8120
 0.5430	18.7750
 0.5440	18.7890
 0.5450	18.8580
 0.5460	18.9710
 0.5470	19.1060
 0.5480	19.2310
 0.5490	19.3230
 0.5500	19.3730
 0.5510	19.4090
 0.5520	19.4350
 0.5530	19.4500
 0.5540	19.4510
 0.5550	19.4270
 0.5560	19.3790
 0.5570	19.3090
 0.5580	19.2180
 0.5590	19.1110
 0.5600	18.9940
 0.5610	18.8670
 0.5620	18.7320
 0.5630	18.5890
 0.5640	18.4340
 0.5650	18.2760
 0.5660	18.1070
 0.5670	17.9280
 0.5680	17.7450
 0.5690	17.5570
 0.5700	17.3660
 0.5710	17.1750
 0.5720	16.9930
 0.5730	16.8270
 0.5740	16.6720
 0.5750	16.5200
 0.5760	16.3650
 0.5770	16.2130
 0.5780	16.0700
 0.5790	15.9390
 0.5800	15.8230
 0.5810	15.7170
 0.5820	15.6140
 0.5830	15.5100
 0.5840	15.4120
 0.5850	15.3240
 0.5860	15.2450
 0.5870	15.1700
 0.5880	15.1070
 0.5890	15.0580
 0.5900	15.0100
 0.5910	14.9540
 0.5920	14.8970
 0.5930	14.8500
 0.5940	14.8260
 0.5950	14.8130
 0.5960	14.8000
 0.5970	14.7780
 0.5980	14.7440
 0.5990	14.7070
 0.6000	14.6770
 0.6010	14.6470
 0.6020	14.6150
 0.6030	14.5780
 0.6040	14.5310
 0.6050	14.4750
 0.6060	14.4110
 0.6070	14.3380
 0.6080	14.2650
 0.6090	14.1470
 0.6100	13.9660
 0.6110	13.7460
 0.6120	13.6720
 0.6130	13.6840
 0.6140	13.7060
 0.6150	13.6770
 0.6160	13.6380
 0.6170	13.5940
 0.6180	13.5400
 0.6190	13.4830
 0.6200	13.4260
 0.6210	13.3790
 0.6220	13.3490
 0.6230	13.3270
 0.6240	13.3080
 0.6250	13.2920
 0.6260	13.2840
 0.6270	13.2790
 0.6280	13.2710
 0.6290	13.2570
 0.6300	13.2420
 0.6310	13.2290
 0.6320	13.2200
 0.6330	13.2150
 0.6340	13.1920
 0.6350	13.1530
 0.6360	13.1040
 0.6370	13.0440
 0.6380	12.9740
 0.6390	12.8980
 0.6400	12.8150
 0.6410	12.7300
 0.6420	12.6490
 0.6430	12.5720
 0.6440	12.4930
 0.6450	12.4130
 0.6460	12.3380
 0.6470	12.2730
 0.6480	12.2180
 0.6490	12.1690
 0.6500	12.1270
 0.6510	12.0990
 0.6520	12.0830
 0.6530	12.0730
 0.6540	12.0610
 0.6550	12.0510
 0.6560	12.0400
 0.6570	12.0290
 0.6580	12.0190
 0.6590	12.0090
 0.6600	11.9990
 0.6610	11.9880
 0.6620	11.9760
 0.6630	11.9700
 0.6640	11.9680
 0.6650	11.9690
 0.6660	11.9730
 0.6670	11.9840
 0.6680	12.0020
 0.6690	12.0220
 0.6700	12.0490
 0.6710	12.0810
 0.6720	12.1160
 0.6730	12.1630
 0.6740	12.2130
 0.6750	12.2670
 0.6760	12.3290
 0.6770	12.3970
 0.6780	12.4700
 0.6790	12.5480
 0.6800	12.6350
 0.6810	12.7270
 0.6820	12.8220
 0.6830	12.9200
 0.6840	13.0260
 0.6850	13.1370
 0.6860	13.2590
 0.6870	13.3990
 0.6880	13.5780
 0.6890	13.8060
 0.6900	14.0990
 0.6910	14.4780
 0.6920	14.9530
 0.6930	15.5280
 0.6940	16.2100
 0.6950	17.0100
 0.6960	17.9090
 0.6970	18.8920
 0.6980	19.9460
 0.6990	21.0680
 0.7000	22.2390
 0.7010	23.4440
 0.7020	24.6690
 0.7030	25.9020
 0.7040	27.1290
 0.7050	28.3450
 0.7060	29.5470
 0.7070	30.7360
 0.7080	31.9090
 0.7090	33.0670
 0.7100	34.2160
 0.7110	35.3500
 0.7120	36.4640
 0.7130	37.5630
 0.7140	38.6540
 0.7150	39.7300
 0.7160	40.7840
 0.7170	41.8220
 0.7180	42.8400
 0.7190	43.8360
 0.7200	44.8120
 0.7210	45.7630
 0.7220	46.6890
 0.7230	47.5880
 0.7240	48.4580
 0.7250	49.2950
 0.7260	50.0990
 0.7270	50.8730
 0.7280	51.6150
 0.7290	52.3240
 0.7300	53.0000
 0.7310	53.6420
 0.7320	54.2500
 0.7330	54.8250
 0.7340	55.3660
 0.7350	55.8720
 0.7360	56.3490
 0.7370	56.7970
 0.7380	57.2140
 0.7390	57.6010
 0.7400	57.9590
 0.7410	58.2890
 0.7420	58.5930
 0.7430	58.8660
 0.7440	59.1120
 0.7450	59.3350
 0.7460	59.5350
 0.7470	59.7110
 0.7480	59.8680
 0.7490	60.0080
 0.7500	60.1330
 0.7510	60.2390
 0.7520	60.3310
 0.7530	60.4140
 0.7540	60.4840
 0.7550	60.5450
 0.7560	60.5980
 0.7570	60.6460
 0.7580	60.6860
 0.7590	60.7210
 0.7600	60.7510
 0.7610	60.7760
 0.7620	60.7980
 0.7630	60.8150
 0.7640	60.8240
 0.7650	60.8290
 0.7660	60.8320
 0.7670	60.8330
 0.7680	60.8310
 0.7690	60.8250
 0.7700	60.8180
 0.7710	60.8130
 0.7720	60.8100
 0.7730	60.8040
 0.7740	60.7970
 0.7750	60.7920
 0.7760	60.7880
 0.7770	60.7850
 0.7780	60.7810
 0.7790	60.7770
 0.7800	60.7760
 0.7810	60.7780
 0.7820	60.7780
 0.7830	60.7770
 0.7840	60.7750
 0.7850	60.7720
 0.7860	60.7700
 0.7870	60.7740
 0.7880	60.7760
 0.7890	60.7730
 0.7900	60.7670
 0.7910	60.7660
 0.7920	60.7660
 0.7930	60.7650
 0.7940	60.7600
 0.7950	60.7580
 0.7960	60.7550
 0.7970	60.7520
 0.7980	60.7470
 0.7990	60.7420
 0.8000	60.7360
 0.8010	60.7330
 0.8020	60.7260
 0.8030	60.7200
 0.8040	60.7150
 0.8050	60.7060
 0.8060	60.7000
 0.8070	60.6930
 0.8080	60.6840
 0.8090	60.6730
 0.8100	60.6650
 0.8110	60.6560
 0.8120	60.6450
 0.8130	60.6380
 0.8140	60.6280
 0.8150	60.6180
 0.8160	60.6090
 0.8170	60.5980
 0.8180	60.5880
 0.8190	60.5790
 0.8200	60.5680
 0.8210	60.5590
 0.8220	60.5480
 0.8230	60.5330
 0.8240	60.5180
 0.8250	60.5100
 0.8260	60.5020
 0.8270	60.4900
 0.8280	60.4750
 0.8290	60.4630
 0.8300	60.4500
 0.8310	60.4350
 0.8320	60.4260
 0.8330	60.4160
 0.8340	60.4040
 0.8350	60.3930
 0.8360	60.3840
 0.8370	60.3790
 0.8380	60.3730
 0.8390	60.3610
 0.8400	60.3510
 0.8410	60.3470
 0.8420	60.3460
 0.8430	60.3400
 0.8440	60.3330
 0.8450	60.3290
 0.8460	60.3270
 0.8470	60.3270
 0.8480	60.3240
 0.8490	60.3180
 0.8500	60.3120
 0.8510	60.3080
 0.8520	60.3050
 0.8530	60.3050
 0.8540	60.3110
 0.8550	60.3080
 0.8560	60.3070
 0.8570	60.3110
 0.8580	60.3140
 0.8590	60.3140
 0.8600	60.3140
 0.8610	60.3160
 0.8620	60.3150
 0.8630	60.3180
 0.8640	60.3240
 0.8650	60.3280
 0.8660	60.3350
 0.8670	60.3420
 0.8680	60.3480
 0.8690	60.3520
 0.8700	60.3590
 0.8710	60.3640
 0.8720	60.3670
 0.8730	60.3770
 0.8740	60.3870
 0.8750	60.3970
 0.8760	60.4050
 0.8770	60.4070
 0.8780	60.4130
 0.8790	60.4220
 0.8800	60.4320
 0.8810	60.4380
 0.8820	60.4430
 0.8830	60.4510
 0.8840	60.4610
 0.8850	60.4700
 0.8860	60.4780
 0.8870	60.4850
 0.8880	60.4940
 0.8890	60.5020
 0.8900	60.5070
 0.8910	60.5100
 0.8920	60.5120
 0.8930	60.5240
 0.8940	60.5330
 0.8950	60.5370
 0.8960	60.5450
 0.8970	60.5470
 0.8980	60.5560
 0.8990	60.5680
 0.9000	60.5660
 0.9010	60.5690
 0.9020	60.5750
 0.9030	60.5830
 0.9040	60.5910
 0.9050	60.5980
 0.9060	60.6040
 0.9070	60.6100
 0.9080	60.6070
 0.9090	60.6060
 0.9100	60.6120
 0.9110	60.6200
 0.9120	60.6200
 0.9130	60.6200
 0.9140	60.6200
 0.9150	60.6200
 0.9160	60.6120
 0.9170	60.6080
 0.9180	60.6070
 0.9190	60.6050
 0.9200	60.6070
 0.9210	60.6040
 0.9220	60.5970
 0.9230	60.5900
 0.9240	60.5820
 0.9250	60.5760
 0.9260	60.5710
 0.9270	60.5610
 0.9280	60.5410
 0.9290	60.5280
 0.9300	60.5180
 0.9310	60.4920
 0.9320	60.4830
 0.9330	60.4700
 0.9340	60.4480
 0.9350	60.4370
 0.9360	60.4180
 0.9370	60.3940
 0.9380	60.3680
 0.9390	60.3460
 0.9400	60.3180
 0.9410	60.2930
 0.9420	60.2730
 0.9430	60.2400
 0.9440	60.2030
 0.9450	60.1670
 0.9460	60.1320
 0.9470	60.0940
 0.9480	60.0470
 0.9490	59.9990
 0.9500	59.9540
 0.9510	59.8990
 0.9520	59.8410
 0.9530	59.7830
 0.9540	59.7240
 0.9550	59.6590
 0.9560	59.6020
 0.9570	59.5550
 0.9580	59.5090
 0.9590	59.4510
 0.9600	59.3960
 0.9610	59.3530
 0.9620	59.3210
 0.9630	59.2990
 0.9640	59.2600
 0.9650	59.2130
 0.9660	59.1820
 0.9670	59.1700
 0.9680	59.1530
 0.9690	59.1210
 0.9700	59.0810
 0.9710	59.0710
 0.9720	59.0600
 0.9730	59.0450
 0.9740	59.0320
 0.9750	59.0210
 0.9760	59.0080
 0.9770	58.9990
 0.9780	58.9940
 0.9790	58.9730
 0.9800	58.9720
 0.9810	58.9800
 0.9820	58.9710
 0.9830	58.9590
 0.9840	58.9600
 0.9850	58.9780
 0.9860	59.0000
 0.9870	58.9830
 0.9880	58.9870
 0.9890	59.0180
 0.9900	59.0450
 0.9910	59.0260
 0.9920	59.0340
 0.9930	59.0610
 0.9940	59.0720
 0.9950	59.0960
 0.9960	59.1170
 0.9970	59.1250
 0.9980	59.1200
 0.9990	59.1330
 1.0000	59.1520
 1.0010	60.4310
 1.0020	60.4530
 1.0030	60.4740
 1.0040	60.4950
 1.0050	60.5080
 1.0060	60.5220
 1.0070	60.5420
 1.0080	60.5630
 1.0090	60.5910
 1.0100	60.6130
 1.0110	60.6340
 1.0120	60.6530
 1.0130	60.6690
 1.0140	60.6870
 1.0150	60.7010
 1.0160	60.7250
 1.0170	60.7480
 1.0180	60.7660
 1.0190	60.7910
 1.0200	60.8120
 1.0210	60.8300
 1.0220	60.8540
 1.0230	60.8750
 1.0240	60.8950
 1.0250	60.9140
 1.0260	60.9330
 1.0270	60.9510
 1.0280	60.9650
 1.0290	60.9820
 1.0300	61.0000
 1.0310	61.0190
 1.0320	61.0360
 1.0330	61.0590
 1.0340	61.0820
 1.0350	61.0970
 1.0360	61.1140
 1.0370	61.1300
 1.0380	61.1470
 1.0390	61.1640
 1.0400	61.1800
 1.0410	61.1980
 1.0420	61.2140
 1.0430	61.2290
 1.0440	61.2430
 1.0450	61.2560
 1.0460	61.2690
 1.0470	61.2810
 1.0480	61.2920
 1.0490	61.3020
 1.0500	61.3120
 1.0510	61.3210
 1.0520	61.3300
 1.0530	61.3400
 1.0540	61.3520
 1.0550	61.3620
 1.0560	61.3730
 1.0570	61.3810
 1.0580	61.3850
 1.0590	61.3910
 1.0600	61.3960
 1.0610	61.4000
 1.0620	61.4040
 1.0630	61.4100
 1.0640	61.4180
 1.0650	61.4230
 1.0660	61.4300
 1.0670	61.4340
 1.0680	61.4360
 1.0690	61.4320
 1.0700	61.4330
 1.0710	61.4350
 1.0720	61.4330
 1.0730	61.4290
 1.0740	61.4300
 1.0750	61.4320
 1.0760	61.4330
 1.0770	61.4390
 1.0780	61.4390
 1.0790	61.4330
 1.0800	61.4310
 1.0810	61.4290
 1.0820	61.4280
 1.0830	61.4290
 1.0840	61.4270
 1.0850	61.4250
 1.0860	61.4220
 1.0870	61.4170
 1.0880	61.4090
 1.0890	61.4070
 1.0900	61.4080
 1.0910	61.4040
 1.0920	61.4010
 1.0930	61.3970
 1.0940	61.3870
 1.0950	61.3800
 1.0960	61.3760
 1.0970	61.3700
 1.0980	61.3600
 1.0990	61.3530
 1.1000	61.3460
 1.1010	61.3380
 1.1020	61.3300
 1.1030	61.3200
 1.1040	61.3070
 1.1050	61.2960
 1.1060	61.2850
 1.1070	61.2730
 1.1080	61.2640
 1.1090	61.2580
 1.1100	61.2460
 1.1110	61.2330
 1.1120	61.2200
 1.1130	61.2040
 1.1140	61.1880
 1.1150	61.1740
 1.1160	61.1570
 1.1170	61.1370
 1.1180	61.1160
 1.1190	61.0960
 1.1200	61.0730
 1.1210	61.0450
 1.1220	61.0160
 1.1230	60.9830
 1.1240	60.9480
 1.1250	60.9060
 1.1260	60.8620
 1.1270	60.8120
 1.1280	60.7570
 1.1290	60.6950
 1.1300	60.6310
 1.1310	60.5590
 1.1320	60.4780
 1.1330	60.3920
 1.1340	60.3020
 1.1350	60.2050
 1.1360	60.1010
 1.1370	59.9920
 1.1380	59.8770
 1.1390	59.7590
 1.1400	59.6350
 1.1410	59.5070
 1.1420	59.3750
 1.1430	59.2390
 1.1440	59.1060
 1.1450	58.9720
 1.1460	58.8400
 1.1470	58.7070
 1.1480	58.5770
 1.1490	58.4450
 1.1500	58.3210
 1.1510	58.1990
 1.1520	58.0870
 1.1530	57.9830
 1.1540	57.8830
 1.1550	57.7890
 1.1560	57.7000
 1.1570	57.6170
 1.1580	57.5420
 1.1590	57.4750
 1.1600	57.4140
 1.1610	57.3570
 1.1620	57.3050
 1.1630	57.2560
 1.1640	57.2130
 1.1650	57.1730
 1.1660	57.1380
 1.1670	57.1050
 1.1680	57.0770
 1.1690	57.0470
 1.1700	57.0190
 1.1710	56.9920
 1.1720	56.9650
 1.1730	56.9400
 1.1740	56.9170
 1.1750	56.8960
 1.1760	56.8750
 1.1770	56.8540
 1.1780	56.8300
 1.1790	56.8050
 1.1800	56.7790
 1.1810	56.7530
 1.1820	56.7280
 1.1830	56.7050
 1.1840	56.6820
 1.1850	56.6570
 1.1860	56.6310
 1.1870	56.6070
 1.1880	56.5830
 1.1890	56.5560
 1.1900	56.5330
 1.1910	56.5140
 1.1920	56.4960
 1.1930	56.4790
 1.1940	56.4630
 1.1950	56.4500
 1.1960	56.4360
 1.1970	56.4260
 1.1980	56.4170
 1.1990	56.4100
 1.2000	56.4070
 1.2010	56.4050
 1.2020	56.4030
 1.2030	56.4050
 1.2040	56.4110
 1.2050	56.4170
 1.2060	56.4260
 1.2070	56.4370
 1.2080	56.4480
 1.2090	56.4610
 1.2100	56.4800
 1.2110	56.5000
 1.2120	56.5240
 1.2130	56.5460
 1.2140	56.5680
 1.2150	56.5930
 1.2160	56.6200
 1.2170	56.6500
 1.2180	56.6850
 1.2190	56.7230
 1.2200	56.7590
 1.2210	56.7950
 1.2220	56.8300
 1.2230	56.8650
 1.2240	56.9010
 1.2250	56.9370
 1.2260	56.9710
 1.2270	57.0030
 1.2280	57.0360
 1.2290	57.0700
 1.2300	57.1000
 1.2310	57.1290
 1.2320	57.1590
 1.2330	57.1860
 1.2340	57.2120
 1.2350	57.2400
 1.2360	57.2660
 1.2370	57.2890
 1.2380	57.3120
 1.2390	57.3370
 1.2400	57.3600
 1.2410	57.3820
 1.2420	57.4050
 1.2430	57.4250
 1.2440	57.4460
 1.2450	57.4680
 1.2460	57.4860
 1.2470	57.5040
 1.2480	57.5200
 1.2490	57.5350
 1.2500	57.5510
 1.2510	57.5670
 1.2520	57.5810
 1.2530	57.5960
 1.2540	57.6090
 1.2550	57.6170
 1.2560	57.6260
 1.2570	57.6360
 1.2580	57.6440
 1.2590	57.6500
 1.2600	57.6560
 1.2610	57.6620
 1.2620	57.6650
 1.2630	57.6690
 1.2640	57.6740
 1.2650	57.6780
 1.2660	57.6790
 1.2670	57.6790
 1.2680	57.6800
 1.2690	57.6810
 1.2700	57.6780
 1.2710	57.6720
 1.2720	57.6660
 1.2730	57.6590
 1.2740	57.6520
 1.2750	57.6460
 1.2760	57.6370
 1.2770	57.6260
 1.2780	57.6140
 1.2790	57.6010
 1.2800	57.5880
 1.2810	57.5760
 1.2820	57.5620
 1.2830	57.5440
 1.2840	57.5240
 1.2850	57.5030
 1.2860	57.4790
 1.2870	57.4500
 1.2880	57.4180
 1.2890	57.3850
 1.2900	57.3490
 1.2910	57.3110
 1.2920	57.2740
 1.2930	57.2350
 1.2940	57.1920
 1.2950	57.1480
 1.2960	57.1010
 1.2970	57.0510
 1.2980	57.0000
 1.2990	56.9440
 1.3000	56.8870
 1.3010	56.8280
 1.3020	56.7680
 1.3030	56.7070
 1.3040	56.6410
 1.3050	56.5750
 1.3060	56.5050
 1.3070	56.4300
 1.3080	56.3560
 1.3090	56.2780
 1.3100	56.1970
 1.3110	56.1160
 1.3120	56.0300
 1.3130	55.9420
 1.3140	55.8510
 1.3150	55.7560
 1.3160	55.6580
 1.3170	55.5590
 1.3180	55.4560
 1.3190	55.3490
 1.3200	55.2400
 1.3210	55.1280
 1.3220	55.0140
 1.3230	54.8990
 1.3240	54.7820
 1.3250	54.6600
 1.3260	54.5360
 1.3270	54.4100
 1.3280	54.2800
 1.3290	54.1480
 1.3300	54.0120
 1.3310	53.8740
 1.3320	53.7350
 1.3330	53.5930
 1.3340	53.4510
 1.3350	53.3080
 1.3360	53.1630
 1.3370	53.0190
 1.3380	52.8750
 1.3390	52.7310
 1.3400	52.5890
 1.3410	52.4470
 1.3420	52.3080
 1.3430	52.1690
 1.3440	52.0310
 1.3450	51.8930
 1.3460	51.7550
 1.3470	51.6210
 1.3480	51.4870
 1.3490	51.3570
 1.3500	51.2310
 1.3510	51.1040
 1.3520	50.9780
 1.3530	50.8510
 1.3540	50.7220
 1.3550	50.5940
 1.3560	50.4660
 1.3570	50.3370
 1.3580	50.2090
 1.3590	50.0780
 1.3600	49.9430
 1.3610	49.8040
 1.3620	49.6610
 1.3630	49.5120
 1.3640	49.3570
 1.3650	49.1970
 1.3660	49.0290
 1.3670	48.8520
 1.3680	48.6660
 1.3690	48.4670
 1.3700	48.2510
 1.3710	48.0230
 1.3720	47.7780
 1.3730	47.5160
 1.3740	47.2390
 1.3750	46.9430
 1.3760	46.6220
 1.3770	46.2790
 1.3780	45.9080
 1.3790	45.5100
 1.3800	45.0870
 1.3810	44.6340
 1.3820	44.1590
 1.3830	43.6600
 1.3840	43.1340
 1.3850	42.5820
 1.3860	42.0110
 1.3870	41.4120
 1.3880	40.8050
 1.3890	40.1810
 1.3900	39.5440
 1.3910	38.9040
 1.3920	38.2540
 1.3930	37.5950
 1.3940	36.9370
 1.3950	36.2740
 1.3960	35.6170
 1.3970	34.9730
 1.3980	34.3380
 1.3990	33.7240
 1.4000	33.1260
 1.4010	32.5400
 1.4020	31.9780
 1.4030	31.4320
 1.4040	30.9070
 1.4050	30.4080
 1.4060	29.9300
 1.4070	29.4790
 1.4080	29.0500
 1.4090	28.6420
 1.4100	28.2590
 1.4110	27.8960
 1.4120	27.5540
 1.4130	27.2360
 1.4140	26.9370
 1.4150	26.6600
 1.4160	26.4010
 1.4170	26.1590
 1.4180	25.9340
 1.4190	25.7240
 1.4200	25.5280
 1.4210	25.3460
 1.4220	25.1760
 1.4230	25.0190
 1.4240	24.8730
 1.4250	24.7360
 1.4260	24.6100
 1.4270	24.4940
 1.4280	24.3880
 1.4290	24.2900
 1.4300	24.2020
 1.4310	24.1200
 1.4320	24.0460
 1.4330	23.9780
 1.4340	23.9160
 1.4350	23.8610
 1.4360	23.8110
 1.4370	23.7680
 1.4380	23.7300
 1.4390	23.6960
 1.4400	23.6680
 1.4410	23.6440
 1.4420	23.6250
 1.4430	23.6100
 1.4440	23.5960
 1.4450	23.5850
 1.4460	23.5770
 1.4470	23.5730
 1.4480	23.5710
 1.4490	23.5720
 1.4500	23.5760
 1.4510	23.5820
 1.4520	23.5890
 1.4530	23.5990
 1.4540	23.6120
 1.4550	23.6270
 1.4560	23.6430
 1.4570	23.6630
 1.4580	23.6880
 1.4590	23.7140
 1.4600	23.7460
 1.4610	23.7800
 1.4620	23.8190
 1.4630	23.8630
 1.4640	23.9120
 1.4650	23.9650
 1.4660	24.0240
 1.4670	24.0870
 1.4680	24.1570
 1.4690	24.2310
 1.4700	24.3100
 1.4710	24.3930
 1.4720	24.4770
 1.4730	24.5690
 1.4740	24.6650
 1.4750	24.7630
 1.4760	24.8680
