Name: Quercus lobata 1
Type: vegetation
Class: Tree
Genus: Quercus
Species: lobata
Sample No.: VH182
Owner: UCSB
Wavelength Range: TIR
Origin: 34.7139; -120.0598; WGS84
Collection Date: 6/9/2013
Description: Samples were collected as part of the HyspIRI Airborne Campaign. 48 individual plants were sampled in three times in 2013 - spring  summer  and fall. The name of the sample includes a 1  2  or 3 which references a different individual of the species. Samples were taken to JPL and processed within 48 hours of collection. The same leaves were processed in the Nicolet and then measured using the ASD.
Measurement: Hemispherical reflectance
First Column: X
Second Column: Y
X Units: Wavelength (micrometers)
Y Units: Reflectance (percentage)
First X Value: 2.501
Last X Value: 15.387
Number of X Values: 1737
Additional Information: vegetation.tree.quercus.lobata.tir.vh182.ucsb.nicolet.ancillary.txt

 2.5010	 9.7160
 2.5030	 9.8050
 2.5040	 9.6160
 2.5050	 9.5830
 2.5060	 9.5960
 2.5070	 9.4750
 2.5090	 9.3350
 2.5100	 9.2150
 2.5110	 9.3020
 2.5120	 9.2550
 2.5140	 9.3060
 2.5150	 9.2540
 2.5160	 9.2700
 2.5170	 9.2010
 2.5180	 9.3120
 2.5200	 9.3240
 2.5210	 9.3860
 2.5220	 9.3920
 2.5230	 9.4620
 2.5250	 9.3490
 2.5260	 9.2740
 2.5270	 9.2600
 2.5280	 9.4350
 2.5290	 9.4530
 2.5310	 9.4200
 2.5320	 9.4290
 2.5330	 9.4300
 2.5340	 9.3090
 2.5360	 9.3530
 2.5370	 9.3700
 2.5380	 9.4290
 2.5390	 9.4230
 2.5410	 9.4250
 2.5420	 9.3300
 2.5430	 9.3820
 2.5440	 9.2960
 2.5460	 9.3040
 2.5470	 9.3620
 2.5480	 9.4220
 2.5490	 9.4240
 2.5510	 9.4340
 2.5520	 9.5080
 2.5530	 9.5850
 2.5540	 9.4100
 2.5560	 9.2930
 2.5570	 9.2690
 2.5580	 9.3920
 2.5590	 9.3770
 2.5610	 9.3700
 2.5620	 9.3790
 2.5630	 9.4770
 2.5640	 9.4360
 2.5660	 9.4760
 2.5670	 9.4940
 2.5680	 9.4780
 2.5700	 9.3940
 2.5710	 9.4070
 2.5720	 9.4860
 2.5730	 9.6050
 2.5750	 9.4910
 2.5760	 9.4080
 2.5770	 9.4000
 2.5790	 9.4390
 2.5800	 9.4290
 2.5810	 9.4610
 2.5820	 9.2840
 2.5840	 9.1400
 2.5850	 9.2340
 2.5860	 9.4490
 2.5880	 9.4200
 2.5890	 9.3340
 2.5900	 9.2040
 2.5910	 9.3370
 2.5930	 9.2940
 2.5940	 9.1700
 2.5950	 9.2090
 2.5970	 9.3340
 2.5980	 9.3180
 2.5990	 9.2620
 2.6000	 9.0780
 2.6020	 9.1190
 2.6030	 9.1590
 2.6040	 9.2370
 2.6060	 9.3500
 2.6070	 9.4090
 2.6080	 9.2880
 2.6100	 9.2210
 2.6110	 9.3040
 2.6120	 9.3800
 2.6140	 9.2630
 2.6150	 9.2070
 2.6160	 9.1040
 2.6180	 9.1200
 2.6190	 9.0660
 2.6200	 9.0560
 2.6220	 9.0970
 2.6230	 9.0280
 2.6240	 8.9360
 2.6260	 9.0280
 2.6270	 9.0250
 2.6280	 9.0940
 2.6300	 9.0220
 2.6310	 8.9570
 2.6320	 8.8310
 2.6340	 8.8180
 2.6350	 8.7500
 2.6360	 8.7990
 2.6380	 8.7800
 2.6390	 8.7940
 2.6400	 8.6880
 2.6420	 8.7310
 2.6430	 8.7310
 2.6440	 8.6010
 2.6460	 8.4680
 2.6470	 8.5170
 2.6480	 8.5150
 2.6500	 8.6620
 2.6510	 8.7670
 2.6520	 8.5860
 2.6540	 8.3650
 2.6550	 8.3760
 2.6560	 8.4520
 2.6580	 8.4220
 2.6590	 8.4260
 2.6610	 8.4850
 2.6620	 8.3880
 2.6630	 8.3720
 2.6650	 8.1850
 2.6660	 8.1580
 2.6670	 8.0500
 2.6690	 8.0390
 2.6700	 8.1190
 2.6720	 8.2560
 2.6730	 8.1980
 2.6740	 8.1980
 2.6760	 8.2890
 2.6770	 8.2300
 2.6780	 7.9930
 2.6800	 7.9500
 2.6810	 7.9760
 2.6830	 8.0520
 2.6840	 7.9780
 2.6850	 7.9550
 2.6870	 7.8030
 2.6880	 7.8240
 2.6900	 7.8390
 2.6910	 7.7790
 2.6920	 7.7290
 2.6940	 7.8910
 2.6950	 7.6900
 2.6970	 7.4470
 2.6980	 7.3130
 2.6990	 7.3690
 2.7010	 7.3780
 2.7020	 7.2620
 2.7040	 7.0670
 2.7050	 7.1130
 2.7060	 7.1320
 2.7080	 7.1760
 2.7090	 7.1270
 2.7110	 7.0880
 2.7120	 7.0430
 2.7130	 7.0870
 2.7150	 7.0850
 2.7160	 7.0340
 2.7180	 6.8670
 2.7190	 6.7400
 2.7210	 6.5050
 2.7220	 6.4930
 2.7230	 6.5490
 2.7250	 6.5340
 2.7260	 6.3920
 2.7280	 6.3690
 2.7290	 6.3180
 2.7310	 6.3280
 2.7320	 6.0970
 2.7330	 6.0130
 2.7350	 6.0570
 2.7360	 5.9230
 2.7380	 5.5760
 2.7390	 5.6890
 2.7410	 5.6340
 2.7420	 5.5760
 2.7440	 5.7620
 2.7450	 5.6550
 2.7470	 5.5680
 2.7480	 5.7490
 2.7490	 5.5970
 2.7510	 5.3510
 2.7520	 5.4900
 2.7540	 5.5400
 2.7550	 5.0720
 2.7570	 5.1460
 2.7580	 5.2330
 2.7600	 5.3130
 2.7610	 5.2790
 2.7630	 5.1500
 2.7640	 5.0540
 2.7660	 4.9740
 2.7670	 4.8980
 2.7680	 4.8060
 2.7700	 4.6880
 2.7710	 4.8480
 2.7730	 4.8630
 2.7740	 4.9220
 2.7760	 4.8560
 2.7770	 4.6270
 2.7790	 4.4900
 2.7800	 4.6820
 2.7820	 4.7500
 2.7830	 4.9360
 2.7850	 4.8910
 2.7860	 4.7300
 2.7880	 4.5980
 2.7890	 4.6090
 2.7910	 4.7490
 2.7920	 4.8430
 2.7940	 4.6210
 2.7950	 4.5680
 2.7970	 4.5510
 2.7980	 4.5750
 2.8000	 4.6690
 2.8010	 4.6490
 2.8030	 4.5490
 2.8040	 4.4500
 2.8060	 4.2870
 2.8070	 4.4690
 2.8090	 4.7040
 2.8110	 4.6840
 2.8120	 4.4630
 2.8140	 4.4240
 2.8150	 4.4070
 2.8170	 4.5480
 2.8180	 4.5080
 2.8200	 4.3460
 2.8210	 4.3890
 2.8230	 4.6740
 2.8240	 4.6580
 2.8260	 4.4350
 2.8270	 4.4160
 2.8290	 4.3800
 2.8300	 4.0400
 2.8320	 4.3250
 2.8340	 4.6390
 2.8350	 4.5250
 2.8370	 4.2140
 2.8380	 4.2870
 2.8400	 4.4090
 2.8410	 4.2780
 2.8430	 4.2300
 2.8440	 4.4080
 2.8460	 4.3720
 2.8480	 4.3590
 2.8490	 4.3350
 2.8510	 4.2800
 2.8520	 4.1670
 2.8540	 4.2210
 2.8550	 4.3120
 2.8570	 4.3520
 2.8590	 4.3050
 2.8600	 4.3890
 2.8620	 4.3540
 2.8630	 4.3100
 2.8650	 4.4510
 2.8660	 4.5730
 2.8680	 4.3360
 2.8700	 4.1410
 2.8710	 4.0780
 2.8730	 4.3110
 2.8740	 4.3500
 2.8760	 4.2820
 2.8780	 4.2070
 2.8790	 4.2240
 2.8810	 4.0290
 2.8820	 3.8460
 2.8840	 3.8620
 2.8860	 4.1000
 2.8870	 4.0910
 2.8890	 4.1370
 2.8900	 4.2390
 2.8920	 4.3390
 2.8940	 4.2950
 2.8950	 4.3480
 2.8970	 4.2690
 2.8980	 4.2570
 2.9000	 4.3410
 2.9020	 4.2170
 2.9030	 3.9070
 2.9050	 3.9440
 2.9070	 4.1920
 2.9080	 4.4160
 2.9100	 4.2240
 2.9120	 4.3500
 2.9130	 4.3460
 2.9150	 4.1750
 2.9160	 4.1660
 2.9180	 4.1890
 2.9200	 4.1930
 2.9210	 4.3020
 2.9230	 4.2690
 2.9250	 4.1670
 2.9260	 4.2070
 2.9280	 4.2720
 2.9300	 4.1690
 2.9310	 4.1280
 2.9330	 4.0360
 2.9350	 3.9420
 2.9360	 3.9880
 2.9380	 4.1180
 2.9400	 4.1490
 2.9410	 4.3120
 2.9430	 4.4640
 2.9450	 4.4770
 2.9460	 4.3530
 2.9480	 4.2740
 2.9500	 3.9320
 2.9510	 3.6690
 2.9530	 3.5070
 2.9550	 3.4210
 2.9560	 3.6280
 2.9580	 4.0270
 2.9600	 3.9880
 2.9610	 4.5550
 2.9630	 5.1210
 2.9650	 5.2280
 2.9660	 4.7350
 2.9680	 4.0820
 2.9700	 4.6240
 2.9720	 4.4350
 2.9730	 3.1900
 2.9750	 2.0970
 2.9770	 2.4320
 2.9780	 3.9450
 2.9800	 4.8240
 2.9820	 3.8830
 2.9840	 3.1130
 2.9850	 4.0370
 2.9870	 4.9230
 2.9890	 4.4570
 2.9900	 4.3890
 2.9920	 4.6170
 2.9940	 4.5050
 2.9960	 3.4610
 2.9970	 2.8570
 2.9990	 2.4080
 3.0010	 3.5300
 3.0030	 5.5520
 3.0040	 4.9260
 3.0060	 4.4670
 3.0080	 4.2870
 3.0100	 3.8510
 3.0110	 3.7930
 3.0130	 4.8430
 3.0150	 5.2080
 3.0170	 5.6440
 3.0180	 5.3660
 3.0200	 4.8530
 3.0220	 4.9190
 3.0240	 4.4200
 3.0250	 4.0470
 3.0270	 4.2720
 3.0290	 4.3720
 3.0310	 4.6470
 3.0320	 4.1700
 3.0340	 3.1560
 3.0360	 3.0860
 3.0380	 3.8080
 3.0400	 3.7750
 3.0410	 3.1060
 3.0430	 3.1790
 3.0450	 3.9880
 3.0470	 3.9020
 3.0480	 2.8420
 3.0500	 4.3280
 3.0520	 5.6390
 3.0540	 4.9050
 3.0560	 3.8040
 3.0570	 4.1240
 3.0590	 4.3120
 3.0610	 3.1990
 3.0630	 2.5400
 3.0650	 2.6080
 3.0660	 3.4060
 3.0680	 4.7470
 3.0700	 4.9930
 3.0720	 4.8190
 3.0740	 4.9390
 3.0760	 4.7870
 3.0770	 4.6720
 3.0790	 4.5160
 3.0810	 4.4100
 3.0830	 4.4670
 3.0850	 4.4820
 3.0870	 4.4550
 3.0880	 4.6420
 3.0900	 4.8580
 3.0920	 4.8890
 3.0940	 4.6480
 3.0960	 4.5110
 3.0980	 4.5360
 3.0990	 4.6090
 3.1010	 4.5980
 3.1030	 4.5190
 3.1050	 4.5080
 3.1070	 4.5360
 3.1090	 4.6720
 3.1110	 4.5390
 3.1120	 4.2320
 3.1140	 4.6310
 3.1160	 4.5870
 3.1180	 4.4350
 3.1200	 4.6290
 3.1220	 4.6090
 3.1240	 4.3990
 3.1260	 4.7370
 3.1270	 4.4240
 3.1290	 3.7710
 3.1310	 3.9690
 3.1330	 4.7850
 3.1350	 4.9140
 3.1370	 5.2910
 3.1390	 5.0670
 3.1410	 4.5730
 3.1430	 4.1620
 3.1450	 4.8100
 3.1460	 5.1180
 3.1480	 4.7380
 3.1500	 4.6150
 3.1520	 4.4080
 3.1540	 4.3110
 3.1560	 4.4870
 3.1580	 4.5950
 3.1600	 4.8800
 3.1620	 4.9250
 3.1640	 5.3200
 3.1660	 5.9980
 3.1680	 5.1300
 3.1700	 3.9310
 3.1710	 4.0520
 3.1730	 3.8220
 3.1750	 4.2500
 3.1770	 3.9370
 3.1790	 4.1480
 3.1810	 4.1030
 3.1830	 4.2310
 3.1850	 5.1630
 3.1870	 5.4270
 3.1890	 5.0280
 3.1910	 5.0970
 3.1930	 5.0960
 3.1950	 5.1000
 3.1970	 5.1950
 3.1990	 5.3630
 3.2010	 5.3420
 3.2030	 5.3910
 3.2050	 5.2890
 3.2070	 5.1120
 3.2090	 5.0670
 3.2110	 5.2900
 3.2130	 5.3280
 3.2150	 5.3440
 3.2170	 5.3850
 3.2190	 5.3670
 3.2210	 5.2530
 3.2230	 5.3650
 3.2250	 5.3200
 3.2270	 5.1250
 3.2290	 4.9200
 3.2310	 5.2240
 3.2330	 5.4520
 3.2350	 5.3920
 3.2370	 5.3250
 3.2390	 5.4370
 3.2410	 5.4510
 3.2430	 5.5010
 3.2450	 5.5900
 3.2470	 5.5620
 3.2490	 5.3830
 3.2510	 5.5750
 3.2530	 5.7050
 3.2550	 5.5030
 3.2570	 5.5250
 3.2590	 5.6570
 3.2610	 5.2840
 3.2630	 5.5660
 3.2650	 5.9200
 3.2670	 5.9120
 3.2690	 6.0970
 3.2720	 5.9240
 3.2740	 5.6400
 3.2760	 5.6890
 3.2780	 5.5650
 3.2800	 5.6000
 3.2820	 5.6920
 3.2840	 5.6450
 3.2860	 5.4450
 3.2880	 5.5120
 3.2900	 5.6420
 3.2920	 5.6660
 3.2940	 5.7760
 3.2960	 5.9360
 3.2990	 5.9220
 3.3010	 5.8580
 3.3030	 5.6460
 3.3050	 5.4740
 3.3070	 5.3590
 3.3090	 5.5320
 3.3110	 5.9360
 3.3130	 5.8430
 3.3150	 5.6520
 3.3180	 5.7200
 3.3200	 5.8170
 3.3220	 5.9200
 3.3240	 5.8200
 3.3260	 5.8680
 3.3280	 5.9020
 3.3300	 5.8990
 3.3330	 5.8960
 3.3350	 5.9950
 3.3370	 5.7380
 3.3390	 5.4650
 3.3410	 5.3720
 3.3430	 5.4930
 3.3450	 5.6080
 3.3480	 5.7430
 3.3500	 5.7420
 3.3520	 5.6370
 3.3540	 5.4110
 3.3560	 5.5330
 3.3580	 5.5610
 3.3610	 5.5520
 3.3630	 5.4850
 3.3650	 5.4840
 3.3670	 5.2960
 3.3690	 5.2380
 3.3720	 5.2140
 3.3740	 5.2560
 3.3760	 5.3240
 3.3780	 5.4440
 3.3800	 5.2990
 3.3830	 5.2820
 3.3850	 5.2100
 3.3870	 5.1960
 3.3890	 5.3260
 3.3910	 5.3680
 3.3940	 5.2960
 3.3960	 5.1590
 3.3980	 5.1560
 3.4000	 5.2070
 3.4020	 5.0800
 3.4050	 5.1990
 3.4070	 5.2430
 3.4090	 5.1530
 3.4110	 5.1440
 3.4140	 5.3760
 3.4160	 5.5530
 3.4180	 5.6760
 3.4200	 5.6940
 3.4230	 5.8850
 3.4250	 6.1190
 3.4270	 6.4040
 3.4290	 6.5500
 3.4320	 6.5340
 3.4340	 6.2990
 3.4360	 6.1590
 3.4390	 6.0940
 3.4410	 6.0510
 3.4430	 5.9170
 3.4450	 5.8160
 3.4480	 5.8270
 3.4500	 6.0370
 3.4520	 5.9960
 3.4550	 5.9920
 3.4570	 6.2200
 3.4590	 6.2810
 3.4620	 6.1230
 3.4640	 6.1470
 3.4660	 6.1010
 3.4680	 6.1140
 3.4710	 6.0950
 3.4730	 6.0490
 3.4750	 5.8640
 3.4780	 5.8320
 3.4800	 5.7950
 3.4820	 5.8290
 3.4850	 5.8130
 3.4870	 5.7880
 3.4890	 5.7660
 3.4920	 5.7340
 3.4940	 5.7600
 3.4970	 5.9110
 3.4990	 5.9430
 3.5010	 6.0200
 3.5040	 6.0070
 3.5060	 6.1540
 3.5080	 6.4720
 3.5110	 6.7870
 3.5130	 6.8000
 3.5160	 6.8250
 3.5180	 6.7590
 3.5200	 6.6010
 3.5230	 6.6180
 3.5250	 6.7810
 3.5270	 6.8140
 3.5300	 6.8050
 3.5320	 6.8770
 3.5350	 6.8920
 3.5370	 6.7540
 3.5400	 6.7790
 3.5420	 6.7950
 3.5440	 6.7830
 3.5470	 6.7770
 3.5490	 6.7890
 3.5520	 6.8630
 3.5540	 6.8920
 3.5570	 6.9840
 3.5590	 7.0120
 3.5610	 6.9500
 3.5640	 6.9930
 3.5660	 6.9590
 3.5690	 6.9060
 3.5710	 6.9140
 3.5740	 6.9160
 3.5760	 6.8720
 3.5790	 6.9990
 3.5810	 7.0250
 3.5840	 7.1110
 3.5860	 7.2450
 3.5890	 7.1320
 3.5910	 7.0740
 3.5930	 6.9830
 3.5960	 6.7610
 3.5980	 6.9330
 3.6010	 7.1290
 3.6030	 7.1050
 3.6060	 7.0760
 3.6080	 7.1870
 3.6110	 7.0790
 3.6140	 6.9920
 3.6160	 7.0150
 3.6190	 7.0800
 3.6210	 7.0350
 3.6240	 7.0590
 3.6260	 7.0450
 3.6290	 7.0600
 3.6310	 7.0760
 3.6340	 7.0850
 3.6360	 7.1520
 3.6390	 7.3540
 3.6410	 7.2130
 3.6440	 7.1850
 3.6470	 7.1640
 3.6490	 7.1010
 3.6520	 7.0940
 3.6540	 7.1530
 3.6570	 7.0900
 3.6590	 7.1420
 3.6620	 7.2010
 3.6650	 7.1870
 3.6670	 7.0430
 3.6700	 7.0930
 3.6720	 7.1210
 3.6750	 7.1300
 3.6780	 7.0930
 3.6800	 7.0730
 3.6830	 7.0970
 3.6850	 7.1530
 3.6880	 7.1210
 3.6910	 7.1570
 3.6930	 7.1330
 3.6960	 7.1300
 3.6990	 7.1480
 3.7010	 7.2090
 3.7040	 7.2240
 3.7060	 7.1790
 3.7090	 7.2320
 3.7120	 7.2940
 3.7140	 7.2470
 3.7170	 7.2740
 3.7200	 7.2250
 3.7220	 7.2700
 3.7250	 7.2460
 3.7280	 7.1360
 3.7300	 7.1100
 3.7330	 7.2170
 3.7360	 7.2560
 3.7390	 7.3710
 3.7410	 7.3780
 3.7440	 7.3850
 3.7470	 7.3730
 3.7490	 7.3440
 3.7520	 7.2820
 3.7550	 7.1840
 3.7580	 7.1650
 3.7600	 7.3050
 3.7630	 7.3290
 3.7660	 7.3460
 3.7680	 7.3440
 3.7710	 7.3410
 3.7740	 7.3670
 3.7770	 7.3850
 3.7790	 7.3440
 3.7820	 7.3270
 3.7850	 7.3150
 3.7880	 7.3520
 3.7900	 7.3080
 3.7930	 7.3480
 3.7960	 7.3570
 3.7990	 7.2800
 3.8020	 7.2140
 3.8040	 7.2900
 3.8070	 7.3750
 3.8100	 7.4140
 3.8130	 7.4050
 3.8160	 7.4500
 3.8180	 7.4020
 3.8210	 7.3990
 3.8240	 7.3720
 3.8270	 7.4230
 3.8300	 7.4330
 3.8330	 7.4340
 3.8350	 7.4010
 3.8380	 7.5280
 3.8410	 7.5920
 3.8440	 7.5750
 3.8470	 7.5090
 3.8500	 7.5350
 3.8520	 7.6110
 3.8550	 7.6230
 3.8580	 7.4860
 3.8610	 7.4420
 3.8640	 7.5070
 3.8670	 7.5200
 3.8700	 7.5190
 3.8730	 7.5810
 3.8750	 7.4810
 3.8780	 7.4480
 3.8810	 7.5000
 3.8840	 7.5320
 3.8870	 7.5420
 3.8900	 7.5250
 3.8930	 7.5310
 3.8960	 7.5430
 3.8990	 7.4930
 3.9020	 7.5360
 3.9050	 7.5680
 3.9080	 7.5850
 3.9110	 7.5440
 3.9140	 7.5500
 3.9160	 7.5660
 3.9190	 7.6190
 3.9220	 7.6190
 3.9250	 7.5730
 3.9280	 7.4760
 3.9310	 7.4670
 3.9340	 7.5030
 3.9370	 7.5530
 3.9400	 7.6310
 3.9430	 7.6910
 3.9460	 7.6350
 3.9490	 7.6180
 3.9520	 7.5640
 3.9550	 7.5600
 3.9580	 7.5910
 3.9610	 7.6280
 3.9640	 7.5650
 3.9670	 7.5570
 3.9700	 7.5560
 3.9730	 7.5490
 3.9770	 7.5750
 3.9800	 7.5900
 3.9830	 7.5920
 3.9860	 7.6320
 3.9890	 7.5720
 3.9920	 7.5970
 3.9950	 7.6370
 3.9980	 7.5980
 4.0010	 7.5130
 4.0040	 7.5390
 4.0070	 7.5500
 4.0100	 7.5860
 4.0130	 7.6380
 4.0170	 7.6450
 4.0200	 7.6460
 4.0230	 7.6820
 4.0260	 7.6470
 4.0290	 7.6380
 4.0320	 7.6380
 4.0350	 7.6280
 4.0380	 7.5700
 4.0420	 7.6130
 4.0450	 7.6490
 4.0480	 7.5900
 4.0510	 7.6390
 4.0540	 7.6960
 4.0570	 7.7040
 4.0610	 7.6960
 4.0640	 7.6770
 4.0670	 7.6730
 4.0700	 7.6250
 4.0730	 7.6190
 4.0770	 7.6750
 4.0800	 7.6590
 4.0830	 7.6200
 4.0860	 7.6970
 4.0890	 7.6710
 4.0930	 7.7240
 4.0960	 7.8070
 4.0990	 7.7770
 4.1020	 7.6850
 4.1060	 7.5680
 4.1090	 7.4920
 4.1120	 7.5520
 4.1150	 7.7360
 4.1190	 7.7760
 4.1220	 7.6970
 4.1250	 7.6770
 4.1280	 7.6370
 4.1320	 7.6750
 4.1350	 7.6870
 4.1380	 7.6330
 4.1420	 7.6430
 4.1450	 7.6870
 4.1480	 7.7190
 4.1520	 7.7180
 4.1550	 7.6480
 4.1580	 7.6290
 4.1620	 7.6530
 4.1650	 7.6250
 4.1680	 7.5840
 4.1720	 7.6220
 4.1750	 7.6230
 4.1780	 7.6430
 4.1820	 7.6610
 4.1850	 7.6830
 4.1890	 7.6540
 4.1920	 7.6210
 4.1950	 7.5600
 4.1990	 7.5080
 4.2020	 7.5160
 4.2060	 7.5260
 4.2090	 7.5870
 4.2120	 7.5880
 4.2160	 7.3550
 4.2190	 7.3520
 4.2230	 7.4960
 4.2260	 7.6270
 4.2300	 7.3740
 4.2330	 7.3830
 4.2360	 7.3500
 4.2400	 7.1900
 4.2430	 7.2740
 4.2470	 7.5680
 4.2500	 7.6580
 4.2540	 7.4690
 4.2570	 7.4750
 4.2610	 7.5290
 4.2640	 7.2950
 4.2680	 7.0990
 4.2710	 6.7310
 4.2750	 6.8840
 4.2780	 7.1320
 4.2820	 7.1650
 4.2850	 7.0870
 4.2890	 7.2620
 4.2930	 7.3110
 4.2960	 7.3260
 4.3000	 7.4010
 4.3030	 7.3870
 4.3070	 7.2720
 4.3100	 7.3610
 4.3140	 7.3330
 4.3180	 7.3550
 4.3210	 7.3780
 4.3250	 7.3780
 4.3280	 7.3750
 4.3320	 7.4160
 4.3360	 7.4500
 4.3390	 7.4250
 4.3430	 7.4250
 4.3470	 7.4590
 4.3500	 7.4390
 4.3540	 7.4430
 4.3570	 7.4800
 4.3610	 7.5260
 4.3650	 7.4840
 4.3680	 7.4820
 4.3720	 7.4990
 4.3760	 7.5140
 4.3800	 7.5370
 4.3830	 7.5020
 4.3870	 7.4380
 4.3910	 7.4800
 4.3940	 7.4690
 4.3980	 7.4320
 4.4020	 7.4210
 4.4060	 7.4180
 4.4090	 7.4580
 4.4130	 7.4440
 4.4170	 7.3400
 4.4210	 7.3410
 4.4240	 7.3500
 4.4280	 7.4340
 4.4320	 7.4980
 4.4360	 7.4240
 4.4400	 7.4210
 4.4430	 7.4210
 4.4470	 7.3530
 4.4510	 7.3400
 4.4550	 7.3390
 4.4590	 7.3650
 4.4620	 7.3420
 4.4660	 7.3330
 4.4700	 7.3720
 4.4740	 7.4020
 4.4780	 7.3750
 4.4820	 7.3120
 4.4860	 7.2830
 4.4900	 7.2800
 4.4930	 7.2520
 4.4970	 7.2850
 4.5010	 7.3440
 4.5050	 7.4220
 4.5090	 7.4460
 4.5130	 7.3710
 4.5170	 7.3180
 4.5210	 7.3130
 4.5250	 7.3200
 4.5290	 7.2910
 4.5330	 7.2390
 4.5370	 7.2540
 4.5410	 7.2860
 4.5450	 7.3170
 4.5490	 7.2980
 4.5530	 7.2480
 4.5570	 7.2450
 4.5610	 7.1800
 4.5650	 7.1800
 4.5690	 7.2260
 4.5730	 7.2110
 4.5770	 7.1630
 4.5810	 7.1180
 4.5850	 7.1470
 4.5890	 7.1530
 4.5930	 7.2300
 4.5970	 7.2540
 4.6010	 7.2650
 4.6050	 7.2750
 4.6090	 7.2650
 4.6130	 7.2420
 4.6170	 7.0680
 4.6220	 7.0590
 4.6260	 7.2650
 4.6300	 7.2420
 4.6340	 7.1540
 4.6380	 7.1890
 4.6420	 7.1870
 4.6460	 7.1960
 4.6510	 7.1650
 4.6550	 7.1290
 4.6590	 7.1560
 4.6630	 7.1340
 4.6670	 7.0340
 4.6720	 7.0490
 4.6760	 7.0730
 4.6800	 7.0480
 4.6840	 7.0180
 4.6880	 6.9750
 4.6930	 6.9620
 4.6970	 7.0740
 4.7010	 7.0580
 4.7050	 7.0730
 4.7100	 7.1230
 4.7140	 7.1290
 4.7180	 7.0640
 4.7230	 7.0530
 4.7270	 7.1120
 4.7310	 7.1160
 4.7360	 7.0880
 4.7400	 7.0910
 4.7440	 7.0170
 4.7490	 6.9880
 4.7530	 6.9930
 4.7570	 7.0700
 4.7620	 7.0770
 4.7660	 7.0340
 4.7700	 7.0320
 4.7750	 7.0810
 4.7790	 7.0510
 4.7840	 7.1210
 4.7880	 6.9460
 4.7920	 6.8940
 4.7970	 7.0480
 4.8010	 6.8770
 4.8060	 6.8000
 4.8100	 6.9710
 4.8150	 7.0440
 4.8190	 7.0390
 4.8240	 7.0570
 4.8280	 7.0020
 4.8330	 6.9830
 4.8370	 7.0670
 4.8420	 7.0980
 4.8460	 7.0660
 4.8510	 7.0570
 4.8550	 7.0720
 4.8600	 7.0610
 4.8640	 7.0670
 4.8690	 7.0300
 4.8730	 6.9610
 4.8780	 7.0120
 4.8830	 7.0610
 4.8870	 7.0240
 4.8920	 7.0070
 4.8960	 7.0400
 4.9010	 7.0990
 4.9060	 7.0950
 4.9100	 7.0580
 4.9150	 7.0620
 4.9200	 7.0700
 4.9240	 7.0710
 4.9290	 7.0380
 4.9340	 7.0600
 4.9380	 7.0980
 4.9430	 7.0490
 4.9480	 7.0710
 4.9530	 7.0510
 4.9570	 7.0290
 4.9620	 7.0110
 4.9670	 7.0340
 4.9720	 7.0260
 4.9760	 7.0120
 4.9810	 7.0470
 4.9860	 7.0980
 4.9910	 7.0570
 4.9960	 7.0190
 5.0000	 7.0100
 5.0050	 7.0970
 5.0100	 7.1160
 5.0150	 7.0800
 5.0200	 7.0990
 5.0250	 7.1120
 5.0290	 7.1380
 5.0340	 7.1940
 5.0390	 7.1830
 5.0440	 7.1530
 5.0490	 7.1000
 5.0540	 7.1190
 5.0590	 7.1590
 5.0640	 7.1530
 5.0690	 7.1180
 5.0740	 7.1150
 5.0790	 7.1250
 5.0840	 7.1380
 5.0890	 7.1510
 5.0940	 7.1580
 5.0990	 7.1180
 5.1040	 7.1130
 5.1090	 7.0870
 5.1140	 7.0620
 5.1190	 7.0560
 5.1240	 7.0870
 5.1290	 7.1270
 5.1340	 7.1190
 5.1390	 7.0920
 5.1440	 7.1060
 5.1490	 7.0510
 5.1540	 7.0120
 5.1600	 7.0050
 5.1650	 7.0430
 5.1700	 7.0410
 5.1750	 7.0740
 5.1800	 7.0370
 5.1850	 7.0330
 5.1910	 7.0500
 5.1960	 7.0830
 5.2010	 7.0670
 5.2060	 6.9910
 5.2110	 6.9740
 5.2170	 7.0460
 5.2220	 7.0560
 5.2270	 7.0160
 5.2320	 6.9360
 5.2380	 6.9810
 5.2430	 7.0130
 5.2480	 6.9870
 5.2540	 6.9350
 5.2590	 6.9310
 5.2640	 6.8890
 5.2700	 6.9120
 5.2750	 6.8900
 5.2800	 6.9140
 5.2860	 6.9440
 5.2910	 7.0200
 5.2970	 6.9510
 5.3020	 6.8870
 5.3070	 6.8880
 5.3130	 6.8750
 5.3180	 6.8850
 5.3240	 6.9230
 5.3290	 6.8640
 5.3350	 6.8730
 5.3400	 6.8780
 5.3460	 6.8570
 5.3510	 6.8090
 5.3570	 6.8070
 5.3620	 6.8090
 5.3680	 6.8410
 5.3730	 6.8160
 5.3790	 6.7720
 5.3850	 6.7550
 5.3900	 6.7780
 5.3960	 6.7490
 5.4010	 6.7670
 5.4070	 6.8050
 5.4130	 6.7750
 5.4180	 6.7310
 5.4240	 6.7100
 5.4300	 6.6590
 5.4350	 6.7230
 5.4410	 6.6630
