Name: Phyllostachys vivax
Type: vegetation
Class: Tree
Genus: Phyllostachys
Species: vivax
Sample No.: JPL124
Owner: JPL
Wavelength Range: VSWIR
Origin: 34.12505; -118.11546;; WGS84
Collection Date: 9/7/2016
Description: Samples were collected at the Huntington Garden in San Marino California as part of a JPL Subcontract studying HyTES imagery. Samples were taken to JPL and processed within 48 hours of collection. The same leaves were processed in the Nicolet and then measured using the ASD.
Measurement: Bidirectional reflectance
First Column: X
Second Column: Y
X Units: Wavelength (micrometer)
Y Units: Reflectance (percentage)
First X Value: 0.35
Last X Value: 2.5
Number of X Values: 2151
Additional Information: vegetation.tree.phyllostachys.vivax.vswir.jpl124.jpl.asd.ancillary.txt

 0.3500	 7.6030
 0.3510	 7.5090
 0.3520	 7.5690
 0.3530	 7.6040
 0.3540	 7.4710
 0.3550	 7.3490
 0.3560	 7.3420
 0.3570	 7.4030
 0.3580	 7.4170
 0.3590	 7.4170
 0.3600	 7.4040
 0.3610	 7.3750
 0.3620	 7.3130
 0.3630	 7.3040
 0.3640	 7.3110
 0.3650	 7.2840
 0.3660	 7.2540
 0.3670	 7.2400
 0.3680	 7.2430
 0.3690	 7.2550
 0.3700	 7.2770
 0.3710	 7.2580
 0.3720	 7.2100
 0.3730	 7.2650
 0.3740	 7.2350
 0.3750	 7.1820
 0.3760	 7.2060
 0.3770	 7.1740
 0.3780	 7.1510
 0.3790	 7.1560
 0.3800	 7.1610
 0.3810	 7.1980
 0.3820	 7.1930
 0.3830	 7.1300
 0.3840	 7.1480
 0.3850	 7.1700
 0.3860	 7.1710
 0.3870	 7.1530
 0.3880	 7.1470
 0.3890	 7.1600
 0.3900	 7.1750
 0.3910	 7.1570
 0.3920	 7.1240
 0.3930	 7.1170
 0.3940	 7.1490
 0.3950	 7.1500
 0.3960	 7.1250
 0.3970	 7.1040
 0.3980	 7.1210
 0.3990	 7.1170
 0.4000	 7.1120
 0.4010	 7.1140
 0.4020	 7.1040
 0.4030	 7.1130
 0.4040	 7.1180
 0.4050	 7.1010
 0.4060	 7.1100
 0.4070	 7.1270
 0.4080	 7.1340
 0.4090	 7.1220
 0.4100	 7.1290
 0.4110	 7.1420
 0.4120	 7.1490
 0.4130	 7.1600
 0.4140	 7.1730
 0.4150	 7.1780
 0.4160	 7.1690
 0.4170	 7.1700
 0.4180	 7.1760
 0.4190	 7.1840
 0.4200	 7.1850
 0.4210	 7.1910
 0.4220	 7.1980
 0.4230	 7.2030
 0.4240	 7.2050
 0.4250	 7.1990
 0.4260	 7.1960
 0.4270	 7.2100
 0.4280	 7.2030
 0.4290	 7.1920
 0.4300	 7.1920
 0.4310	 7.2040
 0.4320	 7.1940
 0.4330	 7.1760
 0.4340	 7.1720
 0.4350	 7.1720
 0.4360	 7.1740
 0.4370	 7.1780
 0.4380	 7.1900
 0.4390	 7.2050
 0.4400	 7.2160
 0.4410	 7.2220
 0.4420	 7.2340
 0.4430	 7.2440
 0.4440	 7.2510
 0.4450	 7.2520
 0.4460	 7.2450
 0.4470	 7.2470
 0.4480	 7.2620
 0.4490	 7.2690
 0.4500	 7.2750
 0.4510	 7.2790
 0.4520	 7.2820
 0.4530	 7.2900
 0.4540	 7.2910
 0.4550	 7.2880
 0.4560	 7.2990
 0.4570	 7.3070
 0.4580	 7.3060
 0.4590	 7.2970
 0.4600	 7.3040
 0.4610	 7.3100
 0.4620	 7.3140
 0.4630	 7.3190
 0.4640	 7.3150
 0.4650	 7.3130
 0.4660	 7.3140
 0.4670	 7.3150
 0.4680	 7.3190
 0.4690	 7.3230
 0.4700	 7.3230
 0.4710	 7.3230
 0.4720	 7.3210
 0.4730	 7.3220
 0.4740	 7.3280
 0.4750	 7.3290
 0.4760	 7.3320
 0.4770	 7.3380
 0.4780	 7.3400
 0.4790	 7.3420
 0.4800	 7.3460
 0.4810	 7.3500
 0.4820	 7.3520
 0.4830	 7.3500
 0.4840	 7.3470
 0.4850	 7.3510
 0.4860	 7.3510
 0.4870	 7.3540
 0.4880	 7.3650
 0.4890	 7.3690
 0.4900	 7.3790
 0.4910	 7.3950
 0.4920	 7.4100
 0.4930	 7.4270
 0.4940	 7.4460
 0.4950	 7.4670
 0.4960	 7.4880
 0.4970	 7.5160
 0.4980	 7.5450
 0.4990	 7.5700
 0.5000	 7.6030
 0.5010	 7.6430
 0.5020	 7.6880
 0.5030	 7.7370
 0.5040	 7.7940
 0.5050	 7.8600
 0.5060	 7.9330
 0.5070	 8.0140
 0.5080	 8.1030
 0.5090	 8.2020
 0.5100	 8.3120
 0.5110	 8.4330
 0.5120	 8.5680
 0.5130	 8.7160
 0.5140	 8.8760
 0.5150	 9.0510
 0.5160	 9.2370
 0.5170	 9.4310
 0.5180	 9.6390
 0.5190	 9.8570
 0.5200	10.0800
 0.5210	10.3100
 0.5220	10.5420
 0.5230	10.7740
 0.5240	11.0020
 0.5250	11.2240
 0.5260	11.4390
 0.5270	11.6450
 0.5280	11.8390
 0.5290	12.0210
 0.5300	12.1900
 0.5310	12.3450
 0.5320	12.4820
 0.5330	12.6080
 0.5340	12.7220
 0.5350	12.8240
 0.5360	12.9120
 0.5370	12.9880
 0.5380	13.0560
 0.5390	13.1170
 0.5400	13.1720
 0.5410	13.2170
 0.5420	13.2540
 0.5430	13.2910
 0.5440	13.3270
 0.5450	13.3620
 0.5460	13.3980
 0.5470	13.4300
 0.5480	13.4580
 0.5490	13.4780
 0.5500	13.4930
 0.5510	13.5030
 0.5520	13.5040
 0.5530	13.4920
 0.5540	13.4680
 0.5550	13.4350
 0.5560	13.3930
 0.5570	13.3380
 0.5580	13.2670
 0.5590	13.1830
 0.5600	13.0860
 0.5610	12.9780
 0.5620	12.8570
 0.5630	12.7270
 0.5640	12.5920
 0.5650	12.4480
 0.5660	12.2990
 0.5670	12.1470
 0.5680	11.9920
 0.5690	11.8360
 0.5700	11.6850
 0.5710	11.5430
 0.5720	11.4000
 0.5730	11.2600
 0.5740	11.1270
 0.5750	11.0080
 0.5760	10.8970
 0.5770	10.7910
 0.5780	10.6890
 0.5790	10.5920
 0.5800	10.4990
 0.5810	10.4140
 0.5820	10.3370
 0.5830	10.2630
 0.5840	10.1970
 0.5850	10.1380
 0.5860	10.0850
 0.5870	10.0300
 0.5880	 9.9770
 0.5890	 9.9300
 0.5900	 9.8900
 0.5910	 9.8560
 0.5920	 9.8250
 0.5930	 9.7910
 0.5940	 9.7560
 0.5950	 9.7250
 0.5960	 9.6980
 0.5970	 9.6690
 0.5980	 9.6390
 0.5990	 9.6110
 0.6000	 9.5820
 0.6010	 9.5550
 0.6020	 9.5250
 0.6030	 9.4900
 0.6040	 9.4480
 0.6050	 9.4050
 0.6060	 9.3590
 0.6070	 9.3070
 0.6080	 9.2540
 0.6090	 9.1930
 0.6100	 9.1210
 0.6110	 9.0420
 0.6120	 8.9870
 0.6130	 8.9430
 0.6140	 8.9000
 0.6150	 8.8510
 0.6160	 8.8010
 0.6170	 8.7520
 0.6180	 8.7050
 0.6190	 8.6590
 0.6200	 8.6190
 0.6210	 8.5860
 0.6220	 8.5550
 0.6230	 8.5290
 0.6240	 8.5070
 0.6250	 8.4900
 0.6260	 8.4740
 0.6270	 8.4620
 0.6280	 8.4510
 0.6290	 8.4390
 0.6300	 8.4270
 0.6310	 8.4180
 0.6320	 8.4100
 0.6330	 8.3960
 0.6340	 8.3770
 0.6350	 8.3500
 0.6360	 8.3140
 0.6370	 8.2760
 0.6380	 8.2320
 0.6390	 8.1830
 0.6400	 8.1300
 0.6410	 8.0740
 0.6420	 8.0190
 0.6430	 7.9660
 0.6440	 7.9130
 0.6450	 7.8630
 0.6460	 7.8170
 0.6470	 7.7720
 0.6480	 7.7350
 0.6490	 7.7020
 0.6500	 7.6740
 0.6510	 7.6550
 0.6520	 7.6370
 0.6530	 7.6240
 0.6540	 7.6140
 0.6550	 7.6010
 0.6560	 7.5870
 0.6570	 7.5710
 0.6580	 7.5520
 0.6590	 7.5300
 0.6600	 7.5080
 0.6610	 7.4880
 0.6620	 7.4680
 0.6630	 7.4520
 0.6640	 7.4370
 0.6650	 7.4240
 0.6660	 7.4160
 0.6670	 7.4110
 0.6680	 7.4100
 0.6690	 7.4100
 0.6700	 7.4170
 0.6710	 7.4280
 0.6720	 7.4420
 0.6730	 7.4550
 0.6740	 7.4720
 0.6750	 7.4920
 0.6760	 7.5140
 0.6770	 7.5380
 0.6780	 7.5660
 0.6790	 7.5960
 0.6800	 7.6280
 0.6810	 7.6630
 0.6820	 7.7010
 0.6830	 7.7420
 0.6840	 7.7860
 0.6850	 7.8360
 0.6860	 7.8930
 0.6870	 7.9620
 0.6880	 8.0460
 0.6890	 8.1560
 0.6900	 8.2980
 0.6910	 8.4760
 0.6920	 8.6990
 0.6930	 8.9730
 0.6940	 9.3050
 0.6950	 9.7060
 0.6960	10.1690
 0.6970	10.6930
 0.6980	11.2790
 0.6990	11.9180
 0.7000	12.6020
 0.7010	13.3230
 0.7020	14.0720
 0.7030	14.8370
 0.7040	15.6150
 0.7050	16.4000
 0.7060	17.1810
 0.7070	17.9640
 0.7080	18.7450
 0.7090	19.5210
 0.7100	20.2950
 0.7110	21.0650
 0.7120	21.8310
 0.7130	22.5900
 0.7140	23.3470
 0.7150	24.1000
 0.7160	24.8480
 0.7170	25.5910
 0.7180	26.3300
 0.7190	27.0620
 0.7200	27.7830
 0.7210	28.4940
 0.7220	29.1940
 0.7230	29.8830
 0.7240	30.5590
 0.7250	31.2190
 0.7260	31.8630
 0.7270	32.4920
 0.7280	33.0990
 0.7290	33.6830
 0.7300	34.2480
 0.7310	34.7930
 0.7320	35.3170
 0.7330	35.8190
 0.7340	36.2980
 0.7350	36.7540
 0.7360	37.1880
 0.7370	37.6000
 0.7380	37.9890
 0.7390	38.3550
 0.7400	38.7000
 0.7410	39.0260
 0.7420	39.3290
 0.7430	39.6140
 0.7440	39.8780
 0.7450	40.1210
 0.7460	40.3470
 0.7470	40.5550
 0.7480	40.7460
 0.7490	40.9210
 0.7500	41.0830
 0.7510	41.2310
 0.7520	41.3650
 0.7530	41.4880
 0.7540	41.6000
 0.7550	41.7010
 0.7560	41.7940
 0.7570	41.8760
 0.7580	41.9520
 0.7590	42.0200
 0.7600	42.0830
 0.7610	42.1400
 0.7620	42.1910
 0.7630	42.2350
 0.7640	42.2740
 0.7650	42.3100
 0.7660	42.3430
 0.7670	42.3720
 0.7680	42.3950
 0.7690	42.4160
 0.7700	42.4370
 0.7710	42.4550
 0.7720	42.4690
 0.7730	42.4820
 0.7740	42.4940
 0.7750	42.5030
 0.7760	42.5140
 0.7770	42.5230
 0.7780	42.5300
 0.7790	42.5360
 0.7800	42.5400
 0.7810	42.5440
 0.7820	42.5480
 0.7830	42.5500
 0.7840	42.5520
 0.7850	42.5540
 0.7860	42.5540
 0.7870	42.5530
 0.7880	42.5530
 0.7890	42.5520
 0.7900	42.5470
 0.7910	42.5430
 0.7920	42.5390
 0.7930	42.5340
 0.7940	42.5280
 0.7950	42.5220
 0.7960	42.5140
 0.7970	42.5030
 0.7980	42.4940
 0.7990	42.4820
 0.8000	42.4700
 0.8010	42.4580
 0.8020	42.4460
 0.8030	42.4320
 0.8040	42.4170
 0.8050	42.4030
 0.8060	42.3890
 0.8070	42.3750
 0.8080	42.3600
 0.8090	42.3430
 0.8100	42.3290
 0.8110	42.3130
 0.8120	42.2950
 0.8130	42.2760
 0.8140	42.2590
 0.8150	42.2410
 0.8160	42.2220
 0.8170	42.2060
 0.8180	42.1860
 0.8190	42.1650
 0.8200	42.1490
 0.8210	42.1320
 0.8220	42.1120
 0.8230	42.0930
 0.8240	42.0770
 0.8250	42.0590
 0.8260	42.0400
 0.8270	42.0220
 0.8280	42.0060
 0.8290	41.9860
 0.8300	41.9680
 0.8310	41.9550
 0.8320	41.9400
 0.8330	41.9240
 0.8340	41.9090
 0.8350	41.8960
 0.8360	41.8810
 0.8370	41.8640
 0.8380	41.8490
 0.8390	41.8390
 0.8400	41.8280
 0.8410	41.8160
 0.8420	41.8070
 0.8430	41.7960
 0.8440	41.7870
 0.8450	41.7770
 0.8460	41.7630
 0.8470	41.7580
 0.8480	41.7510
 0.8490	41.7430
 0.8500	41.7350
 0.8510	41.7290
 0.8520	41.7230
 0.8530	41.7170
 0.8540	41.7110
 0.8550	41.7100
 0.8560	41.7060
 0.8570	41.6990
 0.8580	41.6960
 0.8590	41.6980
 0.8600	41.6980
 0.8610	41.6960
 0.8620	41.6940
 0.8630	41.6920
 0.8640	41.6920
 0.8650	41.6960
 0.8660	41.6990
 0.8670	41.7030
 0.8680	41.7030
 0.8690	41.7000
 0.8700	41.7020
 0.8710	41.7090
 0.8720	41.7150
 0.8730	41.7170
 0.8740	41.7220
 0.8750	41.7270
 0.8760	41.7320
 0.8770	41.7350
 0.8780	41.7440
 0.8790	41.7540
 0.8800	41.7610
 0.8810	41.7690
 0.8820	41.7730
 0.8830	41.7780
 0.8840	41.7860
 0.8850	41.7950
 0.8860	41.8020
 0.8870	41.8090
 0.8880	41.8180
 0.8890	41.8230
 0.8900	41.8320
 0.8910	41.8420
 0.8920	41.8480
 0.8930	41.8550
 0.8940	41.8610
 0.8950	41.8690
 0.8960	41.8790
 0.8970	41.8870
 0.8980	41.8930
 0.8990	41.9000
 0.9000	41.9100
 0.9010	41.9170
 0.9020	41.9230
 0.9030	41.9290
 0.9040	41.9390
 0.9050	41.9450
 0.9060	41.9510
 0.9070	41.9570
 0.9080	41.9640
 0.9090	41.9700
 0.9100	41.9720
 0.9110	41.9730
 0.9120	41.9750
 0.9130	41.9790
 0.9140	41.9850
 0.9150	41.9890
 0.9160	41.9910
 0.9170	41.9920
 0.9180	41.9950
 0.9190	41.9990
 0.9200	41.9890
 0.9210	41.9890
 0.9220	41.9950
 0.9230	41.9920
 0.9240	41.9900
 0.9250	41.9860
 0.9260	41.9780
 0.9270	41.9680
 0.9280	41.9600
 0.9290	41.9560
 0.9300	41.9500
 0.9310	41.9410
 0.9320	41.9310
 0.9330	41.9230
 0.9340	41.9150
 0.9350	41.9000
 0.9360	41.8890
 0.9370	41.8740
 0.9380	41.8570
 0.9390	41.8490
 0.9400	41.8390
 0.9410	41.8270
 0.9420	41.8100
 0.9430	41.7870
 0.9440	41.7710
 0.9450	41.7600
 0.9460	41.7460
 0.9470	41.7250
 0.9480	41.7020
 0.9490	41.6790
 0.9500	41.6580
 0.9510	41.6360
 0.9520	41.6060
 0.9530	41.5790
 0.9540	41.5600
 0.9550	41.5270
 0.9560	41.4990
 0.9570	41.4780
 0.9580	41.4590
 0.9590	41.4310
 0.9600	41.4030
 0.9610	41.3800
 0.9620	41.3650
 0.9630	41.3400
 0.9640	41.3190
 0.9650	41.3060
 0.9660	41.2990
 0.9670	41.2920
 0.9680	41.2780
 0.9690	41.2580
 0.9700	41.2370
 0.9710	41.2320
 0.9720	41.2230
 0.9730	41.2100
 0.9740	41.2020
 0.9750	41.2030
 0.9760	41.1940
 0.9770	41.1780
 0.9780	41.1690
 0.9790	41.1630
 0.9800	41.1580
 0.9810	41.1500
 0.9820	41.1400
 0.9830	41.1390
 0.9840	41.1250
 0.9850	41.1100
 0.9860	41.1130
 0.9870	41.1140
 0.9880	41.1100
 0.9890	41.1060
 0.9900	41.1020
 0.9910	41.0940
 0.9920	41.0900
 0.9930	41.0880
 0.9940	41.0840
 0.9950	41.0710
 0.9960	41.0680
 0.9970	41.0710
 0.9980	41.0710
 0.9990	41.0690
 1.0000	41.0710
 1.0010	40.9030
 1.0020	40.8960
 1.0030	40.8970
 1.0040	40.8980
 1.0050	40.8950
 1.0060	40.8980
 1.0070	40.9010
 1.0080	40.9010
 1.0090	40.8960
 1.0100	40.8960
 1.0110	40.8960
 1.0120	40.8960
 1.0130	40.8960
 1.0140	40.8970
 1.0150	40.8990
 1.0160	40.9000
 1.0170	40.8990
 1.0180	40.8980
 1.0190	40.8940
 1.0200	40.8910
 1.0210	40.8900
 1.0220	40.8890
 1.0230	40.8890
 1.0240	40.8890
 1.0250	40.8910
 1.0260	40.8960
 1.0270	40.8970
 1.0280	40.8960
 1.0290	40.8970
 1.0300	40.8950
 1.0310	40.8940
 1.0320	40.8940
 1.0330	40.8970
 1.0340	40.9000
 1.0350	40.9010
 1.0360	40.9030
 1.0370	40.9060
 1.0380	40.9060
 1.0390	40.9020
 1.0400	40.9030
 1.0410	40.9050
 1.0420	40.9060
 1.0430	40.9090
 1.0440	40.9110
 1.0450	40.9120
 1.0460	40.9120
 1.0470	40.9110
 1.0480	40.9110
 1.0490	40.9110
 1.0500	40.9100
 1.0510	40.9090
 1.0520	40.9090
 1.0530	40.9100
 1.0540	40.9110
 1.0550	40.9120
 1.0560	40.9130
 1.0570	40.9150
 1.0580	40.9170
 1.0590	40.9180
 1.0600	40.9200
 1.0610	40.9190
 1.0620	40.9150
 1.0630	40.9110
 1.0640	40.9070
 1.0650	40.9050
 1.0660	40.9030
 1.0670	40.9010
 1.0680	40.9000
 1.0690	40.9000
 1.0700	40.8990
 1.0710	40.8970
 1.0720	40.8950
 1.0730	40.8920
 1.0740	40.8900
 1.0750	40.8880
 1.0760	40.8870
 1.0770	40.8890
 1.0780	40.8870
 1.0790	40.8830
 1.0800	40.8800
 1.0810	40.8750
 1.0820	40.8720
 1.0830	40.8730
 1.0840	40.8720
 1.0850	40.8710
 1.0860	40.8710
 1.0870	40.8680
 1.0880	40.8650
 1.0890	40.8630
 1.0900	40.8610
 1.0910	40.8590
 1.0920	40.8580
 1.0930	40.8570
 1.0940	40.8560
 1.0950	40.8540
 1.0960	40.8530
 1.0970	40.8520
 1.0980	40.8490
 1.0990	40.8460
 1.1000	40.8440
 1.1010	40.8400
 1.1020	40.8370
 1.1030	40.8330
 1.1040	40.8290
 1.1050	40.8270
 1.1060	40.8250
 1.1070	40.8260
 1.1080	40.8240
 1.1090	40.8210
 1.1100	40.8160
 1.1110	40.8090
 1.1120	40.8040
 1.1130	40.8010
 1.1140	40.7960
 1.1150	40.7920
 1.1160	40.7870
 1.1170	40.7820
 1.1180	40.7760
 1.1190	40.7710
 1.1200	40.7650
 1.1210	40.7570
 1.1220	40.7480
 1.1230	40.7380
 1.1240	40.7240
 1.1250	40.7120
 1.1260	40.7020
 1.1270	40.6860
 1.1280	40.6690
 1.1290	40.6490
 1.1300	40.6240
 1.1310	40.5990
 1.1320	40.5740
 1.1330	40.5450
 1.1340	40.5130
 1.1350	40.4790
 1.1360	40.4420
 1.1370	40.4030
 1.1380	40.3630
 1.1390	40.3200
 1.1400	40.2750
 1.1410	40.2290
 1.1420	40.1840
 1.1430	40.1370
 1.1440	40.0890
 1.1450	40.0390
 1.1460	39.9910
 1.1470	39.9410
 1.1480	39.8960
 1.1490	39.8520
 1.1500	39.8110
 1.1510	39.7720
 1.1520	39.7350
 1.1530	39.6990
 1.1540	39.6660
 1.1550	39.6340
 1.1560	39.6040
 1.1570	39.5800
 1.1580	39.5590
 1.1590	39.5390
 1.1600	39.5190
 1.1610	39.4990
 1.1620	39.4820
 1.1630	39.4690
 1.1640	39.4570
 1.1650	39.4460
 1.1660	39.4380
 1.1670	39.4280
 1.1680	39.4190
 1.1690	39.4100
 1.1700	39.4020
 1.1710	39.3950
 1.1720	39.3890
 1.1730	39.3820
 1.1740	39.3760
 1.1750	39.3700
 1.1760	39.3630
 1.1770	39.3540
 1.1780	39.3450
 1.1790	39.3350
 1.1800	39.3260
 1.1810	39.3190
 1.1820	39.3110
 1.1830	39.3030
 1.1840	39.2940
 1.1850	39.2840
 1.1860	39.2740
 1.1870	39.2660
 1.1880	39.2590
 1.1890	39.2520
 1.1900	39.2450
 1.1910	39.2380
 1.1920	39.2320
 1.1930	39.2270
 1.1940	39.2220
 1.1950	39.2180
 1.1960	39.2140
 1.1970	39.2090
 1.1980	39.2050
 1.1990	39.2020
 1.2000	39.1990
 1.2010	39.1980
 1.2020	39.1970
 1.2030	39.1950
 1.2040	39.1960
 1.2050	39.1950
 1.2060	39.1940
 1.2070	39.1940
 1.2080	39.1940
 1.2090	39.1950
 1.2100	39.1970
 1.2110	39.1990
 1.2120	39.2010
 1.2130	39.2040
 1.2140	39.2060
 1.2150	39.2100
 1.2160	39.2150
 1.2170	39.2180
 1.2180	39.2210
 1.2190	39.2260
 1.2200	39.2300
 1.2210	39.2360
 1.2220	39.2410
 1.2230	39.2470
 1.2240	39.2530
 1.2250	39.2580
 1.2260	39.2620
 1.2270	39.2660
 1.2280	39.2690
 1.2290	39.2720
 1.2300	39.2770
 1.2310	39.2820
 1.2320	39.2870
 1.2330	39.2910
 1.2340	39.2940
 1.2350	39.2970
 1.2360	39.2990
 1.2370	39.3010
 1.2380	39.3050
 1.2390	39.3080
 1.2400	39.3110
 1.2410	39.3150
 1.2420	39.3180
 1.2430	39.3190
 1.2440	39.3200
 1.2450	39.3210
 1.2460	39.3220
 1.2470	39.3240
 1.2480	39.3260
 1.2490	39.3270
 1.2500	39.3270
 1.2510	39.3260
 1.2520	39.3250
 1.2530	39.3250
 1.2540	39.3250
 1.2550	39.3250
 1.2560	39.3240
 1.2570	39.3230
 1.2580	39.3210
 1.2590	39.3190
 1.2600	39.3160
 1.2610	39.3130
 1.2620	39.3080
 1.2630	39.3050
 1.2640	39.3000
 1.2650	39.2950
 1.2660	39.2920
 1.2670	39.2860
 1.2680	39.2800
 1.2690	39.2750
 1.2700	39.2660
 1.2710	39.2590
 1.2720	39.2530
 1.2730	39.2460
 1.2740	39.2410
 1.2750	39.2360
 1.2760	39.2290
 1.2770	39.2200
 1.2780	39.2110
 1.2790	39.2020
 1.2800	39.1920
 1.2810	39.1830
 1.2820	39.1730
 1.2830	39.1640
 1.2840	39.1550
 1.2850	39.1440
 1.2860	39.1340
 1.2870	39.1220
 1.2880	39.1090
 1.2890	39.0950
 1.2900	39.0800
 1.2910	39.0640
 1.2920	39.0460
 1.2930	39.0280
 1.2940	39.0080
 1.2950	38.9880
 1.2960	38.9690
 1.2970	38.9490
 1.2980	38.9280
 1.2990	38.9070
 1.3000	38.8850
 1.3010	38.8630
 1.3020	38.8390
 1.3030	38.8140
 1.3040	38.7880
 1.3050	38.7610
 1.3060	38.7320
 1.3070	38.7040
 1.3080	38.6740
 1.3090	38.6420
 1.3100	38.6100
 1.3110	38.5780
 1.3120	38.5440
 1.3130	38.5100
 1.3140	38.4740
 1.3150	38.4360
 1.3160	38.3990
 1.3170	38.3610
 1.3180	38.3240
 1.3190	38.2840
 1.3200	38.2440
 1.3210	38.2020
 1.3220	38.1580
 1.3230	38.1140
 1.3240	38.0710
 1.3250	38.0250
 1.3260	37.9780
 1.3270	37.9290
 1.3280	37.8790
 1.3290	37.8300
 1.3300	37.7810
 1.3310	37.7300
 1.3320	37.6780
 1.3330	37.6260
 1.3340	37.5730
 1.3350	37.5200
 1.3360	37.4670
 1.3370	37.4120
 1.3380	37.3570
 1.3390	37.3020
 1.3400	37.2470
 1.3410	37.1930
 1.3420	37.1390
 1.3430	37.0830
 1.3440	37.0290
 1.3450	36.9740
 1.3460	36.9190
 1.3470	36.8650
 1.3480	36.8120
 1.3490	36.7580
 1.3500	36.7050
 1.3510	36.6510
 1.3520	36.5970
 1.3530	36.5410
 1.3540	36.4850
 1.3550	36.4300
 1.3560	36.3740
 1.3570	36.3180
 1.3580	36.2610
 1.3590	36.2020
 1.3600	36.1410
 1.3610	36.0790
 1.3620	36.0130
 1.3630	35.9450
 1.3640	35.8760
 1.3650	35.8000
 1.3660	35.7240
 1.3670	35.6440
 1.3680	35.5580
 1.3690	35.4690
 1.3700	35.3710
 1.3710	35.2670
 1.3720	35.1550
 1.3730	35.0340
 1.3740	34.9050
 1.3750	34.7660
 1.3760	34.6140
 1.3770	34.4510
 1.3780	34.2730
 1.3790	34.0800
 1.3800	33.8750
 1.3810	33.6520
 1.3820	33.4150
 1.3830	33.1640
 1.3840	32.8980
 1.3850	32.6170
 1.3860	32.3240
 1.3870	32.0160
 1.3880	31.6980
 1.3890	31.3680
 1.3900	31.0260
 1.3910	30.6780
 1.3920	30.3190
 1.3930	29.9540
 1.3940	29.5840
 1.3950	29.2050
 1.3960	28.8250
 1.3970	28.4460
 1.3980	28.0690
 1.3990	27.7000
 1.4000	27.3360
 1.4010	26.9760
 1.4020	26.6270
 1.4030	26.2850
 1.4040	25.9550
 1.4050	25.6390
 1.4060	25.3340
 1.4070	25.0440
 1.4080	24.7690
 1.4090	24.5060
 1.4100	24.2590
 1.4110	24.0260
 1.4120	23.8080
 1.4130	23.6040
 1.4140	23.4130
 1.4150	23.2370
 1.4160	23.0730
 1.4170	22.9220
 1.4180	22.7830
 1.4190	22.6540
 1.4200	22.5340
 1.4210	22.4250
 1.4220	22.3250
 1.4230	22.2340
 1.4240	22.1510
 1.4250	22.0760
 1.4260	22.0100
 1.4270	21.9490
 1.4280	21.8960
 1.4290	21.8480
 1.4300	21.8080
 1.4310	21.7730
 1.4320	21.7430
 1.4330	21.7180
 1.4340	21.6980
 1.4350	21.6810
 1.4360	21.6690
 1.4370	21.6600
 1.4380	21.6560
 1.4390	21.6550
 1.4400	21.6560
 1.4410	21.6610
 1.4420	21.6670
 1.4430	21.6750
 1.4440	21.6850
 1.4450	21.6970
 1.4460	21.7100
 1.4470	21.7250
 1.4480	21.7410
 1.4490	21.7570
 1.4500	21.7760
 1.4510	21.7950
 1.4520	21.8160
 1.4530	21.8380
 1.4540	21.8600
 1.4550	21.8840
 1.4560	21.9110
 1.4570	21.9390
 1.4580	21.9700
 1.4590	22.0050
 1.4600	22.0430
 1.4610	22.0840
 1.4620	22.1280
 1.4630	22.1780
 1.4640	22.2310
 1.4650	22.2880
 1.4660	22.3500
 1.4670	22.4150
 1.4680	22.4840
 1.4690	22.5580
 1.4700	22.6350
 1.4710	22.7150
 1.4720	22.8000
 1.4730	22.8870
 1.4740	22.9770
 1.4750	23.0690
 1.4760	23.1630
 1.4770	23.2590
