Name: Magnolia grandiflora
Type: vegetation
Class: Tree
Genus: Magnolia
Species: grandiflora
Sample No.: JPL116
Owner: JPL
Wavelength Range: VSWIR
Origin: 34.12659; -118.11347;; WGS84
Collection Date: 9/7/2016
Description: Samples were collected at the Huntington Garden in San Marino California as part of a JPL Subcontract studying HyTES imagery. Samples were taken to JPL and processed within 48 hours of collection. The same leaves were processed in the Nicolet and then measured using the ASD.
Measurement: Bidirectional reflectance
First Column: X
Second Column: Y
X Units: Wavelength (micrometer)
Y Units: Reflectance (percentage)
First X Value: 0.35
Last X Value: 2.5
Number of X Values: 2151
Additional Information: vegetation.tree.magnolia.grandiflora.vswir.jpl116.jpl.asd.ancillary.txt

 0.3500	11.4570
 0.3510	11.3440
 0.3520	11.3200
 0.3530	11.3320
 0.3540	11.3190
 0.3550	11.2590
 0.3560	11.2330
 0.3570	11.2100
 0.3580	11.1220
 0.3590	11.1230
 0.3600	11.1690
 0.3610	11.1940
 0.3620	11.1320
 0.3630	11.0560
 0.3640	11.0310
 0.3650	11.0750
 0.3660	11.0670
 0.3670	11.0310
 0.3680	10.9870
 0.3690	10.9590
 0.3700	10.9940
 0.3710	11.0020
 0.3720	10.9510
 0.3730	10.9420
 0.3740	10.9230
 0.3750	10.9050
 0.3760	10.9090
 0.3770	10.8980
 0.3780	10.8830
 0.3790	10.8880
 0.3800	10.9390
 0.3810	10.9280
 0.3820	10.8770
 0.3830	10.8370
 0.3840	10.8720
 0.3850	10.8630
 0.3860	10.8260
 0.3870	10.8190
 0.3880	10.8060
 0.3890	10.7990
 0.3900	10.7990
 0.3910	10.7950
 0.3920	10.7960
 0.3930	10.7860
 0.3940	10.7580
 0.3950	10.7620
 0.3960	10.7390
 0.3970	10.7100
 0.3980	10.7210
 0.3990	10.7290
 0.4000	10.7310
 0.4010	10.7240
 0.4020	10.7010
 0.4030	10.6870
 0.4040	10.6760
 0.4050	10.6630
 0.4060	10.6950
 0.4070	10.7180
 0.4080	10.7260
 0.4090	10.7420
 0.4100	10.7730
 0.4110	10.7960
 0.4120	10.8020
 0.4130	10.8160
 0.4140	10.8270
 0.4150	10.8410
 0.4160	10.8680
 0.4170	10.9030
 0.4180	10.9260
 0.4190	10.9380
 0.4200	10.9520
 0.4210	10.9840
 0.4220	11.0190
 0.4230	11.0450
 0.4240	11.0640
 0.4250	11.0940
 0.4260	11.1270
 0.4270	11.1500
 0.4280	11.1760
 0.4290	11.1970
 0.4300	11.2080
 0.4310	11.2060
 0.4320	11.2010
 0.4330	11.2010
 0.4340	11.2100
 0.4350	11.2170
 0.4360	11.2260
 0.4370	11.2480
 0.4380	11.2980
 0.4390	11.3480
 0.4400	11.3980
 0.4410	11.4490
 0.4420	11.4960
 0.4430	11.5270
 0.4440	11.5430
 0.4450	11.5550
 0.4460	11.5770
 0.4470	11.6030
 0.4480	11.6280
 0.4490	11.6450
 0.4500	11.6590
 0.4510	11.6720
 0.4520	11.6880
 0.4530	11.7110
 0.4540	11.7270
 0.4550	11.7400
 0.4560	11.7620
 0.4570	11.7780
 0.4580	11.7890
 0.4590	11.7980
 0.4600	11.8090
 0.4610	11.8190
 0.4620	11.8270
 0.4630	11.8340
 0.4640	11.8490
 0.4650	11.8600
 0.4660	11.8640
 0.4670	11.8750
 0.4680	11.8820
 0.4690	11.8890
 0.4700	11.8980
 0.4710	11.9040
 0.4720	11.9080
 0.4730	11.9110
 0.4740	11.9130
 0.4750	11.9250
 0.4760	11.9350
 0.4770	11.9370
 0.4780	11.9410
 0.4790	11.9440
 0.4800	11.9460
 0.4810	11.9500
 0.4820	11.9480
 0.4830	11.9410
 0.4840	11.9320
 0.4850	11.9270
 0.4860	11.9310
 0.4870	11.9370
 0.4880	11.9430
 0.4890	11.9620
 0.4900	11.9910
 0.4910	12.0220
 0.4920	12.0490
 0.4930	12.0820
 0.4940	12.1210
 0.4950	12.1650
 0.4960	12.2080
 0.4970	12.2530
 0.4980	12.3040
 0.4990	12.3630
 0.5000	12.4220
 0.5010	12.4850
 0.5020	12.5520
 0.5030	12.6240
 0.5040	12.7040
 0.5050	12.7910
 0.5060	12.8840
 0.5070	12.9840
 0.5080	13.0930
 0.5090	13.2120
 0.5100	13.3430
 0.5110	13.4830
 0.5120	13.6320
 0.5130	13.7930
 0.5140	13.9710
 0.5150	14.1590
 0.5160	14.3610
 0.5170	14.5790
 0.5180	14.7960
 0.5190	15.0270
 0.5200	15.2700
 0.5210	15.5080
 0.5220	15.7560
 0.5230	16.0070
 0.5240	16.2530
 0.5250	16.4920
 0.5260	16.7220
 0.5270	16.9440
 0.5280	17.1590
 0.5290	17.3570
 0.5300	17.5390
 0.5310	17.7080
 0.5320	17.8700
 0.5330	18.0120
 0.5340	18.1400
 0.5350	18.2570
 0.5360	18.3600
 0.5370	18.4460
 0.5380	18.5130
 0.5390	18.5630
 0.5400	18.5830
 0.5410	18.5750
 0.5420	18.5560
 0.5430	18.5610
 0.5440	18.5980
 0.5450	18.6710
 0.5460	18.7730
 0.5470	18.8840
 0.5480	18.9840
 0.5490	19.0610
 0.5500	19.1170
 0.5510	19.1540
 0.5520	19.1790
 0.5530	19.1960
 0.5540	19.2000
 0.5550	19.1840
 0.5560	19.1470
 0.5570	19.0970
 0.5580	19.0310
 0.5590	18.9470
 0.5600	18.8450
 0.5610	18.7330
 0.5620	18.6080
 0.5630	18.4750
 0.5640	18.3380
 0.5650	18.1960
 0.5660	18.0490
 0.5670	17.8960
 0.5680	17.7360
 0.5690	17.5820
 0.5700	17.4310
 0.5710	17.2810
 0.5720	17.1390
 0.5730	17.0020
 0.5740	16.8750
 0.5750	16.7640
 0.5760	16.6680
 0.5770	16.5850
 0.5780	16.5080
 0.5790	16.4250
 0.5800	16.3460
 0.5810	16.2700
 0.5820	16.1900
 0.5830	16.1100
 0.5840	16.0420
 0.5850	15.9850
 0.5860	15.9260
 0.5870	15.8540
 0.5880	15.7750
 0.5890	15.6980
 0.5900	15.6330
 0.5910	15.5780
 0.5920	15.5330
 0.5930	15.4990
 0.5940	15.4750
 0.5950	15.4600
 0.5960	15.4510
 0.5970	15.4360
 0.5980	15.4200
 0.5990	15.4030
 0.6000	15.3850
 0.6010	15.3710
 0.6020	15.3500
 0.6030	15.3200
 0.6040	15.2800
 0.6050	15.2320
 0.6060	15.1740
 0.6070	15.1070
 0.6080	15.0380
 0.6090	14.9360
 0.6100	14.7920
 0.6110	14.6250
 0.6120	14.5620
 0.6130	14.5590
 0.6140	14.5630
 0.6150	14.5260
 0.6160	14.4890
 0.6170	14.4510
 0.6180	14.4050
 0.6190	14.3580
 0.6200	14.3140
 0.6210	14.2790
 0.6220	14.2540
 0.6230	14.2360
 0.6240	14.2210
 0.6250	14.2090
 0.6260	14.2040
 0.6270	14.1990
 0.6280	14.1930
 0.6290	14.1840
 0.6300	14.1670
 0.6310	14.1560
 0.6320	14.1530
 0.6330	14.1500
 0.6340	14.1340
 0.6350	14.1060
 0.6360	14.0680
 0.6370	14.0250
 0.6380	13.9740
 0.6390	13.9150
 0.6400	13.8510
 0.6410	13.7870
 0.6420	13.7220
 0.6430	13.6550
 0.6440	13.5890
 0.6450	13.5210
 0.6460	13.4570
 0.6470	13.4000
 0.6480	13.3500
 0.6490	13.3030
 0.6500	13.2620
 0.6510	13.2290
 0.6520	13.2050
 0.6530	13.1850
 0.6540	13.1630
 0.6550	13.1360
 0.6560	13.1040
 0.6570	13.0690
 0.6580	13.0320
 0.6590	12.9930
 0.6600	12.9490
 0.6610	12.9020
 0.6620	12.8570
 0.6630	12.8130
 0.6640	12.7740
 0.6650	12.7400
 0.6660	12.7070
 0.6670	12.6800
 0.6680	12.6600
 0.6690	12.6490
 0.6700	12.6410
 0.6710	12.6380
 0.6720	12.6400
 0.6730	12.6470
 0.6740	12.6580
 0.6750	12.6750
 0.6760	12.7000
 0.6770	12.7270
 0.6780	12.7570
 0.6790	12.7930
 0.6800	12.8360
 0.6810	12.8890
 0.6820	12.9530
 0.6830	13.0290
 0.6840	13.1210
 0.6850	13.2270
 0.6860	13.3530
 0.6870	13.5040
 0.6880	13.6800
 0.6890	13.8920
 0.6900	14.1480
 0.6910	14.4550
 0.6920	14.8220
 0.6930	15.2500
 0.6940	15.7480
 0.6950	16.3260
 0.6960	16.9750
 0.6970	17.6940
 0.6980	18.4850
 0.6990	19.3390
 0.7000	20.2510
 0.7010	21.2120
 0.7020	22.2070
 0.7030	23.2360
 0.7040	24.2840
 0.7050	25.3410
 0.7060	26.4030
 0.7070	27.4700
 0.7080	28.5440
 0.7090	29.6260
 0.7100	30.7150
 0.7110	31.8070
 0.7120	32.8990
 0.7130	33.9940
 0.7140	35.0900
 0.7150	36.1860
 0.7160	37.2810
 0.7170	38.3760
 0.7180	39.4600
 0.7190	40.5360
 0.7200	41.6100
 0.7210	42.6670
 0.7220	43.7070
 0.7230	44.7270
 0.7240	45.7270
 0.7250	46.7070
 0.7260	47.6590
 0.7270	48.5790
 0.7280	49.4630
 0.7290	50.3180
 0.7300	51.1420
 0.7310	51.9270
 0.7320	52.6760
 0.7330	53.3900
 0.7340	54.0690
 0.7350	54.7120
 0.7360	55.3230
 0.7370	55.9020
 0.7380	56.4450
 0.7390	56.9490
 0.7400	57.4270
 0.7410	57.8770
 0.7420	58.2920
 0.7430	58.6800
 0.7440	59.0360
 0.7450	59.3620
 0.7460	59.6650
 0.7470	59.9380
 0.7480	60.1900
 0.7490	60.4270
 0.7500	60.6340
 0.7510	60.8260
 0.7520	61.0010
 0.7530	61.1550
 0.7540	61.3000
 0.7550	61.4310
 0.7560	61.5470
 0.7570	61.6500
 0.7580	61.7440
 0.7590	61.8310
 0.7600	61.9090
 0.7610	61.9780
 0.7620	62.0350
 0.7630	62.0860
 0.7640	62.1370
 0.7650	62.1810
 0.7660	62.2200
 0.7670	62.2550
 0.7680	62.2820
 0.7690	62.3090
 0.7700	62.3320
 0.7710	62.3530
 0.7720	62.3740
 0.7730	62.3920
 0.7740	62.4100
 0.7750	62.4300
 0.7760	62.4430
 0.7770	62.4560
 0.7780	62.4720
 0.7790	62.4880
 0.7800	62.5000
 0.7810	62.5100
 0.7820	62.5200
 0.7830	62.5280
 0.7840	62.5360
 0.7850	62.5460
 0.7860	62.5610
 0.7870	62.5740
 0.7880	62.5860
 0.7890	62.5980
 0.7900	62.6100
 0.7910	62.6150
 0.7920	62.6200
 0.7930	62.6300
 0.7940	62.6380
 0.7950	62.6480
 0.7960	62.6550
 0.7970	62.6600
 0.7980	62.6720
 0.7990	62.6790
 0.8000	62.6840
 0.8010	62.6900
 0.8020	62.7030
 0.8030	62.7080
 0.8040	62.7090
 0.8050	62.7160
 0.8060	62.7210
 0.8070	62.7230
 0.8080	62.7250
 0.8090	62.7280
 0.8100	62.7340
 0.8110	62.7400
 0.8120	62.7450
 0.8130	62.7520
 0.8140	62.7530
 0.8150	62.7550
 0.8160	62.7620
 0.8170	62.7690
 0.8180	62.7740
 0.8190	62.7770
 0.8200	62.7780
 0.8210	62.7830
 0.8220	62.7860
 0.8230	62.7880
 0.8240	62.7920
 0.8250	62.7950
 0.8260	62.7970
 0.8270	62.7990
 0.8280	62.7990
 0.8290	62.8000
 0.8300	62.8030
 0.8310	62.8040
 0.8320	62.8010
 0.8330	62.8030
 0.8340	62.8080
 0.8350	62.8060
 0.8360	62.8100
 0.8370	62.8180
 0.8380	62.8250
 0.8390	62.8300
 0.8400	62.8380
 0.8410	62.8450
 0.8420	62.8510
 0.8430	62.8640
 0.8440	62.8730
 0.8450	62.8820
 0.8460	62.8910
 0.8470	62.8930
 0.8480	62.9040
 0.8490	62.9170
 0.8500	62.9220
 0.8510	62.9270
 0.8520	62.9330
 0.8530	62.9380
 0.8540	62.9420
 0.8550	62.9540
 0.8560	62.9640
 0.8570	62.9710
 0.8580	62.9780
 0.8590	62.9810
 0.8600	62.9890
 0.8610	63.0040
 0.8620	63.0140
 0.8630	63.0220
 0.8640	63.0290
 0.8650	63.0330
 0.8660	63.0330
 0.8670	63.0330
 0.8680	63.0380
 0.8690	63.0480
 0.8700	63.0520
 0.8710	63.0550
 0.8720	63.0590
 0.8730	63.0640
 0.8740	63.0730
 0.8750	63.0800
 0.8760	63.0830
 0.8770	63.0910
 0.8780	63.0940
 0.8790	63.0950
 0.8800	63.0980
 0.8810	63.0970
 0.8820	63.1010
 0.8830	63.1080
 0.8840	63.1100
 0.8850	63.1080
 0.8860	63.1110
 0.8870	63.1120
 0.8880	63.1060
 0.8890	63.1100
 0.8900	63.1140
 0.8910	63.1150
 0.8920	63.1180
 0.8930	63.1160
 0.8940	63.1160
 0.8950	63.1180
 0.8960	63.1160
 0.8970	63.1160
 0.8980	63.1160
 0.8990	63.1140
 0.9000	63.1120
 0.9010	63.1130
 0.9020	63.1150
 0.9030	63.1170
 0.9040	63.1160
 0.9050	63.1170
 0.9060	63.1140
 0.9070	63.1050
 0.9080	63.1070
 0.9090	63.0980
 0.9100	63.0930
 0.9110	63.0980
 0.9120	63.0890
 0.9130	63.0830
 0.9140	63.0790
 0.9150	63.0730
 0.9160	63.0630
 0.9170	63.0570
 0.9180	63.0570
 0.9190	63.0590
 0.9200	63.0490
 0.9210	63.0340
 0.9220	63.0200
 0.9230	63.0050
 0.9240	62.9860
 0.9250	62.9690
 0.9260	62.9510
 0.9270	62.9240
 0.9280	62.8980
 0.9290	62.8750
 0.9300	62.8510
 0.9310	62.8190
 0.9320	62.7860
 0.9330	62.7510
 0.9340	62.7150
 0.9350	62.6760
 0.9360	62.6400
 0.9370	62.6060
 0.9380	62.5690
 0.9390	62.5150
 0.9400	62.4650
 0.9410	62.4220
 0.9420	62.3800
 0.9430	62.3220
 0.9440	62.2610
 0.9450	62.2020
 0.9460	62.1400
 0.9470	62.0710
 0.9480	61.9930
 0.9490	61.9100
 0.9500	61.8240
 0.9510	61.7240
 0.9520	61.6260
 0.9530	61.5280
 0.9540	61.4250
 0.9550	61.3240
 0.9560	61.2310
 0.9570	61.1460
 0.9580	61.0650
 0.9590	60.9810
 0.9600	60.9060
 0.9610	60.8330
 0.9620	60.7620
 0.9630	60.7240
 0.9640	60.6830
 0.9650	60.6420
 0.9660	60.6140
 0.9670	60.5870
 0.9680	60.5650
 0.9690	60.5470
 0.9700	60.5330
 0.9710	60.5160
 0.9720	60.5040
 0.9730	60.4960
 0.9740	60.4870
 0.9750	60.4720
 0.9760	60.4750
 0.9770	60.4870
 0.9780	60.4850
 0.9790	60.4860
 0.9800	60.5010
 0.9810	60.5210
 0.9820	60.5260
 0.9830	60.5280
 0.9840	60.5350
 0.9850	60.5500
 0.9860	60.5710
 0.9870	60.5860
 0.9880	60.6060
 0.9890	60.6300
 0.9900	60.6550
 0.9910	60.7030
 0.9920	60.7440
 0.9930	60.7720
 0.9940	60.7990
 0.9950	60.8410
 0.9960	60.8710
 0.9970	60.9020
 0.9980	60.9530
 0.9990	60.9890
 1.0000	61.0120
 1.0010	62.4570
 1.0020	62.4990
 1.0030	62.5420
 1.0040	62.5920
 1.0050	62.6410
 1.0060	62.6840
 1.0070	62.7260
 1.0080	62.7670
 1.0090	62.8030
 1.0100	62.8430
 1.0110	62.8820
 1.0120	62.9250
 1.0130	62.9750
 1.0140	63.0180
 1.0150	63.0590
 1.0160	63.1040
 1.0170	63.1470
 1.0180	63.1880
 1.0190	63.2350
 1.0200	63.2810
 1.0210	63.3190
 1.0220	63.3620
 1.0230	63.4020
 1.0240	63.4400
 1.0250	63.4800
 1.0260	63.5230
 1.0270	63.5610
 1.0280	63.5960
 1.0290	63.6330
 1.0300	63.6680
 1.0310	63.7050
 1.0320	63.7460
 1.0330	63.7860
 1.0340	63.8170
 1.0350	63.8470
 1.0360	63.8820
 1.0370	63.9120
 1.0380	63.9440
 1.0390	63.9800
 1.0400	64.0140
 1.0410	64.0450
 1.0420	64.0740
 1.0430	64.1030
 1.0440	64.1310
 1.0450	64.1570
 1.0460	64.1790
 1.0470	64.2000
 1.0480	64.2210
 1.0490	64.2370
 1.0500	64.2550
 1.0510	64.2730
 1.0520	64.2950
 1.0530	64.3140
 1.0540	64.3330
 1.0550	64.3490
 1.0560	64.3630
 1.0570	64.3740
 1.0580	64.3790
 1.0590	64.3870
 1.0600	64.3930
 1.0610	64.4020
 1.0620	64.4190
 1.0630	64.4280
 1.0640	64.4380
 1.0650	64.4450
 1.0660	64.4450
 1.0670	64.4450
 1.0680	64.4440
 1.0690	64.4420
 1.0700	64.4410
 1.0710	64.4410
 1.0720	64.4370
 1.0730	64.4330
 1.0740	64.4290
 1.0750	64.4230
 1.0760	64.4160
 1.0770	64.4110
 1.0780	64.4050
 1.0790	64.3970
 1.0800	64.3890
 1.0810	64.3830
 1.0820	64.3750
 1.0830	64.3690
 1.0840	64.3590
 1.0850	64.3460
 1.0860	64.3360
 1.0870	64.3230
 1.0880	64.3080
 1.0890	64.2930
 1.0900	64.2770
 1.0910	64.2620
 1.0920	64.2460
 1.0930	64.2300
 1.0940	64.2130
 1.0950	64.1970
 1.0960	64.1790
 1.0970	64.1620
 1.0980	64.1460
 1.0990	64.1290
 1.1000	64.1110
 1.1010	64.0940
 1.1020	64.0760
 1.1030	64.0590
 1.1040	64.0400
 1.1050	64.0210
 1.1060	64.0000
 1.1070	63.9760
 1.1080	63.9560
 1.1090	63.9380
 1.1100	63.9160
 1.1110	63.8950
 1.1120	63.8710
 1.1130	63.8420
 1.1140	63.8160
 1.1150	63.7950
 1.1160	63.7680
 1.1170	63.7410
 1.1180	63.7070
 1.1190	63.6680
 1.1200	63.6260
 1.1210	63.5820
 1.1220	63.5320
 1.1230	63.4790
 1.1240	63.4190
 1.1250	63.3480
 1.1260	63.2700
 1.1270	63.1810
 1.1280	63.0840
 1.1290	62.9740
 1.1300	62.8560
 1.1310	62.7230
 1.1320	62.5760
 1.1330	62.4210
 1.1340	62.2550
 1.1350	62.0760
 1.1360	61.8870
 1.1370	61.6870
 1.1380	61.4760
 1.1390	61.2540
 1.1400	61.0250
 1.1410	60.7960
 1.1420	60.5620
 1.1430	60.3270
 1.1440	60.0960
 1.1450	59.8650
 1.1460	59.6390
 1.1470	59.4120
 1.1480	59.1980
 1.1490	58.9850
 1.1500	58.7910
 1.1510	58.6080
 1.1520	58.4370
 1.1530	58.2810
 1.1540	58.1350
 1.1550	57.9980
 1.1560	57.8760
 1.1570	57.7650
 1.1580	57.6640
 1.1590	57.5760
 1.1600	57.4940
 1.1610	57.4190
 1.1620	57.3530
 1.1630	57.2940
 1.1640	57.2410
 1.1650	57.1930
 1.1660	57.1520
 1.1670	57.1130
 1.1680	57.0760
 1.1690	57.0440
 1.1700	57.0170
 1.1710	56.9890
 1.1720	56.9620
 1.1730	56.9360
 1.1740	56.9100
 1.1750	56.8840
 1.1760	56.8570
 1.1770	56.8310
 1.1780	56.8020
 1.1790	56.7730
 1.1800	56.7460
 1.1810	56.7180
 1.1820	56.6900
 1.1830	56.6600
 1.1840	56.6290
 1.1850	56.6010
 1.1860	56.5710
 1.1870	56.5430
 1.1880	56.5190
 1.1890	56.4980
 1.1900	56.4790
 1.1910	56.4640
 1.1920	56.4500
 1.1930	56.4350
 1.1940	56.4250
 1.1950	56.4170
 1.1960	56.4120
 1.1970	56.4130
 1.1980	56.4180
 1.1990	56.4240
 1.2000	56.4340
 1.2010	56.4460
 1.2020	56.4620
 1.2030	56.4820
 1.2040	56.5040
 1.2050	56.5280
 1.2060	56.5540
 1.2070	56.5810
 1.2080	56.6120
 1.2090	56.6450
 1.2100	56.6780
 1.2110	56.7140
 1.2120	56.7500
 1.2130	56.7890
 1.2140	56.8310
 1.2150	56.8740
 1.2160	56.9190
 1.2170	56.9640
 1.2180	57.0110
 1.2190	57.0570
 1.2200	57.1020
 1.2210	57.1510
 1.2220	57.2010
 1.2230	57.2480
 1.2240	57.2980
 1.2250	57.3470
 1.2260	57.3950
 1.2270	57.4440
 1.2280	57.4910
 1.2290	57.5370
 1.2300	57.5810
 1.2310	57.6220
 1.2320	57.6650
 1.2330	57.7060
 1.2340	57.7460
 1.2350	57.7840
 1.2360	57.8230
 1.2370	57.8620
 1.2380	57.8980
 1.2390	57.9360
 1.2400	57.9730
 1.2410	58.0060
 1.2420	58.0390
 1.2430	58.0700
 1.2440	58.1010
 1.2450	58.1310
 1.2460	58.1630
 1.2470	58.1940
 1.2480	58.2230
 1.2490	58.2520
 1.2500	58.2790
 1.2510	58.3030
 1.2520	58.3260
 1.2530	58.3480
 1.2540	58.3680
 1.2550	58.3870
 1.2560	58.4050
 1.2570	58.4220
 1.2580	58.4370
 1.2590	58.4520
 1.2600	58.4670
 1.2610	58.4780
 1.2620	58.4870
 1.2630	58.4960
 1.2640	58.5030
 1.2650	58.5080
 1.2660	58.5150
 1.2670	58.5210
 1.2680	58.5230
 1.2690	58.5200
 1.2700	58.5160
 1.2710	58.5090
 1.2720	58.5040
 1.2730	58.5000
 1.2740	58.4920
 1.2750	58.4820
 1.2760	58.4670
 1.2770	58.4500
 1.2780	58.4290
 1.2790	58.4040
 1.2800	58.3790
 1.2810	58.3540
 1.2820	58.3260
 1.2830	58.2960
 1.2840	58.2630
 1.2850	58.2260
 1.2860	58.1870
 1.2870	58.1430
 1.2880	58.0950
 1.2890	58.0430
 1.2900	57.9870
 1.2910	57.9260
 1.2920	57.8610
 1.2930	57.7940
 1.2940	57.7210
 1.2950	57.6430
 1.2960	57.5620
 1.2970	57.4780
 1.2980	57.3900
 1.2990	57.2970
 1.3000	57.2000
 1.3010	57.1000
 1.3020	56.9960
 1.3030	56.8890
 1.3040	56.7780
 1.3050	56.6650
 1.3060	56.5470
 1.3070	56.4250
 1.3080	56.2980
 1.3090	56.1680
 1.3100	56.0320
 1.3110	55.8940
 1.3120	55.7530
 1.3130	55.6070
 1.3140	55.4570
 1.3150	55.3040
 1.3160	55.1450
 1.3170	54.9830
 1.3180	54.8170
 1.3190	54.6470
 1.3200	54.4740
 1.3210	54.2960
 1.3220	54.1140
 1.3230	53.9280
 1.3240	53.7380
 1.3250	53.5480
 1.3260	53.3560
 1.3270	53.1590
 1.3280	52.9620
 1.3290	52.7580
 1.3300	52.5520
 1.3310	52.3460
 1.3320	52.1360
 1.3330	51.9280
 1.3340	51.7190
 1.3350	51.5080
 1.3360	51.3000
 1.3370	51.0910
 1.3380	50.8830
 1.3390	50.6780
 1.3400	50.4700
 1.3410	50.2660
 1.3420	50.0650
 1.3430	49.8660
 1.3440	49.6730
 1.3450	49.4810
 1.3460	49.2900
 1.3470	49.1020
 1.3480	48.9130
 1.3490	48.7310
 1.3500	48.5530
 1.3510	48.3770
 1.3520	48.2020
 1.3530	48.0300
 1.3540	47.8570
 1.3550	47.6820
 1.3560	47.5090
 1.3570	47.3320
 1.3580	47.1540
 1.3590	46.9720
 1.3600	46.7840
 1.3610	46.5920
 1.3620	46.3910
 1.3630	46.1820
 1.3640	45.9660
 1.3650	45.7380
 1.3660	45.5020
 1.3670	45.2540
 1.3680	44.9900
 1.3690	44.7090
 1.3700	44.4090
 1.3710	44.0910
 1.3720	43.7550
 1.3730	43.3960
 1.3740	43.0190
 1.3750	42.6170
 1.3760	42.1850
 1.3770	41.7270
 1.3780	41.2340
 1.3790	40.7120
 1.3800	40.1640
 1.3810	39.5840
 1.3820	38.9830
 1.3830	38.3570
 1.3840	37.7110
 1.3850	37.0390
 1.3860	36.3600
 1.3870	35.6570
 1.3880	34.9590
 1.3890	34.2520
 1.3900	33.5410
 1.3910	32.8390
 1.3920	32.1390
 1.3930	31.4440
 1.3940	30.7650
 1.3950	30.0920
 1.3960	29.4400
 1.3970	28.8120
 1.3980	28.2040
 1.3990	27.6290
 1.4000	27.0790
 1.4010	26.5510
 1.4020	26.0560
 1.4030	25.5840
 1.4040	25.1400
 1.4050	24.7270
 1.4060	24.3380
 1.4070	23.9800
 1.4080	23.6470
 1.4090	23.3350
 1.4100	23.0470
 1.4110	22.7800
 1.4120	22.5320
 1.4130	22.3050
 1.4140	22.0940
 1.4150	21.9010
 1.4160	21.7230
 1.4170	21.5590
 1.4180	21.4100
 1.4190	21.2700
 1.4200	21.1420
 1.4210	21.0240
 1.4220	20.9150
 1.4230	20.8160
 1.4240	20.7250
 1.4250	20.6410
 1.4260	20.5660
 1.4270	20.4950
 1.4280	20.4320
 1.4290	20.3740
 1.4300	20.3220
 1.4310	20.2740
 1.4320	20.2330
 1.4330	20.1940
 1.4340	20.1600
 1.4350	20.1300
 1.4360	20.1040
 1.4370	20.0800
 1.4380	20.0610
 1.4390	20.0470
 1.4400	20.0340
 1.4410	20.0240
 1.4420	20.0160
 1.4430	20.0100
 1.4440	20.0070
 1.4450	20.0060
 1.4460	20.0080
 1.4470	20.0100
 1.4480	20.0130
 1.4490	20.0180
 1.4500	20.0250
 1.4510	20.0330
 1.4520	20.0430
 1.4530	20.0560
 1.4540	20.0690
 1.4550	20.0860
 1.4560	20.1040
 1.4570	20.1230
 1.4580	20.1460
 1.4590	20.1710
 1.4600	20.1990
 1.4610	20.2300
 1.4620	20.2660
 1.4630	20.3050
 1.4640	20.3490
 1.4650	20.3960
 1.4660	20.4480
 1.4670	20.5030
 1.4680	20.5620
 1.4690	20.6240
 1.4700	20.6900
 1.4710	20.7620
 1.4720	20.8360
 1.4730	20.9120
 1.4740	20.9930
 1.4750	21.0740
 1.4760	21.1600
 1.4770	21.2490
