Name: Ficus craterostoma
Type: vegetation
Class: Tree
Genus: Ficus
Species: craterostoma
Sample No.: JPL158
Owner: JPL
Wavelength Range: VSWIR
Origin: 34.125682; -118.11396; WGS84
Collection Date: 9/14/2016
Description: Samples were collected at the Huntington Garden in San Marino California as part of a JPL Subcontract studying HyTES imagery. Samples were taken to JPL and processed within 48 hours of collection. The same leaves were processed in the Nicolet and then measured using the ASD.
Measurement: Bidirectional reflectance
First Column: X
Second Column: Y
X Units: Wavelength (micrometer)
Y Units: Reflectance (percentage)
First X Value: 0.35
Last X Value: 2.5
Number of X Values: 2151
Additional Information: vegetation.tree.ficus.craterostoma.vswir.jpl158.jpl.asd.ancillary.txt

 0.3500	10.6520
 0.3510	10.5190
 0.3520	10.5050
 0.3530	10.5710
 0.3540	10.6320
 0.3550	10.5690
 0.3560	10.6080
 0.3570	10.6380
 0.3580	10.4460
 0.3590	10.4550
 0.3600	10.5100
 0.3610	10.5070
 0.3620	10.5040
 0.3630	10.4550
 0.3640	10.3840
 0.3650	10.3370
 0.3660	10.3820
 0.3670	10.4320
 0.3680	10.4320
 0.3690	10.3660
 0.3700	10.3610
 0.3710	10.3550
 0.3720	10.3130
 0.3730	10.2950
 0.3740	10.2690
 0.3750	10.2860
 0.3760	10.3750
 0.3770	10.3700
 0.3780	10.3220
 0.3790	10.2730
 0.3800	10.2500
 0.3810	10.2620
 0.3820	10.2630
 0.3830	10.2320
 0.3840	10.2230
 0.3850	10.2420
 0.3860	10.2570
 0.3870	10.2380
 0.3880	10.2810
 0.3890	10.3110
 0.3900	10.3000
 0.3910	10.2770
 0.3920	10.2750
 0.3930	10.2860
 0.3940	10.2980
 0.3950	10.3040
 0.3960	10.3100
 0.3970	10.3360
 0.3980	10.3980
 0.3990	10.4260
 0.4000	10.4400
 0.4010	10.4590
 0.4020	10.4920
 0.4030	10.5570
 0.4040	10.6270
 0.4050	10.6790
 0.4060	10.7470
 0.4070	10.8340
 0.4080	10.9220
 0.4090	10.9880
 0.4100	11.0830
 0.4110	11.1970
 0.4120	11.3110
 0.4130	11.3970
 0.4140	11.4840
 0.4150	11.5820
 0.4160	11.6890
 0.4170	11.7710
 0.4180	11.8550
 0.4190	11.9470
 0.4200	12.0420
 0.4210	12.1330
 0.4220	12.2210
 0.4230	12.3050
 0.4240	12.3840
 0.4250	12.4620
 0.4260	12.5360
 0.4270	12.5990
 0.4280	12.6480
 0.4290	12.6920
 0.4300	12.7330
 0.4310	12.7650
 0.4320	12.7920
 0.4330	12.8130
 0.4340	12.8300
 0.4350	12.8610
 0.4360	12.9010
 0.4370	12.9500
 0.4380	13.0090
 0.4390	13.0700
 0.4400	13.1340
 0.4410	13.1990
 0.4420	13.2620
 0.4430	13.3060
 0.4440	13.3380
 0.4450	13.3740
 0.4460	13.4200
 0.4470	13.4650
 0.4480	13.5050
 0.4490	13.5380
 0.4500	13.5710
 0.4510	13.6060
 0.4520	13.6410
 0.4530	13.6700
 0.4540	13.6920
 0.4550	13.7110
 0.4560	13.7300
 0.4570	13.7430
 0.4580	13.7520
 0.4590	13.7620
 0.4600	13.7740
 0.4610	13.7850
 0.4620	13.7940
 0.4630	13.8040
 0.4640	13.8020
 0.4650	13.7980
 0.4660	13.7990
 0.4670	13.8090
 0.4680	13.8160
 0.4690	13.8160
 0.4700	13.8110
 0.4710	13.8170
 0.4720	13.8240
 0.4730	13.8320
 0.4740	13.8390
 0.4750	13.8400
 0.4760	13.8440
 0.4770	13.8550
 0.4780	13.8650
 0.4790	13.8690
 0.4800	13.8710
 0.4810	13.8730
 0.4820	13.8700
 0.4830	13.8620
 0.4840	13.8520
 0.4850	13.8520
 0.4860	13.8510
 0.4870	13.8520
 0.4880	13.8600
 0.4890	13.8800
 0.4900	13.8980
 0.4910	13.9170
 0.4920	13.9450
 0.4930	13.9750
 0.4940	14.0060
 0.4950	14.0360
 0.4960	14.0740
 0.4970	14.1090
 0.4980	14.1440
 0.4990	14.1870
 0.5000	14.2320
 0.5010	14.2780
 0.5020	14.3240
 0.5030	14.3720
 0.5040	14.4240
 0.5050	14.4820
 0.5060	14.5440
 0.5070	14.5970
 0.5080	14.6620
 0.5090	14.7380
 0.5100	14.8120
 0.5110	14.8970
 0.5120	14.9900
 0.5130	15.0870
 0.5140	15.1850
 0.5150	15.2970
 0.5160	15.4210
 0.5170	15.5500
 0.5180	15.6880
 0.5190	15.8330
 0.5200	15.9840
 0.5210	16.1400
 0.5220	16.3000
 0.5230	16.4630
 0.5240	16.6250
 0.5250	16.7810
 0.5260	16.9340
 0.5270	17.0820
 0.5280	17.2240
 0.5290	17.3560
 0.5300	17.4780
 0.5310	17.5880
 0.5320	17.6850
 0.5330	17.7710
 0.5340	17.8500
 0.5350	17.9190
 0.5360	17.9780
 0.5370	18.0200
 0.5380	18.0440
 0.5390	18.0550
 0.5400	18.0400
 0.5410	18.0020
 0.5420	17.9550
 0.5430	17.9290
 0.5440	17.9340
 0.5450	17.9680
 0.5460	18.0240
 0.5470	18.0960
 0.5480	18.1620
 0.5490	18.2090
 0.5500	18.2330
 0.5510	18.2490
 0.5520	18.2560
 0.5530	18.2520
 0.5540	18.2450
 0.5550	18.2270
 0.5560	18.1920
 0.5570	18.1390
 0.5580	18.0730
 0.5590	17.9980
 0.5600	17.9160
 0.5610	17.8260
 0.5620	17.7300
 0.5630	17.6280
 0.5640	17.5230
 0.5650	17.4140
 0.5660	17.3010
 0.5670	17.1830
 0.5680	17.0620
 0.5690	16.9420
 0.5700	16.8230
 0.5710	16.7090
 0.5720	16.6070
 0.5730	16.5180
 0.5740	16.4410
 0.5750	16.3760
 0.5760	16.3200
 0.5770	16.2660
 0.5780	16.2070
 0.5790	16.1450
 0.5800	16.0890
 0.5810	16.0380
 0.5820	15.9880
 0.5830	15.9370
 0.5840	15.8900
 0.5850	15.8450
 0.5860	15.7990
 0.5870	15.7450
 0.5880	15.6950
 0.5890	15.6580
 0.5900	15.6310
 0.5910	15.6140
 0.5920	15.6010
 0.5930	15.5900
 0.5940	15.5870
 0.5950	15.5900
 0.5960	15.5900
 0.5970	15.5830
 0.5980	15.5710
 0.5990	15.5570
 0.6000	15.5420
 0.6010	15.5320
 0.6020	15.5190
 0.6030	15.5010
 0.6040	15.4750
 0.6050	15.4430
 0.6060	15.4040
 0.6070	15.3590
 0.6080	15.3090
 0.6090	15.2310
 0.6100	15.1180
 0.6110	14.9860
 0.6120	14.9410
 0.6130	14.9500
 0.6140	14.9700
 0.6150	14.9570
 0.6160	14.9360
 0.6170	14.9110
 0.6180	14.8830
 0.6190	14.8480
 0.6200	14.8150
 0.6210	14.7890
 0.6220	14.7720
 0.6230	14.7590
 0.6240	14.7480
 0.6250	14.7400
 0.6260	14.7320
 0.6270	14.7230
 0.6280	14.7140
 0.6290	14.7060
 0.6300	14.6920
 0.6310	14.6810
 0.6320	14.6770
 0.6330	14.6800
 0.6340	14.6730
 0.6350	14.6560
 0.6360	14.6340
 0.6370	14.6110
 0.6380	14.5860
 0.6390	14.5590
 0.6400	14.5280
 0.6410	14.4980
 0.6420	14.4670
 0.6430	14.4330
 0.6440	14.4040
 0.6450	14.3770
 0.6460	14.3490
 0.6470	14.3220
 0.6480	14.2980
 0.6490	14.2760
 0.6500	14.2570
 0.6510	14.2420
 0.6520	14.2360
 0.6530	14.2300
 0.6540	14.2190
 0.6550	14.2120
 0.6560	14.2040
 0.6570	14.1930
 0.6580	14.1760
 0.6590	14.1600
 0.6600	14.1420
 0.6610	14.1230
 0.6620	14.1000
 0.6630	14.0810
 0.6640	14.0660
 0.6650	14.0530
 0.6660	14.0430
 0.6670	14.0360
 0.6680	14.0350
 0.6690	14.0420
 0.6700	14.0540
 0.6710	14.0730
 0.6720	14.0980
 0.6730	14.1270
 0.6740	14.1610
 0.6750	14.2020
 0.6760	14.2520
 0.6770	14.3070
 0.6780	14.3700
 0.6790	14.4400
 0.6800	14.5190
 0.6810	14.6050
 0.6820	14.6990
 0.6830	14.8010
 0.6840	14.9080
 0.6850	15.0170
 0.6860	15.1240
 0.6870	15.2300
 0.6880	15.3360
 0.6890	15.4480
 0.6900	15.5750
 0.6910	15.7240
 0.6920	15.9010
 0.6930	16.1140
 0.6940	16.3720
 0.6950	16.6930
 0.6960	17.0740
 0.6970	17.5180
 0.6980	18.0270
 0.6990	18.6030
 0.7000	19.2380
 0.7010	19.9270
 0.7020	20.6650
 0.7030	21.4450
 0.7040	22.2610
 0.7050	23.1090
 0.7060	23.9840
 0.7070	24.8860
 0.7080	25.8150
 0.7090	26.7730
 0.7100	27.7610
 0.7110	28.7710
 0.7120	29.8040
 0.7130	30.8620
 0.7140	31.9430
 0.7150	33.0450
 0.7160	34.1630
 0.7170	35.2940
 0.7180	36.4390
 0.7190	37.5920
 0.7200	38.7480
 0.7210	39.9060
 0.7220	41.0610
 0.7230	42.2090
 0.7240	43.3430
 0.7250	44.4610
 0.7260	45.5560
 0.7270	46.6250
 0.7280	47.6650
 0.7290	48.6720
 0.7300	49.6470
 0.7310	50.5880
 0.7320	51.4900
 0.7330	52.3520
 0.7340	53.1720
 0.7350	53.9490
 0.7360	54.6860
 0.7370	55.3820
 0.7380	56.0340
 0.7390	56.6480
 0.7400	57.2200
 0.7410	57.7500
 0.7420	58.2420
 0.7430	58.6950
 0.7440	59.1050
 0.7450	59.4760
 0.7460	59.8170
 0.7470	60.1210
 0.7480	60.3940
 0.7490	60.6390
 0.7500	60.8580
 0.7510	61.0510
 0.7520	61.2220
 0.7530	61.3770
 0.7540	61.5160
 0.7550	61.6390
 0.7560	61.7460
 0.7570	61.8340
 0.7580	61.9190
 0.7590	61.9950
 0.7600	62.0600
 0.7610	62.1170
 0.7620	62.1660
 0.7630	62.2040
 0.7640	62.2330
 0.7650	62.2580
 0.7660	62.2770
 0.7670	62.2930
 0.7680	62.3080
 0.7690	62.3130
 0.7700	62.3170
 0.7710	62.3220
 0.7720	62.3280
 0.7730	62.3300
 0.7740	62.3320
 0.7750	62.3360
 0.7760	62.3430
 0.7770	62.3450
 0.7780	62.3460
 0.7790	62.3490
 0.7800	62.3530
 0.7810	62.3610
 0.7820	62.3700
 0.7830	62.3740
 0.7840	62.3740
 0.7850	62.3750
 0.7860	62.3790
 0.7870	62.3820
 0.7880	62.3860
 0.7890	62.3880
 0.7900	62.3850
 0.7910	62.3890
 0.7920	62.3900
 0.7930	62.3880
 0.7940	62.3890
 0.7950	62.3900
 0.7960	62.3870
 0.7970	62.3800
 0.7980	62.3770
 0.7990	62.3700
 0.8000	62.3600
 0.8010	62.3510
 0.8020	62.3440
 0.8030	62.3360
 0.8040	62.3280
 0.8050	62.3200
 0.8060	62.3060
 0.8070	62.2940
 0.8080	62.2830
 0.8090	62.2670
 0.8100	62.2560
 0.8110	62.2420
 0.8120	62.2240
 0.8130	62.2090
 0.8140	62.1930
 0.8150	62.1750
 0.8160	62.1560
 0.8170	62.1390
 0.8180	62.1220
 0.8190	62.1030
 0.8200	62.0810
 0.8210	62.0630
 0.8220	62.0490
 0.8230	62.0320
 0.8240	62.0090
 0.8250	61.9870
 0.8260	61.9660
 0.8270	61.9460
 0.8280	61.9240
 0.8290	61.9010
 0.8300	61.8770
 0.8310	61.8550
 0.8320	61.8310
 0.8330	61.8160
 0.8340	61.8040
 0.8350	61.7860
 0.8360	61.7710
 0.8370	61.7580
 0.8380	61.7460
 0.8390	61.7330
 0.8400	61.7240
 0.8410	61.7160
 0.8420	61.7060
 0.8430	61.6920
 0.8440	61.6870
 0.8450	61.6830
 0.8460	61.6760
 0.8470	61.6700
 0.8480	61.6640
 0.8490	61.6600
 0.8500	61.6590
 0.8510	61.6520
 0.8520	61.6520
 0.8530	61.6570
 0.8540	61.6550
 0.8550	61.6540
 0.8560	61.6540
 0.8570	61.6560
 0.8580	61.6600
 0.8590	61.6630
 0.8600	61.6680
 0.8610	61.6770
 0.8620	61.6760
 0.8630	61.6780
 0.8640	61.6850
 0.8650	61.6940
 0.8660	61.7060
 0.8670	61.7140
 0.8680	61.7220
 0.8690	61.7360
 0.8700	61.7490
 0.8710	61.7580
 0.8720	61.7660
 0.8730	61.7780
 0.8740	61.7860
 0.8750	61.7960
 0.8760	61.8090
 0.8770	61.8230
 0.8780	61.8350
 0.8790	61.8460
 0.8800	61.8590
 0.8810	61.8680
 0.8820	61.8810
 0.8830	61.8970
 0.8840	61.9120
 0.8850	61.9260
 0.8860	61.9360
 0.8870	61.9460
 0.8880	61.9590
 0.8890	61.9750
 0.8900	61.9900
 0.8910	62.0000
 0.8920	62.0090
 0.8930	62.0210
 0.8940	62.0370
 0.8950	62.0530
 0.8960	62.0630
 0.8970	62.0740
 0.8980	62.0860
 0.8990	62.0970
 0.9000	62.1100
 0.9010	62.1160
 0.9020	62.1240
 0.9030	62.1380
 0.9040	62.1530
 0.9050	62.1600
 0.9060	62.1660
 0.9070	62.1730
 0.9080	62.1800
 0.9090	62.1850
 0.9100	62.1870
 0.9110	62.1870
 0.9120	62.1900
 0.9130	62.1970
 0.9140	62.1990
 0.9150	62.1920
 0.9160	62.1980
 0.9170	62.1980
 0.9180	62.1940
 0.9190	62.1950
 0.9200	62.1880
 0.9210	62.1740
 0.9220	62.1610
 0.9230	62.1550
 0.9240	62.1410
 0.9250	62.1230
 0.9260	62.1050
 0.9270	62.0830
 0.9280	62.0460
 0.9290	62.0170
 0.9300	61.9930
 0.9310	61.9550
 0.9320	61.9280
 0.9330	61.8920
 0.9340	61.8450
 0.9350	61.8030
 0.9360	61.7710
 0.9370	61.7300
 0.9380	61.6740
 0.9390	61.6250
 0.9400	61.5770
 0.9410	61.5260
 0.9420	61.4710
 0.9430	61.4110
 0.9440	61.3440
 0.9450	61.2800
 0.9460	61.2200
 0.9470	61.1440
 0.9480	61.0560
 0.9490	60.9640
 0.9500	60.8750
 0.9510	60.7730
 0.9520	60.6700
 0.9530	60.5690
 0.9540	60.4680
 0.9550	60.3710
 0.9560	60.2710
 0.9570	60.1770
 0.9580	60.0970
 0.9590	60.0150
 0.9600	59.9360
 0.9610	59.8650
 0.9620	59.8080
 0.9630	59.7680
 0.9640	59.7280
 0.9650	59.6860
 0.9660	59.6470
 0.9670	59.6050
 0.9680	59.5750
 0.9690	59.5560
 0.9700	59.5430
 0.9710	59.5160
 0.9720	59.5030
 0.9730	59.4940
 0.9740	59.4720
 0.9750	59.4750
 0.9760	59.4670
 0.9770	59.4590
 0.9780	59.4730
 0.9790	59.4570
 0.9800	59.4450
 0.9810	59.4470
 0.9820	59.4600
 0.9830	59.4860
 0.9840	59.5060
 0.9850	59.5130
 0.9860	59.5130
 0.9870	59.5280
 0.9880	59.5460
 0.9890	59.5730
 0.9900	59.6120
 0.9910	59.6130
 0.9920	59.6220
 0.9930	59.6510
 0.9940	59.6860
 0.9950	59.7150
 0.9960	59.7510
 0.9970	59.7800
 0.9980	59.7840
 0.9990	59.8090
 1.0000	59.8420
 1.0010	60.6720
 1.0020	60.7030
 1.0030	60.7420
 1.0040	60.7740
 1.0050	60.8060
 1.0060	60.8400
 1.0070	60.8680
 1.0080	60.8980
 1.0090	60.9270
 1.0100	60.9600
 1.0110	60.9950
 1.0120	61.0280
 1.0130	61.0620
 1.0140	61.0950
 1.0150	61.1260
 1.0160	61.1570
 1.0170	61.1940
 1.0180	61.2300
 1.0190	61.2610
 1.0200	61.2910
 1.0210	61.3180
 1.0220	61.3480
 1.0230	61.3780
 1.0240	61.4120
 1.0250	61.4450
 1.0260	61.4790
 1.0270	61.5100
 1.0280	61.5400
 1.0290	61.5690
 1.0300	61.5930
 1.0310	61.6210
 1.0320	61.6510
 1.0330	61.6780
 1.0340	61.7100
 1.0350	61.7350
 1.0360	61.7600
 1.0370	61.7880
 1.0380	61.8120
 1.0390	61.8340
 1.0400	61.8550
 1.0410	61.8740
 1.0420	61.8950
 1.0430	61.9150
 1.0440	61.9350
 1.0450	61.9560
 1.0460	61.9750
 1.0470	61.9930
 1.0480	62.0100
 1.0490	62.0290
 1.0500	62.0450
 1.0510	62.0600
 1.0520	62.0730
 1.0530	62.0870
 1.0540	62.1000
 1.0550	62.1110
 1.0560	62.1210
 1.0570	62.1330
 1.0580	62.1490
 1.0590	62.1590
 1.0600	62.1680
 1.0610	62.1770
 1.0620	62.1820
 1.0630	62.1880
 1.0640	62.1980
 1.0650	62.2060
 1.0660	62.2150
 1.0670	62.2190
 1.0680	62.2210
 1.0690	62.2210
 1.0700	62.2210
 1.0710	62.2160
 1.0720	62.2160
 1.0730	62.2190
 1.0740	62.2220
 1.0750	62.2260
 1.0760	62.2270
 1.0770	62.2310
 1.0780	62.2290
 1.0790	62.2210
 1.0800	62.2170
 1.0810	62.2130
 1.0820	62.2110
 1.0830	62.2160
 1.0840	62.2130
 1.0850	62.2050
 1.0860	62.1960
 1.0870	62.1850
 1.0880	62.1700
 1.0890	62.1590
 1.0900	62.1520
 1.0910	62.1400
 1.0920	62.1260
 1.0930	62.1140
 1.0940	62.1010
 1.0950	62.0890
 1.0960	62.0820
 1.0970	62.0710
 1.0980	62.0560
 1.0990	62.0430
 1.1000	62.0310
 1.1010	62.0160
 1.1020	62.0010
 1.1030	61.9850
 1.1040	61.9680
 1.1050	61.9500
 1.1060	61.9320
 1.1070	61.9140
 1.1080	61.8950
 1.1090	61.8760
 1.1100	61.8560
 1.1110	61.8380
 1.1120	61.8150
 1.1130	61.7900
 1.1140	61.7630
 1.1150	61.7330
 1.1160	61.7030
 1.1170	61.6740
 1.1180	61.6400
 1.1190	61.6040
 1.1200	61.5640
 1.1210	61.5180
 1.1220	61.4690
 1.1230	61.4120
 1.1240	61.3480
 1.1250	61.2800
 1.1260	61.2090
 1.1270	61.1260
 1.1280	61.0380
 1.1290	60.9360
 1.1300	60.8240
 1.1310	60.7000
 1.1320	60.5680
 1.1330	60.4230
 1.1340	60.2660
 1.1350	60.0990
 1.1360	59.9200
 1.1370	59.7300
 1.1380	59.5350
 1.1390	59.3320
 1.1400	59.1230
 1.1410	58.9130
 1.1420	58.6990
 1.1430	58.4820
 1.1440	58.2670
 1.1450	58.0460
 1.1460	57.8390
 1.1470	57.6330
 1.1480	57.4380
 1.1490	57.2510
 1.1500	57.0750
 1.1510	56.9070
 1.1520	56.7520
 1.1530	56.6090
 1.1540	56.4780
 1.1550	56.3600
 1.1560	56.2520
 1.1570	56.1550
 1.1580	56.0720
 1.1590	55.9980
 1.1600	55.9300
 1.1610	55.8680
 1.1620	55.8130
 1.1630	55.7630
 1.1640	55.7180
 1.1650	55.6800
 1.1660	55.6490
 1.1670	55.6190
 1.1680	55.5940
 1.1690	55.5700
 1.1700	55.5470
 1.1710	55.5260
 1.1720	55.5050
 1.1730	55.4870
 1.1740	55.4710
 1.1750	55.4550
 1.1760	55.4380
 1.1770	55.4210
 1.1780	55.3990
 1.1790	55.3780
 1.1800	55.3570
 1.1810	55.3350
 1.1820	55.3140
 1.1830	55.2930
 1.1840	55.2720
 1.1850	55.2510
 1.1860	55.2310
 1.1870	55.2100
 1.1880	55.1920
 1.1890	55.1750
 1.1900	55.1610
 1.1910	55.1520
 1.1920	55.1420
 1.1930	55.1310
 1.1940	55.1220
 1.1950	55.1120
 1.1960	55.1080
 1.1970	55.1080
 1.1980	55.1090
 1.1990	55.1150
 1.2000	55.1220
 1.2010	55.1300
 1.2020	55.1410
 1.2030	55.1500
 1.2040	55.1620
 1.2050	55.1780
 1.2060	55.1920
 1.2070	55.2100
 1.2080	55.2290
 1.2090	55.2460
 1.2100	55.2670
 1.2110	55.2880
 1.2120	55.3120
 1.2130	55.3340
 1.2140	55.3540
 1.2150	55.3760
 1.2160	55.3990
 1.2170	55.4230
 1.2180	55.4480
 1.2190	55.4760
 1.2200	55.5000
 1.2210	55.5250
 1.2220	55.5530
 1.2230	55.5810
 1.2240	55.6090
 1.2250	55.6360
 1.2260	55.6620
 1.2270	55.6880
 1.2280	55.7160
 1.2290	55.7450
 1.2300	55.7740
 1.2310	55.8020
 1.2320	55.8260
 1.2330	55.8480
 1.2340	55.8720
 1.2350	55.8940
 1.2360	55.9170
 1.2370	55.9420
 1.2380	55.9640
 1.2390	55.9870
 1.2400	56.0090
 1.2410	56.0280
 1.2420	56.0490
 1.2430	56.0710
 1.2440	56.0900
 1.2450	56.1080
 1.2460	56.1270
 1.2470	56.1440
 1.2480	56.1590
 1.2490	56.1770
 1.2500	56.1950
 1.2510	56.2090
 1.2520	56.2220
 1.2530	56.2370
 1.2540	56.2500
 1.2550	56.2620
 1.2560	56.2730
 1.2570	56.2800
 1.2580	56.2860
 1.2590	56.2930
 1.2600	56.2990
 1.2610	56.3030
 1.2620	56.3070
 1.2630	56.3090
 1.2640	56.3050
 1.2650	56.3020
 1.2660	56.2970
 1.2670	56.2890
 1.2680	56.2820
 1.2690	56.2720
 1.2700	56.2620
 1.2710	56.2520
 1.2720	56.2370
 1.2730	56.2200
 1.2740	56.2040
 1.2750	56.1840
 1.2760	56.1630
 1.2770	56.1420
 1.2780	56.1150
 1.2790	56.0830
 1.2800	56.0490
 1.2810	56.0130
 1.2820	55.9740
 1.2830	55.9360
 1.2840	55.8950
 1.2850	55.8500
 1.2860	55.8030
 1.2870	55.7530
 1.2880	55.6970
 1.2890	55.6400
 1.2900	55.5840
 1.2910	55.5230
 1.2920	55.4620
 1.2930	55.4000
 1.2940	55.3320
 1.2950	55.2600
 1.2960	55.1860
 1.2970	55.1090
 1.2980	55.0280
 1.2990	54.9450
 1.3000	54.8600
 1.3010	54.7700
 1.3020	54.6770
 1.3030	54.5840
 1.3040	54.4840
 1.3050	54.3830
 1.3060	54.2810
 1.3070	54.1700
 1.3080	54.0580
 1.3090	53.9410
 1.3100	53.8190
 1.3110	53.6940
 1.3120	53.5630
 1.3130	53.4290
 1.3140	53.2910
 1.3150	53.1490
 1.3160	53.0040
 1.3170	52.8560
 1.3180	52.7050
 1.3190	52.5460
 1.3200	52.3840
 1.3210	52.2190
 1.3220	52.0490
 1.3230	51.8800
 1.3240	51.7060
 1.3250	51.5290
 1.3260	51.3490
 1.3270	51.1640
 1.3280	50.9770
 1.3290	50.7860
 1.3300	50.5950
 1.3310	50.4030
 1.3320	50.2080
 1.3330	50.0160
 1.3340	49.8210
 1.3350	49.6240
 1.3360	49.4270
 1.3370	49.2300
 1.3380	49.0340
 1.3390	48.8390
 1.3400	48.6460
 1.3410	48.4560
 1.3420	48.2690
 1.3430	48.0840
 1.3440	47.9010
 1.3450	47.7210
 1.3460	47.5420
 1.3470	47.3670
 1.3480	47.1930
 1.3490	47.0240
 1.3500	46.8580
 1.3510	46.6930
 1.3520	46.5300
 1.3530	46.3680
 1.3540	46.2040
 1.3550	46.0390
 1.3560	45.8730
 1.3570	45.7050
 1.3580	45.5370
 1.3590	45.3650
 1.3600	45.1870
 1.3610	45.0050
 1.3620	44.8130
 1.3630	44.6140
 1.3640	44.4070
 1.3650	44.1890
 1.3660	43.9630
 1.3670	43.7220
 1.3680	43.4660
 1.3690	43.1930
 1.3700	42.8990
 1.3710	42.5880
 1.3720	42.2590
 1.3730	41.9050
 1.3740	41.5320
 1.3750	41.1330
 1.3760	40.7050
 1.3770	40.2510
 1.3780	39.7620
 1.3790	39.2470
 1.3800	38.7030
 1.3810	38.1260
 1.3820	37.5300
 1.3830	36.9080
 1.3840	36.2670
 1.3850	35.6020
 1.3860	34.9270
 1.3870	34.2270
 1.3880	33.5320
 1.3890	32.8260
 1.3900	32.1160
 1.3910	31.4160
 1.3920	30.7180
 1.3930	30.0240
 1.3940	29.3450
 1.3950	28.6730
 1.3960	28.0200
 1.3970	27.3890
 1.3980	26.7790
 1.3990	26.2020
 1.4000	25.6480
 1.4010	25.1170
 1.4020	24.6170
 1.4030	24.1410
 1.4040	23.6920
 1.4050	23.2730
 1.4060	22.8790
 1.4070	22.5130
 1.4080	22.1720
 1.4090	21.8530
 1.4100	21.5590
 1.4110	21.2850
 1.4120	21.0310
 1.4130	20.7960
 1.4140	20.5780
 1.4150	20.3780
 1.4160	20.1940
 1.4170	20.0220
 1.4180	19.8650
 1.4190	19.7180
 1.4200	19.5810
 1.4210	19.4560
 1.4220	19.3400
 1.4230	19.2340
 1.4240	19.1350
 1.4250	19.0430
 1.4260	18.9600
 1.4270	18.8810
 1.4280	18.8100
 1.4290	18.7440
 1.4300	18.6840
 1.4310	18.6280
 1.4320	18.5790
 1.4330	18.5330
 1.4340	18.4920
 1.4350	18.4550
 1.4360	18.4210
 1.4370	18.3910
 1.4380	18.3650
 1.4390	18.3410
 1.4400	18.3220
 1.4410	18.3050
 1.4420	18.2900
 1.4430	18.2790
 1.4440	18.2700
 1.4450	18.2620
 1.4460	18.2580
 1.4470	18.2560
 1.4480	18.2540
 1.4490	18.2550
 1.4500	18.2570
 1.4510	18.2610
 1.4520	18.2670
 1.4530	18.2750
 1.4540	18.2850
 1.4550	18.2980
 1.4560	18.3140
 1.4570	18.3330
 1.4580	18.3550
 1.4590	18.3800
 1.4600	18.4090
 1.4610	18.4420
 1.4620	18.4800
 1.4630	18.5220
 1.4640	18.5670
 1.4650	18.6180
 1.4660	18.6720
 1.4670	18.7320
 1.4680	18.7960
 1.4690	18.8630
 1.4700	18.9340
 1.4710	19.0100
 1.4720	19.0880
 1.4730	19.1700
 1.4740	19.2560
 1.4750	19.3450
 1.4760	19.4380
 1.4770	19.5340
