Name: Baccharis pilularis 1
Type: vegetation
Class: Shrub
Genus: Baccharis
Species: pilularis
Sample No.: VH110
Owner: UCSB
Wavelength Range: VSWIR
Origin: 34.5084; -119.7687; WGS84
Collection Date: 6/3/2013
Description: Samples were collected as part of the HyspIRI Airborne Campaign. 48 individual plants were sampled in three times in 2013 - spring  summer  and fall. The name of the sample includes a 1  2  or 3 which references a different individual of the species. Samples were taken to JPL and processed within 48 hours of collection. The same leaves were processed in the Nicolet and then measured using the ASD.
Measurement: Bidirectional reflectance
First Column: X
Second Column: Y
X Units: Wavelength (micrometers)
Y Units: Reflectance (percentage)
First X Value: 0.35
Last X Value: 2.5
Number of X Values: 2151
Additional Information: vegetation.shrub.baccharis.pilularis.vswir.vh110.ucsb.asd.ancillary.txt

 0.3500	 5.9140
 0.3510	 5.8480
 0.3520	 5.6100
 0.3530	 5.4850
 0.3540	 5.6230
 0.3550	 5.5820
 0.3560	 5.6210
 0.3570	 5.7320
 0.3580	 5.7690
 0.3590	 5.6420
 0.3600	 5.5140
 0.3610	 5.4920
 0.3620	 5.5780
 0.3630	 5.6120
 0.3640	 5.5570
 0.3650	 5.4630
 0.3660	 5.5360
 0.3670	 5.5950
 0.3680	 5.5480
 0.3690	 5.3990
 0.3700	 5.4880
 0.3710	 5.6160
 0.3720	 5.6090
 0.3730	 5.4550
 0.3740	 5.4370
 0.3750	 5.5050
 0.3760	 5.5240
 0.3770	 5.5710
 0.3780	 5.5840
 0.3790	 5.5300
 0.3800	 5.4100
 0.3810	 5.4760
 0.3820	 5.6160
 0.3830	 5.7030
 0.3840	 5.7150
 0.3850	 5.6290
 0.3860	 5.5570
 0.3870	 5.6110
 0.3880	 5.6120
 0.3890	 5.6490
 0.3900	 5.7240
 0.3910	 5.7380
 0.3920	 5.6700
 0.3930	 5.6260
 0.3940	 5.6720
 0.3950	 5.7270
 0.3960	 5.7400
 0.3970	 5.7260
 0.3980	 5.7260
 0.3990	 5.7420
 0.4000	 5.7590
 0.4010	 5.7730
 0.4020	 5.7970
 0.4030	 5.8000
 0.4040	 5.8120
 0.4050	 5.8500
 0.4060	 5.8420
 0.4070	 5.8350
 0.4080	 5.8480
 0.4090	 5.8790
 0.4100	 5.8960
 0.4110	 5.8990
 0.4120	 5.8990
 0.4130	 5.9190
 0.4140	 5.9370
 0.4150	 5.9380
 0.4160	 5.9260
 0.4170	 5.9760
 0.4180	 6.0130
 0.4190	 6.0240
 0.4200	 6.0540
 0.4210	 6.0820
 0.4220	 6.0970
 0.4230	 6.1010
 0.4240	 6.1220
 0.4250	 6.1430
 0.4260	 6.1620
 0.4270	 6.1800
 0.4280	 6.1740
 0.4290	 6.1800
 0.4300	 6.2080
 0.4310	 6.2190
 0.4320	 6.2310
 0.4330	 6.2430
 0.4340	 6.2550
 0.4350	 6.2790
 0.4360	 6.2840
 0.4370	 6.2750
 0.4380	 6.2890
 0.4390	 6.3050
 0.4400	 6.3160
 0.4410	 6.3240
 0.4420	 6.3410
 0.4430	 6.3630
 0.4440	 6.3800
 0.4450	 6.3830
 0.4460	 6.3920
 0.4470	 6.4070
 0.4480	 6.4250
 0.4490	 6.4390
 0.4500	 6.4590
 0.4510	 6.4750
 0.4520	 6.4800
 0.4530	 6.4720
 0.4540	 6.4770
 0.4550	 6.4950
 0.4560	 6.5100
 0.4570	 6.5180
 0.4580	 6.5210
 0.4590	 6.5250
 0.4600	 6.5310
 0.4610	 6.5410
 0.4620	 6.5570
 0.4630	 6.5750
 0.4640	 6.5730
 0.4650	 6.5740
 0.4660	 6.5810
 0.4670	 6.5790
 0.4680	 6.5800
 0.4690	 6.5780
 0.4700	 6.5730
 0.4710	 6.5930
 0.4720	 6.6030
 0.4730	 6.6010
 0.4740	 6.6030
 0.4750	 6.6060
 0.4760	 6.6150
 0.4770	 6.6270
 0.4780	 6.6100
 0.4790	 6.6090
 0.4800	 6.6200
 0.4810	 6.6240
 0.4820	 6.6270
 0.4830	 6.6370
 0.4840	 6.6480
 0.4850	 6.6450
 0.4860	 6.6490
 0.4870	 6.6570
 0.4880	 6.6650
 0.4890	 6.6830
 0.4900	 6.6980
 0.4910	 6.7080
 0.4920	 6.7170
 0.4930	 6.7330
 0.4940	 6.7430
 0.4950	 6.7510
 0.4960	 6.7810
 0.4970	 6.8070
 0.4980	 6.8290
 0.4990	 6.8530
 0.5000	 6.8830
 0.5010	 6.9170
 0.5020	 6.9540
 0.5030	 6.9950
 0.5040	 7.0390
 0.5050	 7.0910
 0.5060	 7.1550
 0.5070	 7.2270
 0.5080	 7.3050
 0.5090	 7.3880
 0.5100	 7.4780
 0.5110	 7.5850
 0.5120	 7.7050
 0.5130	 7.8350
 0.5140	 7.9720
 0.5150	 8.1370
 0.5160	 8.3190
 0.5170	 8.5080
 0.5180	 8.7090
 0.5190	 8.9180
 0.5200	 9.1380
 0.5210	 9.3760
 0.5220	 9.6080
 0.5230	 9.8410
 0.5240	10.0810
 0.5250	10.3270
 0.5260	10.5620
 0.5270	10.7840
 0.5280	10.9960
 0.5290	11.1940
 0.5300	11.3810
 0.5310	11.5590
 0.5320	11.7210
 0.5330	11.8770
 0.5340	12.0210
 0.5350	12.1480
 0.5360	12.2620
 0.5370	12.3650
 0.5380	12.4600
 0.5390	12.5510
 0.5400	12.6350
 0.5410	12.7150
 0.5420	12.7920
 0.5430	12.8630
 0.5440	12.9320
 0.5450	13.0000
 0.5460	13.0640
 0.5470	13.1150
 0.5480	13.1630
 0.5490	13.2090
 0.5500	13.2440
 0.5510	13.2730
 0.5520	13.2880
 0.5530	13.2820
 0.5540	13.2680
 0.5550	13.2350
 0.5560	13.1840
 0.5570	13.1230
 0.5580	13.0470
 0.5590	12.9590
 0.5600	12.8610
 0.5610	12.7520
 0.5620	12.6380
 0.5630	12.5200
 0.5640	12.3910
 0.5650	12.2530
 0.5660	12.1060
 0.5670	11.9510
 0.5680	11.7900
 0.5690	11.6260
 0.5700	11.4620
 0.5710	11.3000
 0.5720	11.1400
 0.5730	10.9880
 0.5740	10.8480
 0.5750	10.7230
 0.5760	10.6040
 0.5770	10.4920
 0.5780	10.3870
 0.5790	10.2850
 0.5800	10.1880
 0.5810	10.1020
 0.5820	10.0290
 0.5830	 9.9560
 0.5840	 9.8870
 0.5850	 9.8230
 0.5860	 9.7560
 0.5870	 9.6930
 0.5880	 9.6350
 0.5890	 9.5830
 0.5900	 9.5480
 0.5910	 9.5290
 0.5920	 9.5160
 0.5930	 9.4960
 0.5940	 9.4710
 0.5950	 9.4470
 0.5960	 9.4270
 0.5970	 9.4020
 0.5980	 9.3730
 0.5990	 9.3410
 0.6000	 9.3070
 0.6010	 9.2700
 0.6020	 9.2270
 0.6030	 9.1800
 0.6040	 9.1310
 0.6050	 9.0750
 0.6060	 9.0110
 0.6070	 8.9410
 0.6080	 8.8700
 0.6090	 8.7970
 0.6100	 8.7230
 0.6110	 8.6520
 0.6120	 8.5810
 0.6130	 8.5100
 0.6140	 8.4390
 0.6150	 8.3700
 0.6160	 8.3100
 0.6170	 8.2550
 0.6180	 8.2030
 0.6190	 8.1590
 0.6200	 8.1190
 0.6210	 8.0820
 0.6220	 8.0480
 0.6230	 8.0210
 0.6240	 7.9980
 0.6250	 7.9800
 0.6260	 7.9630
 0.6270	 7.9500
 0.6280	 7.9410
 0.6290	 7.9340
 0.6300	 7.9280
 0.6310	 7.9210
 0.6320	 7.9130
 0.6330	 7.9050
 0.6340	 7.8940
 0.6350	 7.8770
 0.6360	 7.8540
 0.6370	 7.8270
 0.6380	 7.7930
 0.6390	 7.7530
 0.6400	 7.7090
 0.6410	 7.6650
 0.6420	 7.6170
 0.6430	 7.5630
 0.6440	 7.5050
 0.6450	 7.4490
 0.6460	 7.3950
 0.6470	 7.3410
 0.6480	 7.2920
 0.6490	 7.2450
 0.6500	 7.2020
 0.6510	 7.1670
 0.6520	 7.1320
 0.6530	 7.0970
 0.6540	 7.0640
 0.6550	 7.0320
 0.6560	 6.9960
 0.6570	 6.9590
 0.6580	 6.9240
 0.6590	 6.8900
 0.6600	 6.8560
 0.6610	 6.8200
 0.6620	 6.7900
 0.6630	 6.7630
 0.6640	 6.7410
 0.6650	 6.7240
 0.6660	 6.7120
 0.6670	 6.7030
 0.6680	 6.6980
 0.6690	 6.6970
 0.6700	 6.6970
 0.6710	 6.7010
 0.6720	 6.7100
 0.6730	 6.7210
 0.6740	 6.7330
 0.6750	 6.7460
 0.6760	 6.7630
 0.6770	 6.7800
 0.6780	 6.8030
 0.6790	 6.8300
 0.6800	 6.8570
 0.6810	 6.8860
 0.6820	 6.9200
 0.6830	 6.9600
 0.6840	 7.0050
 0.6850	 7.0620
 0.6860	 7.1320
 0.6870	 7.2140
 0.6880	 7.3190
 0.6890	 7.4550
 0.6900	 7.6290
 0.6910	 7.8470
 0.6920	 8.1250
 0.6930	 8.4690
 0.6940	 8.8870
 0.6950	 9.3870
 0.6960	 9.9660
 0.6970	10.6280
 0.6980	11.3760
 0.6990	12.2030
 0.7000	13.0960
 0.7010	14.0490
 0.7020	15.0610
 0.7030	16.1110
 0.7040	17.1880
 0.7050	18.2820
 0.7060	19.3890
 0.7070	20.4970
 0.7080	21.6020
 0.7090	22.7060
 0.7100	23.7980
 0.7110	24.8740
 0.7120	25.9360
 0.7130	26.9840
 0.7140	28.0040
 0.7150	29.0000
 0.7160	29.9740
 0.7170	30.9190
 0.7180	31.8360
 0.7190	32.7230
 0.7200	33.5780
 0.7210	34.3990
 0.7220	35.1920
 0.7230	35.9550
 0.7240	36.6770
 0.7250	37.3650
 0.7260	38.0210
 0.7270	38.6440
 0.7280	39.2330
 0.7290	39.7840
 0.7300	40.3020
 0.7310	40.7930
 0.7320	41.2540
 0.7330	41.6840
 0.7340	42.0880
 0.7350	42.4710
 0.7360	42.8250
 0.7370	43.1550
 0.7380	43.4680
 0.7390	43.7570
 0.7400	44.0240
 0.7410	44.2730
 0.7420	44.5060
 0.7430	44.7220
 0.7440	44.9230
 0.7450	45.1100
 0.7460	45.2780
 0.7470	45.4350
 0.7480	45.5800
 0.7490	45.7110
 0.7500	45.8350
 0.7510	45.9500
 0.7520	46.0520
 0.7530	46.1430
 0.7540	46.2290
 0.7550	46.3090
 0.7560	46.3810
 0.7570	46.4470
 0.7580	46.5090
 0.7590	46.5650
 0.7600	46.6160
 0.7610	46.6640
 0.7620	46.7100
 0.7630	46.7490
 0.7640	46.7810
 0.7650	46.8210
 0.7660	46.8570
 0.7670	46.8850
 0.7680	46.9130
 0.7690	46.9390
 0.7700	46.9640
 0.7710	46.9870
 0.7720	47.0120
 0.7730	47.0310
 0.7740	47.0500
 0.7750	47.0720
 0.7760	47.0880
 0.7770	47.1090
 0.7780	47.1310
 0.7790	47.1480
 0.7800	47.1660
 0.7810	47.1860
 0.7820	47.2070
 0.7830	47.2220
 0.7840	47.2320
 0.7850	47.2450
 0.7860	47.2670
 0.7870	47.2840
 0.7880	47.2950
 0.7890	47.3060
 0.7900	47.3190
 0.7910	47.3340
 0.7920	47.3450
 0.7930	47.3540
 0.7940	47.3640
 0.7950	47.3770
 0.7960	47.3890
 0.7970	47.3960
 0.7980	47.4040
 0.7990	47.4080
 0.8000	47.4130
 0.8010	47.4190
 0.8020	47.4180
 0.8030	47.4220
 0.8040	47.4300
 0.8050	47.4340
 0.8060	47.4300
 0.8070	47.4280
 0.8080	47.4290
 0.8090	47.4290
 0.8100	47.4270
 0.8110	47.4240
 0.8120	47.4240
 0.8130	47.4250
 0.8140	47.4220
 0.8150	47.4150
 0.8160	47.4080
 0.8170	47.4060
 0.8180	47.4020
 0.8190	47.3980
 0.8200	47.3930
 0.8210	47.3900
 0.8220	47.3840
 0.8230	47.3730
 0.8240	47.3650
 0.8250	47.3500
 0.8260	47.3420
 0.8270	47.3440
 0.8280	47.3310
 0.8290	47.3210
 0.8300	47.3120
 0.8310	47.3030
 0.8320	47.2920
 0.8330	47.2870
 0.8340	47.2830
 0.8350	47.2710
 0.8360	47.2590
 0.8370	47.2550
 0.8380	47.2560
 0.8390	47.2490
 0.8400	47.2460
 0.8410	47.2440
 0.8420	47.2420
 0.8430	47.2440
 0.8440	47.2410
 0.8450	47.2380
 0.8460	47.2390
 0.8470	47.2390
 0.8480	47.2360
 0.8490	47.2330
 0.8500	47.2320
 0.8510	47.2330
 0.8520	47.2350
 0.8530	47.2380
 0.8540	47.2420
 0.8550	47.2470
 0.8560	47.2480
 0.8570	47.2470
 0.8580	47.2520
 0.8590	47.2610
 0.8600	47.2620
 0.8610	47.2560
 0.8620	47.2610
 0.8630	47.2650
 0.8640	47.2670
 0.8650	47.2680
 0.8660	47.2720
 0.8670	47.2790
 0.8680	47.2860
 0.8690	47.2900
 0.8700	47.2920
 0.8710	47.2970
 0.8720	47.3060
 0.8730	47.3160
 0.8740	47.3200
 0.8750	47.3220
 0.8760	47.3280
 0.8770	47.3370
 0.8780	47.3490
 0.8790	47.3570
 0.8800	47.3600
 0.8810	47.3690
 0.8820	47.3810
 0.8830	47.3900
 0.8840	47.3910
 0.8850	47.3940
 0.8860	47.4050
 0.8870	47.4140
 0.8880	47.4150
 0.8890	47.4200
 0.8900	47.4280
 0.8910	47.4370
 0.8920	47.4420
 0.8930	47.4440
 0.8940	47.4500
 0.8950	47.4560
 0.8960	47.4570
 0.8970	47.4610
 0.8980	47.4690
 0.8990	47.4770
 0.9000	47.4720
 0.9010	47.4790
 0.9020	47.4870
 0.9030	47.4910
 0.9040	47.4960
 0.9050	47.5020
 0.9060	47.5080
 0.9070	47.5130
 0.9080	47.5150
 0.9090	47.5170
 0.9100	47.5240
 0.9110	47.5320
 0.9120	47.5320
 0.9130	47.5390
 0.9140	47.5460
 0.9150	47.5430
 0.9160	47.5400
 0.9170	47.5390
 0.9180	47.5390
 0.9190	47.5390
 0.9200	47.5390
 0.9210	47.5370
 0.9220	47.5320
 0.9230	47.5230
 0.9240	47.5170
 0.9250	47.5070
 0.9260	47.4960
 0.9270	47.4900
 0.9280	47.4870
 0.9290	47.4710
 0.9300	47.4460
 0.9310	47.4350
 0.9320	47.4160
 0.9330	47.3940
 0.9340	47.3730
 0.9350	47.3540
 0.9360	47.3300
 0.9370	47.3070
 0.9380	47.2860
 0.9390	47.2590
 0.9400	47.2370
 0.9410	47.2150
 0.9420	47.1850
 0.9430	47.1400
 0.9440	47.1040
 0.9450	47.0700
 0.9460	47.0330
 0.9470	46.9980
 0.9480	46.9430
 0.9490	46.8820
 0.9500	46.8260
 0.9510	46.7570
 0.9520	46.6920
 0.9530	46.6270
 0.9540	46.5590
 0.9550	46.4870
 0.9560	46.4140
 0.9570	46.3430
 0.9580	46.2790
 0.9590	46.2180
 0.9600	46.1590
 0.9610	46.1050
 0.9620	46.0590
 0.9630	46.0130
 0.9640	45.9710
 0.9650	45.9380
 0.9660	45.9140
 0.9670	45.8830
 0.9680	45.8690
 0.9690	45.8600
 0.9700	45.8370
 0.9710	45.8210
 0.9720	45.8070
 0.9730	45.7910
 0.9740	45.7730
 0.9750	45.7720
 0.9760	45.7780
 0.9770	45.7730
 0.9780	45.7470
 0.9790	45.7580
 0.9800	45.7680
 0.9810	45.7690
 0.9820	45.7700
 0.9830	45.7860
 0.9840	45.8060
 0.9850	45.8220
 0.9860	45.8330
 0.9870	45.8390
 0.9880	45.8530
 0.9890	45.8760
 0.9900	45.9010
 0.9910	45.9220
 0.9920	46.0040
 0.9930	46.0860
 0.9940	46.1680
 0.9950	46.2490
 0.9960	46.3310
 0.9970	46.4130
 0.9980	46.4950
 0.9990	46.5770
 1.0000	46.6590
 1.0010	46.7410
 1.0020	46.8220
 1.0030	46.9040
 1.0040	46.9860
 1.0050	47.0680
 1.0060	47.1500
 1.0070	47.2320
 1.0080	47.3130
 1.0090	47.3950
 1.0100	47.3950
 1.0110	47.4240
 1.0120	47.4460
 1.0130	47.4620
 1.0140	47.4850
 1.0150	47.5090
 1.0160	47.5290
 1.0170	47.5550
 1.0180	47.5780
 1.0190	47.6000
 1.0200	47.6230
 1.0210	47.6410
 1.0220	47.6650
 1.0230	47.6870
 1.0240	47.7080
 1.0250	47.7290
 1.0260	47.7530
 1.0270	47.7750
 1.0280	47.7970
 1.0290	47.8170
 1.0300	47.8320
 1.0310	47.8520
 1.0320	47.8730
 1.0330	47.8920
 1.0340	47.9180
 1.0350	47.9410
 1.0360	47.9550
 1.0370	47.9650
 1.0380	47.9810
 1.0390	47.9960
 1.0400	48.0130
 1.0410	48.0380
 1.0420	48.0560
 1.0430	48.0660
 1.0440	48.0810
 1.0450	48.0960
 1.0460	48.1120
 1.0470	48.1330
 1.0480	48.1480
 1.0490	48.1590
 1.0500	48.1720
 1.0510	48.1820
 1.0520	48.1910
 1.0530	48.2000
 1.0540	48.2100
 1.0550	48.2190
 1.0560	48.2270
 1.0570	48.2340
 1.0580	48.2400
 1.0590	48.2460
 1.0600	48.2490
 1.0610	48.2550
 1.0620	48.2650
 1.0630	48.2710
 1.0640	48.2790
 1.0650	48.2850
 1.0660	48.2890
 1.0670	48.2910
 1.0680	48.2930
 1.0690	48.2960
 1.0700	48.2960
 1.0710	48.2930
 1.0720	48.2910
 1.0730	48.2900
 1.0740	48.2860
 1.0750	48.2790
 1.0760	48.2740
 1.0770	48.2670
 1.0780	48.2640
 1.0790	48.2660
 1.0800	48.2630
 1.0810	48.2590
 1.0820	48.2550
 1.0830	48.2510
 1.0840	48.2470
 1.0850	48.2450
 1.0860	48.2400
 1.0870	48.2330
 1.0880	48.2220
 1.0890	48.2130
 1.0900	48.2030
 1.0910	48.1930
 1.0920	48.1820
 1.0930	48.1720
 1.0940	48.1620
 1.0950	48.1510
 1.0960	48.1430
 1.0970	48.1300
 1.0980	48.1090
 1.0990	48.0950
 1.1000	48.0850
 1.1010	48.0730
 1.1020	48.0630
 1.1030	48.0530
 1.1040	48.0370
 1.1050	48.0170
 1.1060	48.0000
 1.1070	47.9840
 1.1080	47.9670
 1.1090	47.9510
 1.1100	47.9330
 1.1110	47.9120
 1.1120	47.8900
 1.1130	47.8680
 1.1140	47.8440
 1.1150	47.8210
 1.1160	47.7950
 1.1170	47.7680
 1.1180	47.7360
 1.1190	47.7010
 1.1200	47.6610
 1.1210	47.6190
 1.1220	47.5710
 1.1230	47.5210
 1.1240	47.4690
 1.1250	47.4120
 1.1260	47.3540
 1.1270	47.2850
 1.1280	47.2110
 1.1290	47.1290
 1.1300	47.0400
 1.1310	46.9440
 1.1320	46.8440
 1.1330	46.7350
 1.1340	46.6160
 1.1350	46.4910
 1.1360	46.3570
 1.1370	46.2170
 1.1380	46.0710
 1.1390	45.9210
 1.1400	45.7650
 1.1410	45.6080
 1.1420	45.4470
 1.1430	45.2820
 1.1440	45.1190
 1.1450	44.9530
 1.1460	44.7950
 1.1470	44.6370
 1.1480	44.4870
 1.1490	44.3400
 1.1500	44.2020
 1.1510	44.0660
 1.1520	43.9430
 1.1530	43.8280
 1.1540	43.7230
 1.1550	43.6250
 1.1560	43.5400
 1.1570	43.4610
 1.1580	43.3900
 1.1590	43.3290
 1.1600	43.2750
 1.1610	43.2290
 1.1620	43.1910
 1.1630	43.1580
 1.1640	43.1280
 1.1650	43.1020
 1.1660	43.0830
 1.1670	43.0640
 1.1680	43.0490
 1.1690	43.0330
 1.1700	43.0190
 1.1710	43.0060
 1.1720	42.9960
 1.1730	42.9830
 1.1740	42.9680
 1.1750	42.9520
 1.1760	42.9370
 1.1770	42.9220
 1.1780	42.9060
 1.1790	42.8900
 1.1800	42.8710
 1.1810	42.8490
 1.1820	42.8290
 1.1830	42.8090
 1.1840	42.7880
 1.1850	42.7670
 1.1860	42.7500
 1.1870	42.7330
 1.1880	42.7150
 1.1890	42.6960
 1.1900	42.6800
 1.1910	42.6630
 1.1920	42.6500
 1.1930	42.6390
 1.1940	42.6310
 1.1950	42.6240
 1.1960	42.6190
 1.1970	42.6180
 1.1980	42.6170
 1.1990	42.6180
 1.2000	42.6210
 1.2010	42.6250
 1.2020	42.6330
 1.2030	42.6440
 1.2040	42.6570
 1.2050	42.6730
 1.2060	42.6900
 1.2070	42.7080
 1.2080	42.7290
 1.2090	42.7530
 1.2100	42.7810
 1.2110	42.8110
 1.2120	42.8450
 1.2130	42.8790
 1.2140	42.9130
 1.2150	42.9490
 1.2160	42.9860
 1.2170	43.0240
 1.2180	43.0620
 1.2190	43.1030
 1.2200	43.1460
 1.2210	43.1880
 1.2220	43.2320
 1.2230	43.2760
 1.2240	43.3190
 1.2250	43.3620
 1.2260	43.4030
 1.2270	43.4410
 1.2280	43.4770
 1.2290	43.5120
 1.2300	43.5470
 1.2310	43.5810
 1.2320	43.6140
 1.2330	43.6460
 1.2340	43.6760
 1.2350	43.7040
 1.2360	43.7320
 1.2370	43.7590
 1.2380	43.7850
 1.2390	43.8110
 1.2400	43.8370
 1.2410	43.8610
 1.2420	43.8840
 1.2430	43.9060
 1.2440	43.9260
 1.2450	43.9460
 1.2460	43.9640
 1.2470	43.9820
 1.2480	43.9990
 1.2490	44.0160
 1.2500	44.0320
 1.2510	44.0450
 1.2520	44.0580
 1.2530	44.0700
 1.2540	44.0790
 1.2550	44.0880
 1.2560	44.0970
 1.2570	44.1040
 1.2580	44.1080
 1.2590	44.1130
 1.2600	44.1180
 1.2610	44.1220
 1.2620	44.1250
 1.2630	44.1280
 1.2640	44.1270
 1.2650	44.1250
 1.2660	44.1220
 1.2670	44.1190
 1.2680	44.1170
 1.2690	44.1120
 1.2700	44.1070
 1.2710	44.0990
 1.2720	44.0910
 1.2730	44.0830
 1.2740	44.0740
 1.2750	44.0670
 1.2760	44.0580
 1.2770	44.0450
 1.2780	44.0310
 1.2790	44.0150
 1.2800	43.9960
 1.2810	43.9760
 1.2820	43.9540
 1.2830	43.9320
 1.2840	43.9090
 1.2850	43.8840
 1.2860	43.8580
 1.2870	43.8290
 1.2880	43.7970
 1.2890	43.7610
 1.2900	43.7240
 1.2910	43.6850
 1.2920	43.6420
 1.2930	43.5990
 1.2940	43.5530
 1.2950	43.5030
 1.2960	43.4530
 1.2970	43.4010
 1.2980	43.3460
 1.2990	43.2870
 1.3000	43.2230
 1.3010	43.1580
 1.3020	43.0910
 1.3030	43.0200
 1.3040	42.9480
 1.3050	42.8720
 1.3060	42.7910
 1.3070	42.7080
 1.3080	42.6250
 1.3090	42.5360
 1.3100	42.4430
 1.3110	42.3480
 1.3120	42.2500
 1.3130	42.1490
 1.3140	42.0430
 1.3150	41.9330
 1.3160	41.8200
 1.3170	41.7040
 1.3180	41.5840
 1.3190	41.4620
 1.3200	41.3380
 1.3210	41.2060
 1.3220	41.0730
 1.3230	40.9360
 1.3240	40.7920
 1.3250	40.6470
 1.3260	40.4990
 1.3270	40.3480
 1.3280	40.1990
 1.3290	40.0450
 1.3300	39.8890
 1.3310	39.7300
 1.3320	39.5660
 1.3330	39.4030
 1.3340	39.2380
 1.3350	39.0720
 1.3360	38.9050
 1.3370	38.7380
 1.3380	38.5720
 1.3390	38.4060
 1.3400	38.2390
 1.3410	38.0750
 1.3420	37.9120
 1.3430	37.7490
 1.3440	37.5860
 1.3450	37.4250
 1.3460	37.2630
 1.3470	37.1040
 1.3480	36.9490
 1.3490	36.7930
 1.3500	36.6400
 1.3510	36.4850
 1.3520	36.3300
 1.3530	36.1780
 1.3540	36.0240
 1.3550	35.8720
 1.3560	35.7190
 1.3570	35.5620
 1.3580	35.4040
 1.3590	35.2460
 1.3600	35.0830
 1.3610	34.9200
 1.3620	34.7520
 1.3630	34.5780
 1.3640	34.3960
 1.3650	34.2070
 1.3660	34.0120
 1.3670	33.8080
 1.3680	33.5920
 1.3690	33.3660
 1.3700	33.1220
 1.3710	32.8660
 1.3720	32.5970
 1.3730	32.3080
 1.3740	32.0070
 1.3750	31.6860
 1.3760	31.3420
 1.3770	30.9780
 1.3780	30.5850
 1.3790	30.1730
 1.3800	29.7410
 1.3810	29.2830
 1.3820	28.8080
 1.3830	28.3150
 1.3840	27.8050
 1.3850	27.2750
 1.3860	26.7360
 1.3870	26.1790
 1.3880	25.6220
 1.3890	25.0560
 1.3900	24.4820
 1.3910	23.9120
 1.3920	23.3390
 1.3930	22.7630
 1.3940	22.1960
 1.3950	21.6310
 1.3960	21.0760
 1.3970	20.5360
 1.3980	20.0080
 1.3990	19.5050
 1.4000	19.0180
 1.4010	18.5470
 1.4020	18.0990
 1.4030	17.6690
 1.4040	17.2590
 1.4050	16.8760
 1.4060	16.5140
 1.4070	16.1770
 1.4080	15.8630
 1.4090	15.5690
 1.4100	15.2960
 1.4110	15.0420
 1.4120	14.8080
 1.4130	14.5930
 1.4140	14.3960
 1.4150	14.2180
 1.4160	14.0550
 1.4170	13.9050
 1.4180	13.7690
 1.4190	13.6450
 1.4200	13.5320
 1.4210	13.4320
 1.4220	13.3420
 1.4230	13.2630
 1.4240	13.1930
 1.4250	13.1290
 1.4260	13.0740
 1.4270	13.0240
 1.4280	12.9830
 1.4290	12.9460
 1.4300	12.9160
 1.4310	12.8910
 1.4320	12.8720
 1.4330	12.8560
 1.4340	12.8470
 1.4350	12.8400
 1.4360	12.8370
 1.4370	12.8390
 1.4380	12.8420
 1.4390	12.8490
 1.4400	12.8590
 1.4410	12.8710
 1.4420	12.8840
 1.4430	12.9000
 1.4440	12.9180
 1.4450	12.9370
 1.4460	12.9570
 1.4470	12.9790
 1.4480	13.0000
 1.4490	13.0230
 1.4500	13.0470
 1.4510	13.0720
 1.4520	13.0980
 1.4530	13.1240
 1.4540	13.1500
 1.4550	13.1790
 1.4560	13.2090
 1.4570	13.2410
 1.4580	13.2750
 1.4590	13.3100
 1.4600	13.3480
 1.4610	13.3890
 1.4620	13.4340
 1.4630	13.4840
 1.4640	13.5370
 1.4650	13.5930
 1.4660	13.6530
 1.4670	13.7170
 1.4680	13.7850
 1.4690	13.8570
 1.4700	13.9340
