Name: Umbellularia californica 2
Type: vegetation
Class: Shrub
Genus: Umbellularia
Species: californica
Sample No.: VH027
Owner: UCSB
Wavelength Range: VSWIR
Origin: 34.5074; -119.7632; WGS84
Collection Date: 4/1/2013
Description: Samples were collected as part of the HyspIRI Airborne Campaign. 48 individual plants were sampled in three times in 2013 - spring  summer  and fall. The name of the sample includes a 1  2  or 3 which references a different individual of the species. Samples were taken to JPL and processed within 48 hours of collection. The same leaves were processed in the Nicolet and then measured using the ASD.
Measurement: Bidirectional reflectance
First Column: X
Second Column: Y
X Units: Wavelength (micrometers)
Y Units: Reflectance (percentage)
First X Value: 0.35
Last X Value: 2.5
Number of X Values: 2151
Additional Information: vegetation.shrub.umbellularia.californica.vswir.vh027.ucsb.asd.ancillary.txt

 0.3500	 6.0390
 0.3510	 6.1160
 0.3520	 6.2150
 0.3530	 6.2460
 0.3540	 6.1840
 0.3550	 6.0900
 0.3560	 6.1030
 0.3570	 6.1160
 0.3580	 5.9450
 0.3590	 5.9630
 0.3600	 6.0400
 0.3610	 6.0510
 0.3620	 5.9470
 0.3630	 5.9420
 0.3640	 6.0110
 0.3650	 6.0630
 0.3660	 5.9970
 0.3670	 5.9450
 0.3680	 5.9360
 0.3690	 5.9260
 0.3700	 5.9060
 0.3710	 5.8970
 0.3720	 5.9090
 0.3730	 5.9130
 0.3740	 5.9330
 0.3750	 5.9240
 0.3760	 5.8560
 0.3770	 5.8460
 0.3780	 5.8700
 0.3790	 5.8940
 0.3800	 5.8760
 0.3810	 5.8200
 0.3820	 5.7910
 0.3830	 5.8120
 0.3840	 5.8020
 0.3850	 5.7980
 0.3860	 5.8110
 0.3870	 5.8440
 0.3880	 5.8810
 0.3890	 5.8560
 0.3900	 5.8070
 0.3910	 5.8730
 0.3920	 5.8650
 0.3930	 5.8320
 0.3940	 5.8270
 0.3950	 5.7840
 0.3960	 5.7790
 0.3970	 5.8120
 0.3980	 5.8410
 0.3990	 5.8340
 0.4000	 5.8190
 0.4010	 5.8260
 0.4020	 5.8820
 0.4030	 5.9090
 0.4040	 5.8990
 0.4050	 5.8760
 0.4060	 5.9150
 0.4070	 5.9280
 0.4080	 5.9170
 0.4090	 5.9400
 0.4100	 5.9290
 0.4110	 5.9300
 0.4120	 5.9620
 0.4130	 5.9720
 0.4140	 5.9630
 0.4150	 5.9510
 0.4160	 5.9590
 0.4170	 6.0060
 0.4180	 6.0320
 0.4190	 6.0320
 0.4200	 6.0550
 0.4210	 6.0760
 0.4220	 6.0810
 0.4230	 6.0720
 0.4240	 6.0850
 0.4250	 6.1080
 0.4260	 6.1240
 0.4270	 6.1180
 0.4280	 6.1260
 0.4290	 6.1300
 0.4300	 6.1280
 0.4310	 6.1390
 0.4320	 6.1520
 0.4330	 6.1660
 0.4340	 6.1770
 0.4350	 6.1650
 0.4360	 6.1640
 0.4370	 6.1730
 0.4380	 6.1700
 0.4390	 6.1750
 0.4400	 6.1850
 0.4410	 6.1930
 0.4420	 6.1900
 0.4430	 6.1860
 0.4440	 6.1880
 0.4450	 6.2020
 0.4460	 6.2140
 0.4470	 6.2250
 0.4480	 6.2350
 0.4490	 6.2460
 0.4500	 6.2520
 0.4510	 6.2540
 0.4520	 6.2550
 0.4530	 6.2590
 0.4540	 6.2700
 0.4550	 6.2840
 0.4560	 6.2950
 0.4570	 6.2990
 0.4580	 6.2980
 0.4590	 6.2970
 0.4600	 6.3020
 0.4610	 6.2970
 0.4620	 6.2900
 0.4630	 6.2940
 0.4640	 6.3030
 0.4650	 6.3070
 0.4660	 6.3030
 0.4670	 6.2900
 0.4680	 6.2920
 0.4690	 6.2900
 0.4700	 6.2760
 0.4710	 6.2800
 0.4720	 6.2900
 0.4730	 6.2930
 0.4740	 6.2820
 0.4750	 6.2770
 0.4760	 6.2810
 0.4770	 6.2880
 0.4780	 6.2850
 0.4790	 6.2850
 0.4800	 6.2910
 0.4810	 6.3010
 0.4820	 6.3020
 0.4830	 6.3090
 0.4840	 6.3180
 0.4850	 6.3190
 0.4860	 6.3260
 0.4870	 6.3330
 0.4880	 6.3360
 0.4890	 6.3490
 0.4900	 6.3600
 0.4910	 6.3710
 0.4920	 6.3870
 0.4930	 6.4060
 0.4940	 6.4260
 0.4950	 6.4480
 0.4960	 6.4710
 0.4970	 6.4970
 0.4980	 6.5220
 0.4990	 6.5450
 0.5000	 6.5780
 0.5010	 6.6210
 0.5020	 6.6690
 0.5030	 6.7100
 0.5040	 6.7630
 0.5050	 6.8290
 0.5060	 6.9020
 0.5070	 6.9810
 0.5080	 7.0610
 0.5090	 7.1490
 0.5100	 7.2560
 0.5110	 7.3710
 0.5120	 7.4940
 0.5130	 7.6240
 0.5140	 7.7650
 0.5150	 7.9290
 0.5160	 8.1040
 0.5170	 8.2800
 0.5180	 8.4720
 0.5190	 8.6730
 0.5200	 8.8790
 0.5210	 9.0900
 0.5220	 9.3000
 0.5230	 9.5090
 0.5240	 9.7210
 0.5250	 9.9380
 0.5260	10.1370
 0.5270	10.3230
 0.5280	10.5060
 0.5290	10.6730
 0.5300	10.8310
 0.5310	10.9800
 0.5320	11.1170
 0.5330	11.2440
 0.5340	11.3590
 0.5350	11.4580
 0.5360	11.5450
 0.5370	11.6300
 0.5380	11.7100
 0.5390	11.7760
 0.5400	11.8450
 0.5410	11.9140
 0.5420	11.9790
 0.5430	12.0390
 0.5440	12.0940
 0.5450	12.1450
 0.5460	12.1910
 0.5470	12.2240
 0.5480	12.2490
 0.5490	12.2720
 0.5500	12.2940
 0.5510	12.3110
 0.5520	12.3190
 0.5530	12.3140
 0.5540	12.2940
 0.5550	12.2580
 0.5560	12.2070
 0.5570	12.1420
 0.5580	12.0630
 0.5590	11.9740
 0.5600	11.8800
 0.5610	11.7720
 0.5620	11.6580
 0.5630	11.5370
 0.5640	11.4090
 0.5650	11.2710
 0.5660	11.1310
 0.5670	10.9920
 0.5680	10.8470
 0.5690	10.7000
 0.5700	10.5550
 0.5710	10.4130
 0.5720	10.2730
 0.5730	10.1350
 0.5740	10.0050
 0.5750	 9.8880
 0.5760	 9.7820
 0.5770	 9.6790
 0.5780	 9.5760
 0.5790	 9.4820
 0.5800	 9.3950
 0.5810	 9.3160
 0.5820	 9.2480
 0.5830	 9.1860
 0.5840	 9.1220
 0.5850	 9.0580
 0.5860	 8.9990
 0.5870	 8.9460
 0.5880	 8.8980
 0.5890	 8.8540
 0.5900	 8.8120
 0.5910	 8.7740
 0.5920	 8.7380
 0.5930	 8.7020
 0.5940	 8.6780
 0.5950	 8.6590
 0.5960	 8.6390
 0.5970	 8.6160
 0.5980	 8.5920
 0.5990	 8.5640
 0.6000	 8.5290
 0.6010	 8.4950
 0.6020	 8.4580
 0.6030	 8.4190
 0.6040	 8.3850
 0.6050	 8.3420
 0.6060	 8.2940
 0.6070	 8.2450
 0.6080	 8.1940
 0.6090	 8.1430
 0.6100	 8.0920
 0.6110	 8.0410
 0.6120	 7.9840
 0.6130	 7.9240
 0.6140	 7.8630
 0.6150	 7.8110
 0.6160	 7.7560
 0.6170	 7.7050
 0.6180	 7.6630
 0.6190	 7.6230
 0.6200	 7.5860
 0.6210	 7.5550
 0.6220	 7.5290
 0.6230	 7.5060
 0.6240	 7.4840
 0.6250	 7.4660
 0.6260	 7.4500
 0.6270	 7.4390
 0.6280	 7.4310
 0.6290	 7.4260
 0.6300	 7.4190
 0.6310	 7.4110
 0.6320	 7.4010
 0.6330	 7.3900
 0.6340	 7.3700
 0.6350	 7.3450
 0.6360	 7.3160
 0.6370	 7.2780
 0.6380	 7.2380
 0.6390	 7.1950
 0.6400	 7.1460
 0.6410	 7.0920
 0.6420	 7.0390
 0.6430	 6.9860
 0.6440	 6.9340
 0.6450	 6.8800
 0.6460	 6.8310
 0.6470	 6.7890
 0.6480	 6.7510
 0.6490	 6.7160
 0.6500	 6.6860
 0.6510	 6.6630
 0.6520	 6.6390
 0.6530	 6.6150
 0.6540	 6.5940
 0.6550	 6.5760
 0.6560	 6.5550
 0.6570	 6.5320
 0.6580	 6.5100
 0.6590	 6.4850
 0.6600	 6.4590
 0.6610	 6.4330
 0.6620	 6.4060
 0.6630	 6.3820
 0.6640	 6.3610
 0.6650	 6.3440
 0.6660	 6.3340
 0.6670	 6.3250
 0.6680	 6.3180
 0.6690	 6.3190
 0.6700	 6.3200
 0.6710	 6.3240
 0.6720	 6.3320
 0.6730	 6.3450
 0.6740	 6.3610
 0.6750	 6.3800
 0.6760	 6.4010
 0.6770	 6.4220
 0.6780	 6.4490
 0.6790	 6.4810
 0.6800	 6.5160
 0.6810	 6.5540
 0.6820	 6.5930
 0.6830	 6.6340
 0.6840	 6.6870
 0.6850	 6.7470
 0.6860	 6.8130
 0.6870	 6.8910
 0.6880	 6.9960
 0.6890	 7.1240
 0.6900	 7.2820
 0.6910	 7.4830
 0.6920	 7.7350
 0.6930	 8.0480
 0.6940	 8.4280
 0.6950	 8.8860
 0.6960	 9.4160
 0.6970	10.0200
 0.6980	10.7010
 0.6990	11.4540
 0.7000	12.2690
 0.7010	13.1330
 0.7020	14.0400
 0.7030	14.9840
 0.7040	15.9520
 0.7050	16.9310
 0.7060	17.9170
 0.7070	18.9070
 0.7080	19.9000
 0.7090	20.8970
 0.7100	21.8790
 0.7110	22.8570
 0.7120	23.8330
 0.7130	24.7970
 0.7140	25.7480
 0.7150	26.6880
 0.7160	27.6190
 0.7170	28.5320
 0.7180	29.4260
 0.7190	30.3050
 0.7200	31.1770
 0.7210	32.0220
 0.7220	32.8490
 0.7230	33.6580
 0.7240	34.4440
 0.7250	35.1970
 0.7260	35.9260
 0.7270	36.6360
 0.7280	37.3220
 0.7290	37.9710
 0.7300	38.5840
 0.7310	39.1670
 0.7320	39.7290
 0.7330	40.2730
 0.7340	40.7930
 0.7350	41.2780
 0.7360	41.7380
 0.7370	42.1720
 0.7380	42.5810
 0.7390	42.9660
 0.7400	43.3270
 0.7410	43.6620
 0.7420	43.9730
 0.7430	44.2730
 0.7440	44.5470
 0.7450	44.7940
 0.7460	45.0290
 0.7470	45.2490
 0.7480	45.4520
 0.7490	45.6370
 0.7500	45.8040
 0.7510	45.9590
 0.7520	46.1010
 0.7530	46.2260
 0.7540	46.3350
 0.7550	46.4400
 0.7560	46.5390
 0.7570	46.6190
 0.7580	46.6980
 0.7590	46.7670
 0.7600	46.8260
 0.7610	46.8880
 0.7620	46.9420
 0.7630	46.9890
 0.7640	47.0340
 0.7650	47.0740
 0.7660	47.1120
 0.7670	47.1420
 0.7680	47.1560
 0.7690	47.1760
 0.7700	47.1960
 0.7710	47.2140
 0.7720	47.2420
 0.7730	47.2570
 0.7740	47.2690
 0.7750	47.2850
 0.7760	47.2940
 0.7770	47.3050
 0.7780	47.3210
 0.7790	47.3390
 0.7800	47.3430
 0.7810	47.3510
 0.7820	47.3660
 0.7830	47.3760
 0.7840	47.3880
 0.7850	47.3960
 0.7860	47.3970
 0.7870	47.4030
 0.7880	47.4090
 0.7890	47.4160
 0.7900	47.4250
 0.7910	47.4360
 0.7920	47.4480
 0.7930	47.4520
 0.7940	47.4390
 0.7950	47.4410
 0.7960	47.4470
 0.7970	47.4480
 0.7980	47.4550
 0.7990	47.4530
 0.8000	47.4480
 0.8010	47.4460
 0.8020	47.4460
 0.8030	47.4480
 0.8040	47.4450
 0.8050	47.4330
 0.8060	47.4340
 0.8070	47.4280
 0.8080	47.4180
 0.8090	47.4240
 0.8100	47.4110
 0.8110	47.4010
 0.8120	47.4010
 0.8130	47.3790
 0.8140	47.3710
 0.8150	47.3680
 0.8160	47.3510
 0.8170	47.3390
 0.8180	47.3330
 0.8190	47.3290
 0.8200	47.3180
 0.8210	47.3040
 0.8220	47.2950
 0.8230	47.2890
 0.8240	47.2710
 0.8250	47.2460
 0.8260	47.2290
 0.8270	47.2250
 0.8280	47.2100
 0.8290	47.2020
 0.8300	47.1950
 0.8310	47.1790
 0.8320	47.1510
 0.8330	47.1360
 0.8340	47.1360
 0.8350	47.1410
 0.8360	47.1210
 0.8370	47.1040
 0.8380	47.0950
 0.8390	47.0840
 0.8400	47.0810
 0.8410	47.0770
 0.8420	47.0680
 0.8430	47.0590
 0.8440	47.0520
 0.8450	47.0480
 0.8460	47.0440
 0.8470	47.0360
 0.8480	47.0240
 0.8490	47.0150
 0.8500	47.0150
 0.8510	47.0220
 0.8520	47.0170
 0.8530	47.0030
 0.8540	46.9930
 0.8550	46.9890
 0.8560	46.9890
 0.8570	46.9850
 0.8580	46.9680
 0.8590	46.9720
 0.8600	46.9760
 0.8610	46.9680
 0.8620	46.9730
 0.8630	46.9780
 0.8640	46.9830
 0.8650	46.9840
 0.8660	46.9760
 0.8670	46.9700
 0.8680	46.9700
 0.8690	46.9760
 0.8700	46.9810
 0.8710	46.9800
 0.8720	46.9750
 0.8730	46.9690
 0.8740	46.9630
 0.8750	46.9630
 0.8760	46.9710
 0.8770	46.9790
 0.8780	46.9890
 0.8790	46.9900
 0.8800	46.9850
 0.8810	46.9900
 0.8820	47.0070
 0.8830	47.0120
 0.8840	46.9960
 0.8850	46.9920
 0.8860	47.0090
 0.8870	47.0240
 0.8880	47.0150
 0.8890	47.0240
 0.8900	47.0330
 0.8910	47.0380
 0.8920	47.0360
 0.8930	47.0250
 0.8940	47.0350
 0.8950	47.0540
 0.8960	47.0470
 0.8970	47.0550
 0.8980	47.0610
 0.8990	47.0590
 0.9000	47.0560
 0.9010	47.0600
 0.9020	47.0620
 0.9030	47.0600
 0.9040	47.0670
 0.9050	47.0690
 0.9060	47.0720
 0.9070	47.0810
 0.9080	47.0880
 0.9090	47.0950
 0.9100	47.0990
 0.9110	47.0980
 0.9120	47.1040
 0.9130	47.1200
 0.9140	47.1270
 0.9150	47.1160
 0.9160	47.1210
 0.9170	47.1180
 0.9180	47.1090
 0.9190	47.1030
 0.9200	47.1070
 0.9210	47.1060
 0.9220	47.1020
 0.9230	47.1070
 0.9240	47.1140
 0.9250	47.1100
 0.9260	47.0950
 0.9270	47.0810
 0.9280	47.0830
 0.9290	47.0820
 0.9300	47.0730
 0.9310	47.0660
 0.9320	47.0730
 0.9330	47.0670
 0.9340	47.0450
 0.9350	47.0340
 0.9360	47.0250
 0.9370	47.0120
 0.9380	46.9970
 0.9390	46.9870
 0.9400	46.9860
 0.9410	46.9630
 0.9420	46.9160
 0.9430	46.9060
 0.9440	46.8860
 0.9450	46.8680
 0.9460	46.8590
 0.9470	46.8250
 0.9480	46.7960
 0.9490	46.7640
 0.9500	46.7210
 0.9510	46.6880
 0.9520	46.6660
 0.9530	46.6370
 0.9540	46.5890
 0.9550	46.5520
 0.9560	46.5140
 0.9570	46.4690
 0.9580	46.4210
 0.9590	46.4050
 0.9600	46.3670
 0.9610	46.3220
 0.9620	46.3000
 0.9630	46.2830
 0.9640	46.2690
 0.9650	46.2580
 0.9660	46.2430
 0.9670	46.2210
 0.9680	46.2110
 0.9690	46.1950
 0.9700	46.1540
 0.9710	46.1560
 0.9720	46.1420
 0.9730	46.1210
 0.9740	46.1200
 0.9750	46.1100
 0.9760	46.1080
 0.9770	46.1070
 0.9780	46.0920
 0.9790	46.0830
 0.9800	46.0920
 0.9810	46.1070
 0.9820	46.1120
 0.9830	46.1030
 0.9840	46.1040
 0.9850	46.1020
 0.9860	46.0790
 0.9870	46.0880
 0.9880	46.1140
 0.9890	46.1300
 0.9900	46.1210
 0.9910	46.1250
 0.9920	46.1860
 0.9930	46.2460
 0.9940	46.3070
 0.9950	46.3680
 0.9960	46.4290
 0.9970	46.4890
 0.9980	46.5500
 0.9990	46.6110
 1.0000	46.6710
 1.0010	46.7320
 1.0020	46.7930
 1.0030	46.8530
 1.0040	46.9140
 1.0050	46.9750
 1.0060	47.0350
 1.0070	47.0960
 1.0080	47.1570
 1.0090	47.2170
 1.0100	47.2170
 1.0110	47.2230
 1.0120	47.2300
 1.0130	47.2370
 1.0140	47.2430
 1.0150	47.2470
 1.0160	47.2540
 1.0170	47.2630
 1.0180	47.2650
 1.0190	47.2690
 1.0200	47.2810
 1.0210	47.2880
 1.0220	47.2950
 1.0230	47.3000
 1.0240	47.3010
 1.0250	47.3070
 1.0260	47.3150
 1.0270	47.3230
 1.0280	47.3340
 1.0290	47.3420
 1.0300	47.3500
 1.0310	47.3560
 1.0320	47.3600
 1.0330	47.3660
 1.0340	47.3740
 1.0350	47.3770
 1.0360	47.3850
 1.0370	47.3950
 1.0380	47.4020
 1.0390	47.4100
 1.0400	47.4130
 1.0410	47.4090
 1.0420	47.4120
 1.0430	47.4140
 1.0440	47.4180
 1.0450	47.4280
 1.0460	47.4330
 1.0470	47.4350
 1.0480	47.4380
 1.0490	47.4390
 1.0500	47.4400
 1.0510	47.4420
 1.0520	47.4450
 1.0530	47.4460
 1.0540	47.4450
 1.0550	47.4450
 1.0560	47.4440
 1.0570	47.4460
 1.0580	47.4520
 1.0590	47.4530
 1.0600	47.4540
 1.0610	47.4540
 1.0620	47.4470
 1.0630	47.4450
 1.0640	47.4460
 1.0650	47.4450
 1.0660	47.4450
 1.0670	47.4440
 1.0680	47.4410
 1.0690	47.4340
 1.0700	47.4320
 1.0710	47.4310
 1.0720	47.4280
 1.0730	47.4260
 1.0740	47.4220
 1.0750	47.4130
 1.0760	47.4080
 1.0770	47.4050
 1.0780	47.3980
 1.0790	47.3890
 1.0800	47.3820
 1.0810	47.3710
 1.0820	47.3640
 1.0830	47.3640
 1.0840	47.3610
 1.0850	47.3560
 1.0860	47.3510
 1.0870	47.3450
 1.0880	47.3370
 1.0890	47.3290
 1.0900	47.3200
 1.0910	47.3140
 1.0920	47.3080
 1.0930	47.3020
 1.0940	47.2990
 1.0950	47.2910
 1.0960	47.2760
 1.0970	47.2650
 1.0980	47.2520
 1.0990	47.2410
 1.1000	47.2350
 1.1010	47.2260
 1.1020	47.2150
 1.1030	47.2050
 1.1040	47.1990
 1.1050	47.1890
 1.1060	47.1800
 1.1070	47.1750
 1.1080	47.1630
 1.1090	47.1470
 1.1100	47.1330
 1.1110	47.1160
 1.1120	47.1030
 1.1130	47.0920
 1.1140	47.0800
 1.1150	47.0700
 1.1160	47.0570
 1.1170	47.0430
 1.1180	47.0260
 1.1190	47.0060
 1.1200	46.9860
 1.1210	46.9650
 1.1220	46.9420
 1.1230	46.9200
 1.1240	46.8960
 1.1250	46.8650
 1.1260	46.8300
 1.1270	46.7940
 1.1280	46.7540
 1.1290	46.7100
 1.1300	46.6640
 1.1310	46.6100
 1.1320	46.5490
 1.1330	46.4860
 1.1340	46.4190
 1.1350	46.3460
 1.1360	46.2680
 1.1370	46.1850
 1.1380	46.0980
 1.1390	46.0090
 1.1400	45.9140
 1.1410	45.8200
 1.1420	45.7250
 1.1430	45.6270
 1.1440	45.5310
 1.1450	45.4370
 1.1460	45.3430
 1.1470	45.2450
 1.1480	45.1540
 1.1490	45.0630
 1.1500	44.9790
 1.1510	44.9010
 1.1520	44.8260
 1.1530	44.7530
 1.1540	44.6880
 1.1550	44.6270
 1.1560	44.5730
 1.1570	44.5240
 1.1580	44.4810
 1.1590	44.4380
 1.1600	44.3980
 1.1610	44.3630
 1.1620	44.3310
 1.1630	44.3030
 1.1640	44.2780
 1.1650	44.2550
 1.1660	44.2330
 1.1670	44.2130
 1.1680	44.1950
 1.1690	44.1770
 1.1700	44.1610
 1.1710	44.1440
 1.1720	44.1290
 1.1730	44.1140
 1.1740	44.1000
 1.1750	44.0840
 1.1760	44.0640
 1.1770	44.0450
 1.1780	44.0250
 1.1790	44.0040
 1.1800	43.9850
 1.1810	43.9680
 1.1820	43.9470
 1.1830	43.9270
 1.1840	43.9050
 1.1850	43.8840
 1.1860	43.8650
 1.1870	43.8480
 1.1880	43.8310
 1.1890	43.8160
 1.1900	43.8000
 1.1910	43.7810
 1.1920	43.7660
 1.1930	43.7510
 1.1940	43.7400
 1.1950	43.7310
 1.1960	43.7240
 1.1970	43.7180
 1.1980	43.7120
 1.1990	43.7090
 1.2000	43.7090
 1.2010	43.7130
 1.2020	43.7150
 1.2030	43.7170
 1.2040	43.7230
 1.2050	43.7300
 1.2060	43.7390
 1.2070	43.7510
 1.2080	43.7650
 1.2090	43.7800
 1.2100	43.7960
 1.2110	43.8140
 1.2120	43.8330
 1.2130	43.8520
 1.2140	43.8700
 1.2150	43.8910
 1.2160	43.9140
 1.2170	43.9380
 1.2180	43.9670
 1.2190	43.9940
 1.2200	44.0200
 1.2210	44.0480
 1.2220	44.0760
 1.2230	44.1020
 1.2240	44.1290
 1.2250	44.1550
 1.2260	44.1810
 1.2270	44.2050
 1.2280	44.2300
 1.2290	44.2550
 1.2300	44.2750
 1.2310	44.2940
 1.2320	44.3130
 1.2330	44.3320
 1.2340	44.3490
 1.2350	44.3660
 1.2360	44.3820
 1.2370	44.3980
 1.2380	44.4120
 1.2390	44.4270
 1.2400	44.4410
 1.2410	44.4530
 1.2420	44.4620
 1.2430	44.4730
 1.2440	44.4830
 1.2450	44.4920
 1.2460	44.5010
 1.2470	44.5100
 1.2480	44.5200
 1.2490	44.5300
 1.2500	44.5390
 1.2510	44.5440
 1.2520	44.5470
 1.2530	44.5500
 1.2540	44.5530
 1.2550	44.5580
 1.2560	44.5620
 1.2570	44.5670
 1.2580	44.5710
 1.2590	44.5720
 1.2600	44.5700
 1.2610	44.5690
 1.2620	44.5670
 1.2630	44.5650
 1.2640	44.5640
 1.2650	44.5630
 1.2660	44.5600
 1.2670	44.5550
 1.2680	44.5510
 1.2690	44.5470
 1.2700	44.5410
 1.2710	44.5370
 1.2720	44.5340
 1.2730	44.5260
 1.2740	44.5160
 1.2750	44.5080
 1.2760	44.4980
 1.2770	44.4900
 1.2780	44.4810
 1.2790	44.4680
 1.2800	44.4530
 1.2810	44.4380
 1.2820	44.4220
 1.2830	44.4080
 1.2840	44.3920
 1.2850	44.3730
 1.2860	44.3540
 1.2870	44.3340
 1.2880	44.3130
 1.2890	44.2870
 1.2900	44.2610
 1.2910	44.2320
 1.2920	44.2020
 1.2930	44.1730
 1.2940	44.1420
 1.2950	44.1090
 1.2960	44.0750
 1.2970	44.0390
 1.2980	44.0000
 1.2990	43.9570
 1.3000	43.9140
 1.3010	43.8680
 1.3020	43.8210
 1.3030	43.7750
 1.3040	43.7280
 1.3050	43.6790
 1.3060	43.6290
 1.3070	43.5780
 1.3080	43.5220
 1.3090	43.4620
 1.3100	43.4020
 1.3110	43.3390
 1.3120	43.2750
 1.3130	43.2130
 1.3140	43.1480
 1.3150	43.0800
 1.3160	43.0110
 1.3170	42.9410
 1.3180	42.8650
 1.3190	42.7860
 1.3200	42.7070
 1.3210	42.6220
 1.3220	42.5380
 1.3230	42.4560
 1.3240	42.3700
 1.3250	42.2830
 1.3260	42.1950
 1.3270	42.1020
 1.3280	42.0090
 1.3290	41.9140
 1.3300	41.8170
 1.3310	41.7190
 1.3320	41.6190
 1.3330	41.5190
 1.3340	41.4180
 1.3350	41.3140
 1.3360	41.2090
 1.3370	41.1050
 1.3380	40.9990
 1.3390	40.8940
 1.3400	40.7890
 1.3410	40.6840
 1.3420	40.5770
 1.3430	40.4690
 1.3440	40.3640
 1.3450	40.2590
 1.3460	40.1530
 1.3470	40.0490
 1.3480	39.9450
 1.3490	39.8410
 1.3500	39.7370
 1.3510	39.6350
 1.3520	39.5310
 1.3530	39.4280
 1.3540	39.3240
 1.3550	39.2190
 1.3560	39.1120
 1.3570	39.0050
 1.3580	38.8970
 1.3590	38.7870
 1.3600	38.6760
 1.3610	38.5620
 1.3620	38.4420
 1.3630	38.3180
 1.3640	38.1900
 1.3650	38.0540
 1.3660	37.9130
 1.3670	37.7640
 1.3680	37.6050
 1.3690	37.4380
 1.3700	37.2590
 1.3710	37.0710
 1.3720	36.8700
 1.3730	36.6540
 1.3740	36.4240
 1.3750	36.1760
 1.3760	35.9100
 1.3770	35.6230
 1.3780	35.3140
 1.3790	34.9870
 1.3800	34.6390
 1.3810	34.2690
 1.3820	33.8830
 1.3830	33.4780
 1.3840	33.0540
 1.3850	32.6120
 1.3860	32.1530
 1.3870	31.6730
 1.3880	31.1870
 1.3890	30.6870
 1.3900	30.1740
 1.3910	29.6610
 1.3920	29.1380
 1.3930	28.6090
 1.3940	28.0810
 1.3950	27.5460
 1.3960	27.0190
 1.3970	26.4990
 1.3980	25.9870
 1.3990	25.4920
 1.4000	25.0070
 1.4010	24.5340
 1.4020	24.0770
 1.4030	23.6340
 1.4040	23.2090
 1.4050	22.8040
 1.4060	22.4180
 1.4070	22.0550
 1.4080	21.7130
 1.4090	21.3890
 1.4100	21.0870
 1.4110	20.8020
 1.4120	20.5380
 1.4130	20.2920
 1.4140	20.0630
 1.4150	19.8540
 1.4160	19.6620
 1.4170	19.4840
 1.4180	19.3230
 1.4190	19.1740
 1.4200	19.0390
 1.4210	18.9160
 1.4220	18.8030
 1.4230	18.7010
 1.4240	18.6110
 1.4250	18.5280
 1.4260	18.4560
 1.4270	18.3910
 1.4280	18.3350
 1.4290	18.2840
 1.4300	18.2400
 1.4310	18.2030
 1.4320	18.1720
 1.4330	18.1470
 1.4340	18.1270
 1.4350	18.1120
 1.4360	18.1020
 1.4370	18.0960
 1.4380	18.0950
 1.4390	18.0960
 1.4400	18.1010
 1.4410	18.1100
 1.4420	18.1220
 1.4430	18.1360
 1.4440	18.1530
 1.4450	18.1700
 1.4460	18.1890
 1.4470	18.2090
 1.4480	18.2310
 1.4490	18.2550
 1.4500	18.2810
 1.4510	18.3080
 1.4520	18.3380
 1.4530	18.3680
 1.4540	18.4000
 1.4550	18.4330
 1.4560	18.4680
 1.4570	18.5060
 1.4580	18.5480
 1.4590	18.5940
 1.4600	18.6440
 1.4610	18.6970
 1.4620	18.7540
 1.4630	18.8160
 1.4640	18.8830
 1.4650	18.9550
 1.4660	19.0320
 1.4670	19.1130
 1.4680	19.2010
 1.4690	19.2930
