Name: Chorisia speciosa
Type: vegetation
Class: Tree
Genus: Chorisia
Species: speciosa
Sample No.: JPL257
Owner: JPL
Wavelength Range: VSWIR
Origin: 34.13126; -118.11315; WGS84
Collection Date: 10/6/2016
Description: Samples were collected at the Huntington Garden in San Marino California as part of a JPL Subcontract studying HyTES imagery. Samples were taken to JPL and processed within 48 hours of collection. The same leaves were processed in the Nicolet and then measured using the ASD.
Measurement: Bidirectional reflectance
First Column: X
Second Column: Y
X Units: Wavelength (micrometer)
Y Units: Reflectance (percentage)
First X Value: 0.35
Last X Value: 2.5
Number of X Values: 2151
Additional Information: vegetation.tree.chorisia.speciosa.vswir.jpl257.jpl.asd.ancillary.txt

 0.3500	 4.7760
 0.3510	 4.6970
 0.3520	 4.5020
 0.3530	 4.4150
 0.3540	 4.5520
 0.3550	 4.5760
 0.3560	 4.5230
 0.3570	 4.4670
 0.3580	 4.4910
 0.3590	 4.5790
 0.3600	 4.5620
 0.3610	 4.4360
 0.3620	 4.4410
 0.3630	 4.4370
 0.3640	 4.4230
 0.3650	 4.4220
 0.3660	 4.4240
 0.3670	 4.3670
 0.3680	 4.3140
 0.3690	 4.3920
 0.3700	 4.4220
 0.3710	 4.4390
 0.3720	 4.4620
 0.3730	 4.4410
 0.3740	 4.3880
 0.3750	 4.3450
 0.3760	 4.3510
 0.3770	 4.3990
 0.3780	 4.4300
 0.3790	 4.4400
 0.3800	 4.4690
 0.3810	 4.4520
 0.3820	 4.4320
 0.3830	 4.4420
 0.3840	 4.4570
 0.3850	 4.4200
 0.3860	 4.4060
 0.3870	 4.4990
 0.3880	 4.5470
 0.3890	 4.5330
 0.3900	 4.4940
 0.3910	 4.5040
 0.3920	 4.4930
 0.3930	 4.4930
 0.3940	 4.5320
 0.3950	 4.5800
 0.3960	 4.6240
 0.3970	 4.6510
 0.3980	 4.6530
 0.3990	 4.6800
 0.4000	 4.7010
 0.4010	 4.7100
 0.4020	 4.7420
 0.4030	 4.7690
 0.4040	 4.7840
 0.4050	 4.7920
 0.4060	 4.7990
 0.4070	 4.8220
 0.4080	 4.8480
 0.4090	 4.8500
 0.4100	 4.8460
 0.4110	 4.8470
 0.4120	 4.8580
 0.4130	 4.8680
 0.4140	 4.8770
 0.4150	 4.8850
 0.4160	 4.8920
 0.4170	 4.9010
 0.4180	 4.9140
 0.4190	 4.9280
 0.4200	 4.9310
 0.4210	 4.9320
 0.4220	 4.9360
 0.4230	 4.9390
 0.4240	 4.9340
 0.4250	 4.9390
 0.4260	 4.9450
 0.4270	 4.9350
 0.4280	 4.9360
 0.4290	 4.9420
 0.4300	 4.9460
 0.4310	 4.9440
 0.4320	 4.9370
 0.4330	 4.9360
 0.4340	 4.9470
 0.4350	 4.9460
 0.4360	 4.9460
 0.4370	 4.9510
 0.4380	 4.9540
 0.4390	 4.9610
 0.4400	 4.9650
 0.4410	 4.9620
 0.4420	 4.9700
 0.4430	 4.9720
 0.4440	 4.9720
 0.4450	 4.9810
 0.4460	 4.9920
 0.4470	 5.0020
 0.4480	 5.0080
 0.4490	 5.0060
 0.4500	 5.0110
 0.4510	 5.0200
 0.4520	 5.0250
 0.4530	 5.0280
 0.4540	 5.0300
 0.4550	 5.0390
 0.4560	 5.0570
 0.4570	 5.0610
 0.4580	 5.0580
 0.4590	 5.0590
 0.4600	 5.0680
 0.4610	 5.0680
 0.4620	 5.0670
 0.4630	 5.0740
 0.4640	 5.0750
 0.4650	 5.0730
 0.4660	 5.0710
 0.4670	 5.0730
 0.4680	 5.0730
 0.4690	 5.0740
 0.4700	 5.0760
 0.4710	 5.0740
 0.4720	 5.0750
 0.4730	 5.0770
 0.4740	 5.0740
 0.4750	 5.0730
 0.4760	 5.0760
 0.4770	 5.0790
 0.4780	 5.0750
 0.4790	 5.0740
 0.4800	 5.0750
 0.4810	 5.0730
 0.4820	 5.0790
 0.4830	 5.0920
 0.4840	 5.1030
 0.4850	 5.1030
 0.4860	 5.1100
 0.4870	 5.1180
 0.4880	 5.1250
 0.4890	 5.1370
 0.4900	 5.1520
 0.4910	 5.1700
 0.4920	 5.1890
 0.4930	 5.2040
 0.4940	 5.2240
 0.4950	 5.2530
 0.4960	 5.2850
 0.4970	 5.3100
 0.4980	 5.3340
 0.4990	 5.3650
 0.5000	 5.4050
 0.5010	 5.4510
 0.5020	 5.5010
 0.5030	 5.5520
 0.5040	 5.6050
 0.5050	 5.6650
 0.5060	 5.7330
 0.5070	 5.8090
 0.5080	 5.8930
 0.5090	 5.9840
 0.5100	 6.0810
 0.5110	 6.1920
 0.5120	 6.3120
 0.5130	 6.4410
 0.5140	 6.5810
 0.5150	 6.7310
 0.5160	 6.8910
 0.5170	 7.0620
 0.5180	 7.2400
 0.5190	 7.4270
 0.5200	 7.6210
 0.5210	 7.8200
 0.5220	 8.0160
 0.5230	 8.2150
 0.5240	 8.4190
 0.5250	 8.6160
 0.5260	 8.8100
 0.5270	 8.9980
 0.5280	 9.1750
 0.5290	 9.3460
 0.5300	 9.5070
 0.5310	 9.6570
 0.5320	 9.7990
 0.5330	 9.9290
 0.5340	10.0470
 0.5350	10.1540
 0.5360	10.2490
 0.5370	10.3360
 0.5380	10.4160
 0.5390	10.4900
 0.5400	10.5640
 0.5410	10.6400
 0.5420	10.7120
 0.5430	10.7740
 0.5440	10.8220
 0.5450	10.8550
 0.5460	10.8760
 0.5470	10.8880
 0.5480	10.9010
 0.5490	10.9180
 0.5500	10.9350
 0.5510	10.9440
 0.5520	10.9460
 0.5530	10.9400
 0.5540	10.9260
 0.5550	10.8990
 0.5560	10.8630
 0.5570	10.8240
 0.5580	10.7720
 0.5590	10.7090
 0.5600	10.6370
 0.5610	10.5530
 0.5620	10.4610
 0.5630	10.3610
 0.5640	10.2530
 0.5650	10.1430
 0.5660	10.0300
 0.5670	 9.9130
 0.5680	 9.7900
 0.5690	 9.6640
 0.5700	 9.5390
 0.5710	 9.4180
 0.5720	 9.3050
 0.5730	 9.1990
 0.5740	 9.0980
 0.5750	 9.0030
 0.5760	 8.9130
 0.5770	 8.8300
 0.5780	 8.7540
 0.5790	 8.6850
 0.5800	 8.6210
 0.5810	 8.5590
 0.5820	 8.4940
 0.5830	 8.4320
 0.5840	 8.3740
 0.5850	 8.3170
 0.5860	 8.2600
 0.5870	 8.2050
 0.5880	 8.1510
 0.5890	 8.0960
 0.5900	 8.0420
 0.5910	 7.9930
 0.5920	 7.9490
 0.5930	 7.9110
 0.5940	 7.8780
 0.5950	 7.8460
 0.5960	 7.8140
 0.5970	 7.7850
 0.5980	 7.7540
 0.5990	 7.7240
 0.6000	 7.6940
 0.6010	 7.6640
 0.6020	 7.6340
 0.6030	 7.6040
 0.6040	 7.5740
 0.6050	 7.5420
 0.6060	 7.5070
 0.6070	 7.4720
 0.6080	 7.4370
 0.6090	 7.4050
 0.6100	 7.3790
 0.6110	 7.3530
 0.6120	 7.3160
 0.6130	 7.2700
 0.6140	 7.2190
 0.6150	 7.1740
 0.6160	 7.1310
 0.6170	 7.0880
 0.6180	 7.0490
 0.6190	 7.0130
 0.6200	 6.9820
 0.6210	 6.9550
 0.6220	 6.9290
 0.6230	 6.9100
 0.6240	 6.8940
 0.6250	 6.8780
 0.6260	 6.8720
 0.6270	 6.8650
 0.6280	 6.8580
 0.6290	 6.8530
 0.6300	 6.8440
 0.6310	 6.8300
 0.6320	 6.8090
 0.6330	 6.7800
 0.6340	 6.7400
 0.6350	 6.6890
 0.6360	 6.6280
 0.6370	 6.5530
 0.6380	 6.4710
 0.6390	 6.3830
 0.6400	 6.2930
 0.6410	 6.2040
 0.6420	 6.1160
 0.6430	 6.0290
 0.6440	 5.9470
 0.6450	 5.8720
 0.6460	 5.8060
 0.6470	 5.7480
 0.6480	 5.6980
 0.6490	 5.6600
 0.6500	 5.6340
 0.6510	 5.6140
 0.6520	 5.5990
 0.6530	 5.5920
 0.6540	 5.5900
 0.6550	 5.5870
 0.6560	 5.5810
 0.6570	 5.5720
 0.6580	 5.5630
 0.6590	 5.5510
 0.6600	 5.5350
 0.6610	 5.5150
 0.6620	 5.4960
 0.6630	 5.4770
 0.6640	 5.4610
 0.6650	 5.4480
 0.6660	 5.4370
 0.6670	 5.4300
 0.6680	 5.4280
 0.6690	 5.4310
 0.6700	 5.4380
 0.6710	 5.4510
 0.6720	 5.4700
 0.6730	 5.4950
 0.6740	 5.5240
 0.6750	 5.5570
 0.6760	 5.5940
 0.6770	 5.6360
 0.6780	 5.6840
 0.6790	 5.7400
 0.6800	 5.7990
 0.6810	 5.8680
 0.6820	 5.9470
 0.6830	 6.0350
 0.6840	 6.1340
 0.6850	 6.2500
 0.6860	 6.3890
 0.6870	 6.5580
 0.6880	 6.7630
 0.6890	 7.0160
 0.6900	 7.3260
 0.6910	 7.7030
 0.6920	 8.1520
 0.6930	 8.6750
 0.6940	 9.2740
 0.6950	 9.9450
 0.6960	10.6830
 0.6970	11.4810
 0.6980	12.3280
 0.6990	13.2120
 0.7000	14.1250
 0.7010	15.0530
 0.7020	15.9860
 0.7030	16.9130
 0.7040	17.8290
 0.7050	18.7300
 0.7060	19.6080
 0.7070	20.4620
 0.7080	21.2910
 0.7090	22.0950
 0.7100	22.8750
 0.7110	23.6330
 0.7120	24.3690
 0.7130	25.0850
 0.7140	25.7790
 0.7150	26.4520
 0.7160	27.1060
 0.7170	27.7460
 0.7180	28.3640
 0.7190	28.9600
 0.7200	29.5340
 0.7210	30.0880
 0.7220	30.6220
 0.7230	31.1340
 0.7240	31.6240
 0.7250	32.0930
 0.7260	32.5390
 0.7270	32.9620
 0.7280	33.3610
 0.7290	33.7410
 0.7300	34.1020
 0.7310	34.4400
 0.7320	34.7600
 0.7330	35.0600
 0.7340	35.3400
 0.7350	35.6020
 0.7360	35.8480
 0.7370	36.0790
 0.7380	36.2930
 0.7390	36.4920
 0.7400	36.6780
 0.7410	36.8500
 0.7420	37.0090
 0.7430	37.1520
 0.7440	37.2820
 0.7450	37.3990
 0.7460	37.5070
 0.7470	37.6030
 0.7480	37.6890
 0.7490	37.7650
 0.7500	37.8330
 0.7510	37.8970
 0.7520	37.9530
 0.7530	37.9980
 0.7540	38.0410
 0.7550	38.0790
 0.7560	38.1110
 0.7570	38.1420
 0.7580	38.1690
 0.7590	38.1940
 0.7600	38.2180
 0.7610	38.2350
 0.7620	38.2510
 0.7630	38.2640
 0.7640	38.2760
 0.7650	38.2860
 0.7660	38.2940
 0.7670	38.3000
 0.7680	38.3050
 0.7690	38.3080
 0.7700	38.3120
 0.7710	38.3160
 0.7720	38.3190
 0.7730	38.3230
 0.7740	38.3280
 0.7750	38.3320
 0.7760	38.3330
 0.7770	38.3340
 0.7780	38.3370
 0.7790	38.3410
 0.7800	38.3460
 0.7810	38.3510
 0.7820	38.3540
 0.7830	38.3560
 0.7840	38.3590
 0.7850	38.3630
 0.7860	38.3660
 0.7870	38.3690
 0.7880	38.3710
 0.7890	38.3720
 0.7900	38.3730
 0.7910	38.3760
 0.7920	38.3770
 0.7930	38.3760
 0.7940	38.3740
 0.7950	38.3720
 0.7960	38.3700
 0.7970	38.3670
 0.7980	38.3650
 0.7990	38.3620
 0.8000	38.3580
 0.8010	38.3550
 0.8020	38.3530
 0.8030	38.3500
 0.8040	38.3450
 0.8050	38.3400
 0.8060	38.3340
 0.8070	38.3270
 0.8080	38.3200
 0.8090	38.3150
 0.8100	38.3070
 0.8110	38.2990
 0.8120	38.2930
 0.8130	38.2820
 0.8140	38.2690
 0.8150	38.2580
 0.8160	38.2510
 0.8170	38.2420
 0.8180	38.2350
 0.8190	38.2280
 0.8200	38.2190
 0.8210	38.2070
 0.8220	38.1970
 0.8230	38.1880
 0.8240	38.1770
 0.8250	38.1630
 0.8260	38.1500
 0.8270	38.1420
 0.8280	38.1340
 0.8290	38.1220
 0.8300	38.1120
 0.8310	38.1050
 0.8320	38.0920
 0.8330	38.0840
 0.8340	38.0780
 0.8350	38.0700
 0.8360	38.0630
 0.8370	38.0560
 0.8380	38.0490
 0.8390	38.0450
 0.8400	38.0390
 0.8410	38.0340
 0.8420	38.0310
 0.8430	38.0250
 0.8440	38.0200
 0.8450	38.0170
 0.8460	38.0150
 0.8470	38.0170
 0.8480	38.0140
 0.8490	38.0100
 0.8500	38.0080
 0.8510	38.0060
 0.8520	38.0030
 0.8530	38.0010
 0.8540	38.0030
 0.8550	38.0010
 0.8560	37.9990
 0.8570	38.0000
 0.8580	38.0020
 0.8590	38.0030
 0.8600	38.0050
 0.8610	38.0100
 0.8620	38.0130
 0.8630	38.0160
 0.8640	38.0200
 0.8650	38.0230
 0.8660	38.0250
 0.8670	38.0290
 0.8680	38.0330
 0.8690	38.0360
 0.8700	38.0430
 0.8710	38.0490
 0.8720	38.0520
 0.8730	38.0560
 0.8740	38.0650
 0.8750	38.0730
 0.8760	38.0770
 0.8770	38.0810
 0.8780	38.0860
 0.8790	38.0900
 0.8800	38.0960
 0.8810	38.1020
 0.8820	38.1110
 0.8830	38.1190
 0.8840	38.1220
 0.8850	38.1230
 0.8860	38.1340
 0.8870	38.1450
 0.8880	38.1480
 0.8890	38.1540
 0.8900	38.1610
 0.8910	38.1670
 0.8920	38.1700
 0.8930	38.1750
 0.8940	38.1820
 0.8950	38.1900
 0.8960	38.1930
 0.8970	38.2010
 0.8980	38.2080
 0.8990	38.2140
 0.9000	38.2210
 0.9010	38.2250
 0.9020	38.2330
 0.9030	38.2430
 0.9040	38.2470
 0.9050	38.2500
 0.9060	38.2550
 0.9070	38.2630
 0.9080	38.2680
 0.9090	38.2710
 0.9100	38.2750
 0.9110	38.2790
 0.9120	38.2820
 0.9130	38.2860
 0.9140	38.2880
 0.9150	38.2880
 0.9160	38.2890
 0.9170	38.2880
 0.9180	38.2860
 0.9190	38.2900
 0.9200	38.2940
 0.9210	38.2910
 0.9220	38.2850
 0.9230	38.2840
 0.9240	38.2800
 0.9250	38.2710
 0.9260	38.2610
 0.9270	38.2570
 0.9280	38.2490
 0.9290	38.2330
 0.9300	38.2190
 0.9310	38.2200
 0.9320	38.2140
 0.9330	38.2010
 0.9340	38.1820
 0.9350	38.1600
 0.9360	38.1420
 0.9370	38.1290
 0.9380	38.1180
 0.9390	38.0990
 0.9400	38.0770
 0.9410	38.0570
 0.9420	38.0380
 0.9430	38.0130
 0.9440	37.9940
 0.9450	37.9700
 0.9460	37.9370
 0.9470	37.9120
 0.9480	37.8860
 0.9490	37.8610
 0.9500	37.8340
 0.9510	37.7930
 0.9520	37.7490
 0.9530	37.7050
 0.9540	37.6620
 0.9550	37.6270
 0.9560	37.5950
 0.9570	37.5610
 0.9580	37.5260
 0.9590	37.4940
 0.9600	37.4620
 0.9610	37.4350
 0.9620	37.4150
 0.9630	37.3880
 0.9640	37.3740
 0.9650	37.3680
 0.9660	37.3550
 0.9670	37.3420
 0.9680	37.3260
 0.9690	37.3160
 0.9700	37.3140
 0.9710	37.3020
 0.9720	37.2910
 0.9730	37.2870
 0.9740	37.2890
 0.9750	37.2930
 0.9760	37.2960
 0.9770	37.2960
 0.9780	37.2920
 0.9790	37.2850
 0.9800	37.2770
 0.9810	37.2700
 0.9820	37.2700
 0.9830	37.2790
 0.9840	37.2840
 0.9850	37.2810
 0.9860	37.2780
 0.9870	37.2940
 0.9880	37.3090
 0.9890	37.3160
 0.9900	37.3170
 0.9910	37.3170
 0.9920	37.3330
 0.9930	37.3570
 0.9940	37.3720
 0.9950	37.3910
 0.9960	37.4030
 0.9970	37.4060
 0.9980	37.4050
 0.9990	37.4050
 1.0000	37.4100
 1.0010	38.7620
 1.0020	38.7730
 1.0030	38.7800
 1.0040	38.7880
 1.0050	38.7970
 1.0060	38.8060
 1.0070	38.8160
 1.0080	38.8280
 1.0090	38.8460
 1.0100	38.8580
 1.0110	38.8690
 1.0120	38.8810
 1.0130	38.8910
 1.0140	38.9000
 1.0150	38.9090
 1.0160	38.9190
 1.0170	38.9290
 1.0180	38.9420
 1.0190	38.9560
 1.0200	38.9670
 1.0210	38.9730
 1.0220	38.9780
 1.0230	38.9870
 1.0240	38.9980
 1.0250	39.0080
 1.0260	39.0200
 1.0270	39.0300
 1.0280	39.0410
 1.0290	39.0500
 1.0300	39.0580
 1.0310	39.0680
 1.0320	39.0770
 1.0330	39.0850
 1.0340	39.0980
 1.0350	39.1090
 1.0360	39.1190
 1.0370	39.1290
 1.0380	39.1360
 1.0390	39.1400
 1.0400	39.1470
 1.0410	39.1520
 1.0420	39.1590
 1.0430	39.1690
 1.0440	39.1770
 1.0450	39.1870
 1.0460	39.1920
 1.0470	39.1940
 1.0480	39.1980
 1.0490	39.1990
 1.0500	39.2010
 1.0510	39.2050
 1.0520	39.2100
 1.0530	39.2140
 1.0540	39.2210
 1.0550	39.2230
 1.0560	39.2230
 1.0570	39.2250
 1.0580	39.2260
 1.0590	39.2280
 1.0600	39.2340
 1.0610	39.2360
 1.0620	39.2370
 1.0630	39.2370
 1.0640	39.2340
 1.0650	39.2330
 1.0660	39.2320
 1.0670	39.2310
 1.0680	39.2310
 1.0690	39.2330
 1.0700	39.2320
 1.0710	39.2280
 1.0720	39.2250
 1.0730	39.2220
 1.0740	39.2180
 1.0750	39.2130
 1.0760	39.2090
 1.0770	39.2040
 1.0780	39.1990
 1.0790	39.1950
 1.0800	39.1920
 1.0810	39.1890
 1.0820	39.1850
 1.0830	39.1820
 1.0840	39.1760
 1.0850	39.1670
 1.0860	39.1610
 1.0870	39.1540
 1.0880	39.1460
 1.0890	39.1390
 1.0900	39.1300
 1.0910	39.1230
 1.0920	39.1180
 1.0930	39.1110
 1.0940	39.1040
 1.0950	39.0970
 1.0960	39.0870
 1.0970	39.0780
 1.0980	39.0720
 1.0990	39.0630
 1.1000	39.0520
 1.1010	39.0430
 1.1020	39.0330
 1.1030	39.0240
 1.1040	39.0180
 1.1050	39.0100
 1.1060	39.0010
 1.1070	38.9890
 1.1080	38.9790
 1.1090	38.9670
 1.1100	38.9560
 1.1110	38.9470
 1.1120	38.9370
 1.1130	38.9270
 1.1140	38.9160
 1.1150	38.9080
 1.1160	38.8960
 1.1170	38.8820
 1.1180	38.8670
 1.1190	38.8510
 1.1200	38.8320
 1.1210	38.8140
 1.1220	38.7950
 1.1230	38.7730
 1.1240	38.7500
 1.1250	38.7230
 1.1260	38.6940
 1.1270	38.6600
 1.1280	38.6230
 1.1290	38.5820
 1.1300	38.5400
 1.1310	38.4900
 1.1320	38.4340
 1.1330	38.3750
 1.1340	38.3100
 1.1350	38.2410
 1.1360	38.1680
 1.1370	38.0910
 1.1380	38.0070
 1.1390	37.9210
 1.1400	37.8320
 1.1410	37.7420
 1.1420	37.6510
 1.1430	37.5580
 1.1440	37.4680
 1.1450	37.3750
 1.1460	37.2870
 1.1470	37.2000
 1.1480	37.1180
 1.1490	37.0390
 1.1500	36.9640
 1.1510	36.8910
 1.1520	36.8250
 1.1530	36.7620
 1.1540	36.7060
 1.1550	36.6560
 1.1560	36.6090
 1.1570	36.5670
 1.1580	36.5300
 1.1590	36.4960
 1.1600	36.4660
 1.1610	36.4400
 1.1620	36.4160
 1.1630	36.3970
 1.1640	36.3800
 1.1650	36.3640
 1.1660	36.3510
 1.1670	36.3390
 1.1680	36.3270
 1.1690	36.3180
 1.1700	36.3110
 1.1710	36.3030
 1.1720	36.2940
 1.1730	36.2850
 1.1740	36.2770
 1.1750	36.2690
 1.1760	36.2610
 1.1770	36.2530
 1.1780	36.2420
 1.1790	36.2310
 1.1800	36.2230
 1.1810	36.2130
 1.1820	36.2040
 1.1830	36.1970
 1.1840	36.1860
 1.1850	36.1760
 1.1860	36.1680
 1.1870	36.1580
 1.1880	36.1490
 1.1890	36.1400
 1.1900	36.1330
 1.1910	36.1260
 1.1920	36.1210
 1.1930	36.1170
 1.1940	36.1130
 1.1950	36.1080
 1.1960	36.1030
 1.1970	36.0990
 1.1980	36.0970
 1.1990	36.0960
 1.2000	36.0970
 1.2010	36.0980
 1.2020	36.1010
 1.2030	36.1040
 1.2040	36.1080
 1.2050	36.1130
 1.2060	36.1170
 1.2070	36.1250
 1.2080	36.1300
 1.2090	36.1370
 1.2100	36.1470
 1.2110	36.1550
 1.2120	36.1620
 1.2130	36.1710
 1.2140	36.1810
 1.2150	36.1920
 1.2160	36.2060
 1.2170	36.2190
 1.2180	36.2300
 1.2190	36.2410
 1.2200	36.2510
 1.2210	36.2630
 1.2220	36.2750
 1.2230	36.2890
 1.2240	36.3040
 1.2250	36.3190
 1.2260	36.3330
 1.2270	36.3470
 1.2280	36.3590
 1.2290	36.3700
 1.2300	36.3810
 1.2310	36.3920
 1.2320	36.4010
 1.2330	36.4120
 1.2340	36.4230
 1.2350	36.4340
 1.2360	36.4440
 1.2370	36.4540
 1.2380	36.4650
 1.2390	36.4720
 1.2400	36.4800
 1.2410	36.4890
 1.2420	36.4960
 1.2430	36.5030
 1.2440	36.5110
 1.2450	36.5170
 1.2460	36.5220
 1.2470	36.5260
 1.2480	36.5310
 1.2490	36.5360
 1.2500	36.5420
 1.2510	36.5480
 1.2520	36.5530
 1.2530	36.5560
 1.2540	36.5590
 1.2550	36.5620
 1.2560	36.5640
 1.2570	36.5660
 1.2580	36.5670
 1.2590	36.5680
 1.2600	36.5700
 1.2610	36.5690
 1.2620	36.5650
 1.2630	36.5630
 1.2640	36.5600
 1.2650	36.5550
 1.2660	36.5500
 1.2670	36.5470
 1.2680	36.5430
 1.2690	36.5390
 1.2700	36.5350
 1.2710	36.5310
 1.2720	36.5230
 1.2730	36.5140
 1.2740	36.5050
 1.2750	36.4940
 1.2760	36.4830
 1.2770	36.4710
 1.2780	36.4580
 1.2790	36.4460
 1.2800	36.4300
 1.2810	36.4140
 1.2820	36.3970
 1.2830	36.3790
 1.2840	36.3590
 1.2850	36.3380
 1.2860	36.3150
 1.2870	36.2900
 1.2880	36.2620
 1.2890	36.2340
 1.2900	36.2060
 1.2910	36.1760
 1.2920	36.1450
 1.2930	36.1120
 1.2940	36.0770
 1.2950	36.0420
 1.2960	36.0030
 1.2970	35.9640
 1.2980	35.9240
 1.2990	35.8830
 1.3000	35.8410
 1.3010	35.7970
 1.3020	35.7500
 1.3030	35.7020
 1.3040	35.6500
 1.3050	35.5990
 1.3060	35.5470
 1.3070	35.4920
 1.3080	35.4370
 1.3090	35.3820
 1.3100	35.3250
 1.3110	35.2670
 1.3120	35.2060
 1.3130	35.1410
 1.3140	35.0760
 1.3150	35.0080
 1.3160	34.9390
 1.3170	34.8680
 1.3180	34.7960
 1.3190	34.7210
 1.3200	34.6460
 1.3210	34.5710
 1.3220	34.4930
 1.3230	34.4150
 1.3240	34.3360
 1.3250	34.2530
 1.3260	34.1690
 1.3270	34.0820
 1.3280	33.9940
 1.3290	33.9050
 1.3300	33.8140
 1.3310	33.7230
 1.3320	33.6310
 1.3330	33.5380
 1.3340	33.4470
 1.3350	33.3560
 1.3360	33.2630
 1.3370	33.1670
 1.3380	33.0730
 1.3390	32.9780
 1.3400	32.8850
 1.3410	32.7940
 1.3420	32.7030
 1.3430	32.6130
 1.3440	32.5230
 1.3450	32.4340
 1.3460	32.3450
 1.3470	32.2580
 1.3480	32.1720
 1.3490	32.0880
 1.3500	32.0060
 1.3510	31.9230
 1.3520	31.8400
 1.3530	31.7570
 1.3540	31.6730
 1.3550	31.5890
 1.3560	31.5040
 1.3570	31.4190
 1.3580	31.3320
 1.3590	31.2430
 1.3600	31.1500
 1.3610	31.0540
 1.3620	30.9530
 1.3630	30.8470
 1.3640	30.7340
 1.3650	30.6150
 1.3660	30.4890
 1.3670	30.3550
 1.3680	30.2110
 1.3690	30.0580
 1.3700	29.8930
 1.3710	29.7180
 1.3720	29.5310
 1.3730	29.3300
 1.3740	29.1150
 1.3750	28.8850
 1.3760	28.6370
 1.3770	28.3720
 1.3780	28.0870
 1.3790	27.7830
 1.3800	27.4590
 1.3810	27.1140
 1.3820	26.7520
 1.3830	26.3720
 1.3840	25.9760
 1.3850	25.5620
 1.3860	25.1350
 1.3870	24.6870
 1.3880	24.2340
 1.3890	23.7700
 1.3900	23.2950
 1.3910	22.8210
 1.3920	22.3430
 1.3930	21.8630
 1.3940	21.3870
 1.3950	20.9100
 1.3960	20.4410
 1.3970	19.9820
 1.3980	19.5340
 1.3990	19.1030
 1.4000	18.6850
 1.4010	18.2800
 1.4020	17.8930
 1.4030	17.5200
 1.4040	17.1650
 1.4050	16.8300
 1.4060	16.5120
 1.4070	16.2150
 1.4080	15.9350
 1.4090	15.6720
 1.4100	15.4270
 1.4110	15.1960
 1.4120	14.9820
 1.4130	14.7830
 1.4140	14.6000
 1.4150	14.4330
 1.4160	14.2780
 1.4170	14.1340
 1.4180	14.0010
 1.4190	13.8760
 1.4200	13.7620
 1.4210	13.6570
 1.4220	13.5600
 1.4230	13.4720
 1.4240	13.3930
 1.4250	13.3180
 1.4260	13.2520
 1.4270	13.1910
 1.4280	13.1350
 1.4290	13.0830
 1.4300	13.0360
 1.4310	12.9950
 1.4320	12.9580
 1.4330	12.9260
 1.4340	12.8990
 1.4350	12.8750
 1.4360	12.8540
 1.4370	12.8360
 1.4380	12.8210
 1.4390	12.8090
 1.4400	12.8000
 1.4410	12.7940
 1.4420	12.7900
 1.4430	12.7880
 1.4440	12.7880
 1.4450	12.7900
 1.4460	12.7950
 1.4470	12.8010
 1.4480	12.8080
 1.4490	12.8170
 1.4500	12.8270
 1.4510	12.8380
 1.4520	12.8510
 1.4530	12.8660
 1.4540	12.8830
 1.4550	12.9030
 1.4560	12.9250
 1.4570	12.9490
 1.4580	12.9760
 1.4590	13.0060
 1.4600	13.0400
 1.4610	13.0780
 1.4620	13.1200
 1.4630	13.1670
 1.4640	13.2160
 1.4650	13.2690
 1.4660	13.3260
 1.4670	13.3870
 1.4680	13.4540
 1.4690	13.5230
 1.4700	13.5960
 1.4710	13.6750
 1.4720	13.7550
 1.4730	13.8380
 1.4740	13.9250
 1.4750	14.0140
 1.4760	14.1060
 1.4770	14.2010
