Name: Salvia leucophylla 1
Type: vegetation
Class: Shrub
Genus: Salvia
Species: leucophylla
Sample No.: VH187
Owner: UCSB
Wavelength Range: TIR
Origin: 34.698; -120.0477; WGS84
Collection Date: 6/9/2013
Description: Samples were collected as part of the HyspIRI Airborne Campaign. 48 individual plants were sampled in three times in 2013 - spring  summer  and fall. The name of the sample includes a 1  2  or 3 which references a different individual of the species. Samples were taken to JPL and processed within 48 hours of collection. The same leaves were processed in the Nicolet and then measured using the ASD.
Measurement: Hemispherical reflectance
First Column: X
Second Column: Y
X Units: Wavelength (micrometers)
Y Units: Reflectance (percentage)
First X Value: 2.501
Last X Value: 15.387
Number of X Values: 1737
Additional Information: vegetation.shrub.salvia.leucophylla.tir.vh187.ucsb.nicolet.ancillary.txt

 2.5010	18.3250
 2.5030	18.1410
 2.5040	18.0950
 2.5050	18.1040
 2.5060	18.2690
 2.5070	18.2690
 2.5090	18.3780
 2.5100	18.4990
 2.5110	18.4600
 2.5120	18.3020
 2.5140	18.3610
 2.5150	18.3330
 2.5160	18.3880
 2.5170	18.2900
 2.5180	18.2900
 2.5200	18.3640
 2.5210	18.4170
 2.5220	18.4010
 2.5230	18.2880
 2.5250	18.1430
 2.5260	18.3330
 2.5270	18.2530
 2.5280	18.2170
 2.5290	18.4490
 2.5310	18.4510
 2.5320	18.2800
 2.5330	18.3240
 2.5340	18.3900
 2.5360	18.4920
 2.5370	18.4680
 2.5380	18.4630
 2.5390	18.4500
 2.5410	18.3780
 2.5420	18.2680
 2.5430	18.3480
 2.5440	18.5490
 2.5460	18.5390
 2.5470	18.4210
 2.5480	18.5430
 2.5490	18.6760
 2.5510	18.7120
 2.5520	18.5910
 2.5530	18.5160
 2.5540	18.4610
 2.5560	18.5620
 2.5570	18.6130
 2.5580	18.6170
 2.5590	18.5140
 2.5610	18.4800
 2.5620	18.4900
 2.5630	18.5610
 2.5640	18.5260
 2.5660	18.5620
 2.5670	18.3820
 2.5680	18.3480
 2.5700	18.4800
 2.5710	18.7670
 2.5720	18.7400
 2.5730	18.5530
 2.5750	18.6800
 2.5760	18.8300
 2.5770	18.6600
 2.5790	18.5580
 2.5800	18.6000
 2.5810	18.6320
 2.5820	18.6680
 2.5840	18.8710
 2.5850	18.7820
 2.5860	18.6740
 2.5880	18.5730
 2.5890	18.7110
 2.5900	18.6830
 2.5910	18.4940
 2.5930	18.4100
 2.5940	18.4240
 2.5950	18.3260
 2.5970	18.2240
 2.5980	18.2540
 2.5990	18.2980
 2.6000	18.2260
 2.6020	18.2470
 2.6030	18.3050
 2.6040	18.4190
 2.6060	18.3560
 2.6070	18.2600
 2.6080	18.2680
 2.6100	18.3420
 2.6110	18.1630
 2.6120	18.0060
 2.6140	17.9820
 2.6150	18.0160
 2.6160	17.8330
 2.6180	17.6720
 2.6190	17.6280
 2.6200	17.8110
 2.6220	17.7630
 2.6230	17.6850
 2.6240	17.6220
 2.6260	17.6200
 2.6270	17.5500
 2.6280	17.6380
 2.6300	17.6220
 2.6310	17.4310
 2.6320	17.2440
 2.6340	17.2500
 2.6350	17.3020
 2.6360	17.4310
 2.6380	17.2410
 2.6390	16.9360
 2.6400	16.7350
 2.6420	16.7410
 2.6430	16.7780
 2.6440	16.7230
 2.6460	16.5820
 2.6470	16.5060
 2.6480	16.3130
 2.6500	16.1950
 2.6510	16.2350
 2.6520	16.1650
 2.6540	16.1610
 2.6550	16.1810
 2.6560	16.1750
 2.6580	16.2480
 2.6590	16.0290
 2.6610	15.7960
 2.6620	15.7930
 2.6630	15.7550
 2.6650	15.5560
 2.6660	15.5620
 2.6670	15.5160
 2.6690	15.5210
 2.6700	15.3970
 2.6720	15.2070
 2.6730	15.1210
 2.6740	15.1000
 2.6760	14.9640
 2.6770	14.9140
 2.6780	14.9160
 2.6800	14.8390
 2.6810	14.5430
 2.6830	14.4930
 2.6840	14.4700
 2.6850	14.4280
 2.6870	14.2780
 2.6880	14.1370
 2.6900	13.9650
 2.6910	13.8290
 2.6920	13.6240
 2.6940	13.3870
 2.6950	13.1330
 2.6970	13.1150
 2.6980	13.0620
 2.6990	12.9670
 2.7010	12.7660
 2.7020	12.6870
 2.7040	12.4420
 2.7050	12.3470
 2.7060	12.2090
 2.7080	11.8860
 2.7090	11.6150
 2.7110	11.7100
 2.7120	11.5500
 2.7130	11.3160
 2.7150	11.2810
 2.7160	11.2150
 2.7180	10.9390
 2.7190	10.7200
 2.7210	10.8020
 2.7220	10.5980
 2.7230	10.2760
 2.7250	10.1770
 2.7260	10.2360
 2.7280	 9.9620
 2.7290	 9.5500
 2.7310	 9.5490
 2.7320	 9.4200
 2.7330	 9.3380
 2.7350	 9.1440
 2.7360	 9.1860
 2.7380	 8.9170
 2.7390	 8.5790
 2.7410	 8.5390
 2.7420	 8.6070
 2.7440	 8.5010
 2.7450	 8.5680
 2.7470	 8.7070
 2.7480	 8.5410
 2.7490	 8.1440
 2.7510	 8.1400
 2.7520	 8.0310
 2.7540	 7.8340
 2.7550	 7.4160
 2.7570	 7.2300
 2.7580	 7.2990
 2.7600	 7.4140
 2.7610	 7.3250
 2.7630	 7.2270
 2.7640	 7.1800
 2.7660	 7.1960
 2.7670	 6.9950
 2.7680	 6.9530
 2.7700	 6.8380
 2.7710	 6.8480
 2.7730	 6.8840
 2.7740	 6.5990
 2.7760	 6.5510
 2.7770	 6.7820
 2.7790	 6.6300
 2.7800	 6.4150
 2.7820	 6.2950
 2.7830	 6.1440
 2.7850	 5.8840
 2.7860	 5.9790
 2.7880	 6.0320
 2.7890	 5.8390
 2.7910	 5.6400
 2.7920	 5.8090
 2.7940	 5.7730
 2.7950	 5.7390
 2.7970	 5.6320
 2.7980	 5.5630
 2.8000	 5.5070
 2.8010	 5.4490
 2.8030	 5.3110
 2.8040	 5.3070
 2.8060	 5.4870
 2.8070	 5.4170
 2.8090	 5.2860
 2.8110	 5.2550
 2.8120	 5.0310
 2.8140	 4.9560
 2.8150	 4.8920
 2.8170	 4.7820
 2.8180	 4.6950
 2.8200	 4.8260
 2.8210	 4.7710
 2.8230	 4.5880
 2.8240	 4.6410
 2.8260	 4.6160
 2.8270	 4.6380
 2.8290	 5.0290
 2.8300	 4.9110
 2.8320	 4.5620
 2.8340	 4.2600
 2.8350	 4.4880
 2.8370	 4.5860
 2.8380	 4.5580
 2.8400	 4.4130
 2.8410	 4.3720
 2.8430	 4.2210
 2.8440	 4.3130
 2.8460	 4.4550
 2.8480	 4.6030
 2.8490	 4.3850
 2.8510	 4.2800
 2.8520	 4.2850
 2.8540	 4.2910
 2.8550	 4.1160
 2.8570	 4.2040
 2.8590	 4.2880
 2.8600	 4.1830
 2.8620	 4.1190
 2.8630	 3.8430
 2.8650	 3.5270
 2.8660	 3.7250
 2.8680	 3.8320
 2.8700	 3.9740
 2.8710	 3.9740
 2.8730	 4.0350
 2.8740	 4.1340
 2.8760	 4.0040
 2.8780	 3.7840
 2.8790	 3.7750
 2.8810	 4.2120
 2.8820	 4.2150
 2.8840	 3.8290
 2.8860	 3.9230
 2.8870	 3.8910
 2.8890	 3.6220
 2.8900	 3.6320
 2.8920	 4.1390
 2.8940	 3.9910
 2.8950	 3.7890
 2.8970	 3.7680
 2.8980	 3.7380
 2.9000	 3.7190
 2.9020	 3.7260
 2.9030	 3.6680
 2.9050	 3.8780
 2.9070	 3.7960
 2.9080	 3.6620
 2.9100	 3.3790
 2.9120	 3.3390
 2.9130	 3.4530
 2.9150	 3.3890
 2.9160	 3.3760
 2.9180	 3.4970
 2.9200	 3.5460
 2.9210	 3.4980
 2.9230	 3.4380
 2.9250	 3.5030
 2.9260	 3.4080
 2.9280	 3.3640
 2.9300	 3.4230
 2.9310	 3.5720
 2.9330	 3.5110
 2.9350	 3.3890
 2.9360	 3.2170
 2.9380	 3.2180
 2.9400	 3.3560
 2.9410	 3.4020
 2.9430	 3.2070
 2.9450	 3.1830
 2.9460	 3.6800
 2.9480	 3.2970
 2.9500	 3.1050
 2.9510	 3.6220
 2.9530	 3.7790
 2.9550	 3.9840
 2.9560	 3.6790
 2.9580	 3.0110
 2.9600	 3.1720
 2.9610	 4.0850
 2.9630	 3.9690
 2.9650	 3.5750
 2.9660	 4.9970
 2.9680	 4.8050
 2.9700	 3.1300
 2.9720	 3.6640
 2.9730	 4.2180
 2.9750	 4.5010
 2.9770	 4.9880
 2.9780	 3.9670
 2.9800	 2.6750
 2.9820	 2.0510
 2.9840	 2.4670
 2.9850	 3.2060
 2.9870	 2.1810
 2.9890	 2.9800
 2.9900	 5.2400
 2.9920	 4.0140
 2.9940	 1.4380
 2.9960	 2.3660
 2.9970	 4.1680
 2.9990	 3.9150
 3.0010	 3.6250
 3.0030	 3.5010
 3.0040	 3.8960
 3.0060	 4.4170
 3.0080	 4.6570
 3.0100	 4.1700
 3.0110	 4.2460
 3.0130	 4.6960
 3.0150	 3.6820
 3.0170	 3.5550
 3.0180	 3.9060
 3.0200	 3.6260
 3.0220	 3.9630
 3.0240	 4.2310
 3.0250	 4.0910
 3.0270	 4.2040
 3.0290	 4.0420
 3.0310	 4.8330
 3.0320	 5.7800
 3.0340	 4.7340
 3.0360	 3.7170
 3.0380	 3.3750
 3.0400	 3.5670
 3.0410	 3.9830
 3.0430	 5.6030
 3.0450	 5.7650
 3.0470	 5.4140
 3.0480	 5.9320
 3.0500	 4.4460
 3.0520	 3.7960
 3.0540	 3.6460
 3.0560	 3.0430
 3.0570	 3.5170
 3.0590	 3.5010
 3.0610	 3.5220
 3.0630	 3.6730
 3.0650	 2.7390
 3.0660	 2.0690
 3.0680	 2.9570
 3.0700	 4.8380
 3.0720	 5.1130
 3.0740	 4.8980
 3.0760	 4.6640
 3.0770	 4.7330
 3.0790	 4.6750
 3.0810	 4.5770
 3.0830	 4.4570
 3.0850	 4.6590
 3.0870	 4.7680
 3.0880	 4.7460
 3.0900	 4.6120
 3.0920	 4.6500
 3.0940	 4.5220
 3.0960	 4.5440
 3.0980	 4.6770
 3.0990	 4.5980
 3.1010	 4.4910
 3.1030	 4.2860
 3.1050	 3.9830
 3.1070	 4.4730
 3.1090	 4.8670
 3.1110	 5.3020
 3.1120	 5.0550
 3.1140	 4.6760
 3.1160	 4.9270
 3.1180	 5.2020
 3.1200	 5.2630
 3.1220	 5.3530
 3.1240	 5.1810
 3.1260	 5.3580
 3.1270	 5.2580
 3.1290	 5.2110
 3.1310	 4.8660
 3.1330	 4.3810
 3.1350	 4.5960
 3.1370	 5.0170
 3.1390	 4.8690
 3.1410	 5.9600
 3.1430	 6.6160
 3.1450	 5.6210
 3.1460	 5.5770
 3.1480	 5.7550
 3.1500	 5.1660
 3.1520	 5.3090
 3.1540	 5.4910
 3.1560	 5.7800
 3.1580	 6.3190
 3.1600	 6.4650
 3.1620	 5.0930
 3.1640	 5.1540
 3.1660	 5.6880
 3.1680	 5.8840
 3.1700	 5.7260
 3.1710	 5.8290
 3.1730	 5.5850
 3.1750	 4.3420
 3.1770	 4.8160
 3.1790	 5.7690
 3.1810	 5.5350
 3.1830	 5.2030
 3.1850	 4.8880
 3.1870	 5.1390
 3.1890	 5.3750
 3.1910	 5.5100
 3.1930	 5.6520
 3.1950	 5.8860
 3.1970	 5.9430
 3.1990	 5.9690
 3.2010	 6.0200
 3.2030	 6.0580
 3.2050	 6.0070
 3.2070	 6.0780
 3.2090	 5.8150
 3.2110	 5.7540
 3.2130	 5.7080
 3.2150	 5.8510
 3.2170	 6.0660
 3.2190	 6.0020
 3.2210	 5.9550
 3.2230	 6.2160
 3.2250	 6.2230
 3.2270	 6.0830
 3.2290	 5.9190
 3.2310	 5.9740
 3.2330	 5.7890
 3.2350	 5.9700
 3.2370	 6.0200
 3.2390	 5.9980
 3.2410	 6.0410
 3.2430	 6.1580
 3.2450	 5.9760
 3.2470	 5.8960
 3.2490	 6.0750
 3.2510	 6.2520
 3.2530	 5.9040
 3.2550	 5.8830
 3.2570	 5.8560
 3.2590	 5.9670
 3.2610	 6.0340
 3.2630	 6.2910
 3.2650	 6.7690
 3.2670	 6.9000
 3.2690	 6.5360
 3.2720	 6.5480
 3.2740	 6.9540
 3.2760	 6.9150
 3.2780	 6.4580
 3.2800	 6.4600
 3.2820	 6.4950
 3.2840	 6.5530
 3.2860	 6.4990
 3.2880	 6.2140
 3.2900	 5.9310
 3.2920	 6.1810
 3.2940	 6.4140
 3.2960	 6.4370
 3.2990	 6.1260
 3.3010	 6.0160
 3.3030	 5.9120
 3.3050	 6.0850
 3.3070	 6.4590
 3.3090	 6.5620
 3.3110	 6.0980
 3.3130	 5.9640
 3.3150	 6.1460
 3.3180	 5.9880
 3.3200	 5.7490
 3.3220	 5.7460
 3.3240	 5.6120
 3.3260	 5.6230
 3.3280	 5.7460
 3.3300	 5.5820
 3.3330	 5.3390
 3.3350	 5.3260
 3.3370	 5.0900
 3.3390	 4.9460
 3.3410	 4.9480
 3.3430	 5.0290
 3.3450	 4.9340
 3.3480	 4.7370
 3.3500	 4.6590
 3.3520	 4.6360
 3.3540	 4.4600
 3.3560	 4.3850
 3.3580	 4.4730
 3.3610	 4.6860
 3.3630	 4.3400
 3.3650	 4.0080
 3.3670	 3.8950
 3.3690	 4.0300
 3.3720	 3.9450
 3.3740	 3.7980
 3.3760	 3.7310
 3.3780	 3.7810
 3.3800	 3.9480
 3.3830	 3.9490
 3.3850	 3.5050
 3.3870	 3.1910
 3.3890	 3.1130
 3.3910	 3.1310
 3.3940	 3.0350
 3.3960	 3.1000
 3.3980	 3.0130
 3.4000	 2.9090
 3.4020	 3.0220
 3.4050	 2.8870
 3.4070	 2.7560
 3.4090	 3.0210
 3.4110	 3.0770
 3.4140	 3.1520
 3.4160	 3.1740
 3.4180	 3.1700
 3.4200	 3.2470
 3.4230	 3.4400
 3.4250	 3.5460
 3.4270	 3.6570
 3.4290	 3.7470
 3.4320	 3.8320
 3.4340	 3.8510
 3.4360	 4.0270
 3.4390	 4.1080
 3.4410	 4.1490
 3.4430	 4.1420
 3.4450	 4.0800
 3.4480	 3.6550
 3.4500	 3.7060
 3.4520	 4.1570
 3.4550	 4.4610
 3.4570	 4.6390
 3.4590	 4.6070
 3.4620	 4.4650
 3.4640	 4.7060
 3.4660	 4.8010
 3.4680	 4.6500
 3.4710	 4.6650
 3.4730	 4.7320
 3.4750	 4.6790
 3.4780	 4.7000
 3.4800	 4.6450
 3.4820	 4.6190
 3.4850	 4.5120
 3.4870	 4.4110
 3.4890	 4.2410
 3.4920	 4.1610
 3.4940	 4.1030
 3.4970	 4.1290
 3.4990	 4.0340
 3.5010	 4.0900
 3.5040	 4.2500
 3.5060	 4.3240
 3.5080	 4.4470
 3.5110	 4.7130
 3.5130	 4.8680
 3.5160	 5.1990
 3.5180	 5.5150
 3.5200	 5.7320
 3.5230	 5.8710
 3.5250	 6.2320
 3.5270	 6.6220
 3.5300	 6.8020
 3.5320	 6.7180
 3.5350	 6.7750
 3.5370	 6.7870
 3.5400	 6.8900
 3.5420	 7.0910
 3.5440	 7.3380
 3.5470	 7.4990
 3.5490	 7.7050
 3.5520	 7.7590
 3.5540	 7.7000
 3.5570	 7.5650
 3.5590	 7.5900
 3.5610	 7.8720
 3.5640	 8.0540
 3.5660	 7.9860
 3.5690	 7.9000
 3.5710	 8.0490
 3.5740	 8.2740
 3.5760	 8.2400
 3.5790	 8.1320
 3.5810	 8.0080
 3.5840	 8.0900
 3.5860	 8.2140
 3.5890	 8.4820
 3.5910	 8.3040
 3.5930	 8.0800
 3.5960	 8.2000
 3.5980	 8.4560
 3.6010	 8.7140
 3.6030	 8.9440
 3.6060	 8.7570
 3.6080	 8.5610
 3.6110	 8.5290
 3.6140	 8.5640
 3.6160	 8.6300
 3.6190	 8.7050
 3.6210	 8.5530
 3.6240	 8.5670
 3.6260	 8.7250
 3.6290	 8.9430
 3.6310	 9.1000
 3.6340	 9.0650
 3.6360	 8.6920
 3.6390	 8.6180
 3.6410	 8.8250
 3.6440	 8.9320
 3.6470	 8.8860
 3.6490	 8.8450
 3.6520	 8.8650
 3.6540	 8.9380
 3.6570	 8.9750
 3.6590	 8.9460
 3.6620	 8.8000
 3.6650	 8.8500
 3.6670	 8.9770
 3.6700	 9.0440
 3.6720	 8.9910
 3.6750	 8.9380
 3.6780	 8.9650
 3.6800	 9.0040
 3.6830	 8.9800
 3.6850	 8.9990
 3.6880	 9.0660
 3.6910	 9.0590
 3.6930	 9.0180
 3.6960	 9.0790
 3.6990	 9.0550
 3.7010	 9.0580
 3.7040	 9.0470
 3.7060	 9.0800
 3.7090	 9.0980
 3.7120	 9.1710
 3.7140	 9.1520
 3.7170	 9.1010
 3.7200	 9.0780
 3.7220	 9.0490
 3.7250	 9.0010
 3.7280	 9.1470
 3.7300	 9.1610
 3.7330	 9.1090
 3.7360	 9.1910
 3.7390	 9.3070
 3.7410	 9.2400
 3.7440	 9.2410
 3.7470	 9.3720
 3.7490	 9.3750
 3.7520	 9.3220
 3.7550	 9.2380
 3.7580	 9.2540
 3.7600	 9.3730
 3.7630	 9.4490
 3.7660	 9.4070
 3.7680	 9.3380
 3.7710	 9.4510
 3.7740	 9.4670
 3.7770	 9.4420
 3.7790	 9.4350
 3.7820	 9.4110
 3.7850	 9.4140
 3.7880	 9.4220
 3.7900	 9.4110
 3.7930	 9.4450
 3.7960	 9.4970
 3.7990	 9.6500
 3.8020	 9.6570
 3.8040	 9.5560
 3.8070	 9.4630
 3.8100	 9.5190
 3.8130	 9.5760
 3.8160	 9.6110
 3.8180	 9.5640
 3.8210	 9.5690
 3.8240	 9.6380
 3.8270	 9.6510
 3.8300	 9.5700
 3.8330	 9.6860
 3.8350	 9.7700
 3.8380	 9.7830
 3.8410	 9.7180
 3.8440	 9.8880
 3.8470	 9.9960
 3.8500	 9.8370
 3.8520	 9.8320
 3.8550	 9.8840
 3.8580	 9.8360
 3.8610	 9.8970
 3.8640	 9.9440
 3.8670	 9.9400
 3.8700	10.0300
 3.8730	10.0800
 3.8750	10.0130
 3.8780	10.0280
 3.8810	10.0380
 3.8840	10.1430
 3.8870	10.2600
 3.8900	10.2650
 3.8930	10.1860
 3.8960	10.1980
 3.8990	10.1780
 3.9020	10.3270
 3.9050	10.3690
 3.9080	10.3200
 3.9110	10.3020
 3.9140	10.3790
 3.9160	10.3810
 3.9190	10.3740
 3.9220	10.4150
 3.9250	10.4790
 3.9280	10.5140
 3.9310	10.5710
 3.9340	10.6350
 3.9370	10.6920
 3.9400	10.6690
 3.9430	10.7150
 3.9460	10.6570
 3.9490	10.5850
 3.9520	10.6000
 3.9550	10.7130
 3.9580	10.6800
 3.9610	10.7050
 3.9640	10.7920
 3.9670	10.8410
 3.9700	10.8170
 3.9730	10.8370
 3.9770	10.8790
 3.9800	10.8780
 3.9830	10.8680
 3.9860	10.9670
 3.9890	10.9450
 3.9920	10.9530
 3.9950	11.0780
 3.9980	11.2490
 4.0010	11.2910
 4.0040	11.3540
 4.0070	11.3760
 4.0100	11.4300
 4.0130	11.3570
 4.0170	11.3220
 4.0200	11.3580
 4.0230	11.4250
 4.0260	11.5280
 4.0290	11.5250
 4.0320	11.4620
 4.0350	11.6000
 4.0380	11.6720
 4.0420	11.6290
 4.0450	11.5910
 4.0480	11.7120
 4.0510	11.7600
 4.0540	11.6360
 4.0570	11.6510
 4.0610	11.8460
 4.0640	11.8850
 4.0670	11.8020
 4.0700	11.7810
 4.0730	11.8330
 4.0770	11.9130
 4.0800	11.8630
 4.0830	11.8590
 4.0860	12.0090
 4.0890	12.1210
 4.0930	12.0530
 4.0960	12.0090
 4.0990	12.0240
 4.1020	12.0110
 4.1060	12.0010
 4.1090	12.0080
 4.1120	12.1450
 4.1150	12.2260
 4.1190	12.2860
 4.1220	12.3160
 4.1250	12.3730
 4.1280	12.3800
 4.1320	12.3230
 4.1350	12.3160
 4.1380	12.3390
 4.1420	12.2680
 4.1450	12.2810
 4.1480	12.2960
 4.1520	12.3690
 4.1550	12.3930
 4.1580	12.3980
 4.1620	12.4210
 4.1650	12.4550
 4.1680	12.4820
 4.1720	12.5250
 4.1750	12.5210
 4.1780	12.5540
 4.1820	12.5160
 4.1850	12.4790
 4.1890	12.4930
 4.1920	12.5550
 4.1950	12.6320
 4.1990	12.7010
 4.2020	12.7140
 4.2060	12.8040
 4.2090	12.8760
 4.2120	12.8440
 4.2160	12.7540
 4.2190	12.9250
 4.2230	13.3690
 4.2260	13.6110
 4.2300	13.4220
 4.2330	13.2860
 4.2360	13.1460
 4.2400	13.4460
 4.2430	13.3500
 4.2470	13.1250
 4.2500	12.9260
 4.2540	12.9950
 4.2570	13.1790
 4.2610	13.2850
 4.2640	13.0670
 4.2680	13.1420
 4.2710	13.0360
 4.2750	12.8890
 4.2780	12.9320
 4.2820	13.1010
 4.2850	13.3440
 4.2890	13.3160
 4.2930	13.1380
 4.2960	12.9790
 4.3000	12.7910
 4.3030	12.9030
 4.3070	12.9130
 4.3100	12.8750
 4.3140	12.7720
 4.3180	12.6970
 4.3210	12.7570
 4.3250	12.8060
 4.3280	12.8620
 4.3320	12.8810
 4.3360	12.6880
 4.3390	12.6200
 4.3430	12.6130
 4.3470	12.5870
 4.3500	12.6430
 4.3540	12.6760
 4.3570	12.5860
 4.3610	12.5730
 4.3650	12.5650
 4.3680	12.5880
 4.3720	12.6000
 4.3760	12.5480
 4.3800	12.5950
 4.3830	12.6360
 4.3870	12.5740
 4.3910	12.5250
 4.3940	12.5190
 4.3980	12.5220
 4.4020	12.4370
 4.4060	12.4700
 4.4090	12.4760
 4.4130	12.4630
 4.4170	12.4530
 4.4210	12.4070
 4.4240	12.4080
 4.4280	12.4970
 4.4320	12.4800
 4.4360	12.3610
 4.4400	12.3300
 4.4430	12.3960
 4.4470	12.3400
 4.4510	12.3130
 4.4550	12.3490
 4.4590	12.3050
 4.4620	12.2860
 4.4660	12.3070
 4.4700	12.2130
 4.4740	12.1980
 4.4780	12.2740
 4.4820	12.3690
 4.4860	12.3970
 4.4900	12.4190
 4.4930	12.3140
 4.4970	12.2200
 4.5010	12.1980
 4.5050	12.1920
 4.5090	12.1930
 4.5130	12.1910
 4.5170	12.2110
 4.5210	12.2250
 4.5250	12.2060
 4.5290	12.1840
 4.5330	12.1530
 4.5370	12.1430
 4.5410	12.1830
 4.5450	12.1720
 4.5490	12.1030
 4.5530	12.1310
 4.5570	12.0890
 4.5610	12.1020
 4.5650	12.1390
 4.5690	12.0620
 4.5730	12.0040
 4.5770	12.0600
 4.5810	12.0720
 4.5850	11.9920
 4.5890	11.9930
 4.5930	12.1160
 4.5970	12.2050
 4.6010	12.2620
 4.6050	12.3610
 4.6090	12.3170
 4.6130	12.0420
 4.6170	11.9140
 4.6220	11.8130
 4.6260	11.7510
 4.6300	11.9700
 4.6340	11.9730
 4.6380	11.8910
 4.6420	11.8820
 4.6460	11.8410
 4.6510	11.8980
 4.6550	11.9580
 4.6590	12.0010
 4.6630	12.0350
 4.6670	12.1010
 4.6720	11.9700
 4.6760	11.8270
 4.6800	11.8920
 4.6840	11.9760
 4.6880	11.9980
 4.6930	12.0140
 4.6970	12.0650
 4.7010	12.1120
 4.7050	12.0700
 4.7100	11.9600
 4.7140	11.9790
 4.7180	12.0130
 4.7230	11.9940
 4.7270	11.9750
 4.7310	11.9770
 4.7360	12.0400
 4.7400	12.0120
 4.7440	12.0030
 4.7490	12.0570
 4.7530	11.9930
 4.7570	11.9590
 4.7620	12.0510
 4.7660	12.0940
 4.7700	12.1180
 4.7750	12.1490
 4.7790	12.1220
 4.7840	12.2510
 4.7880	12.1940
 4.7920	11.8870
 4.7970	11.9710
 4.8010	12.2030
 4.8060	12.0170
 4.8100	11.9700
 4.8150	12.0150
 4.8190	11.9310
 4.8240	11.9320
 4.8280	12.1150
 4.8330	12.1780
 4.8370	12.1420
 4.8420	12.1140
 4.8460	12.1540
 4.8510	12.2190
 4.8550	12.1610
 4.8600	12.1670
 4.8640	12.1940
 4.8690	12.1790
 4.8730	12.1680
 4.8780	12.2140
 4.8830	12.2480
 4.8870	12.2130
 4.8920	12.2360
 4.8960	12.2240
 4.9010	12.1440
 4.9060	12.1480
 4.9100	12.2720
 4.9150	12.3040
 4.9200	12.2680
 4.9240	12.2790
 4.9290	12.2740
 4.9340	12.3320
 4.9380	12.3580
 4.9430	12.3210
 4.9480	12.3520
 4.9530	12.3090
 4.9570	12.2440
 4.9620	12.2550
 4.9670	12.3710
 4.9720	12.3500
 4.9760	12.3150
 4.9810	12.3350
 4.9860	12.4090
 4.9910	12.3940
 4.9960	12.3670
 5.0000	12.3740
 5.0050	12.3670
 5.0100	12.3490
 5.0150	12.3790
 5.0200	12.4340
 5.0250	12.5490
 5.0290	12.6030
 5.0340	12.5860
 5.0390	12.5630
 5.0440	12.5640
 5.0490	12.5440
 5.0540	12.5230
 5.0590	12.5820
 5.0640	12.6120
 5.0690	12.6000
 5.0740	12.6500
 5.0790	12.6750
 5.0840	12.6380
 5.0890	12.6150
 5.0940	12.6930
 5.0990	12.8210
 5.1040	12.8000
 5.1090	12.7000
 5.1140	12.6120
 5.1190	12.6810
 5.1240	12.8450
 5.1290	12.8430
 5.1340	12.7700
 5.1390	12.7980
 5.1440	12.7740
 5.1490	12.7500
 5.1540	12.8220
 5.1600	12.9110
 5.1650	12.8600
 5.1700	12.7310
 5.1750	12.6670
 5.1800	12.6770
 5.1850	12.7020
 5.1910	12.6690
 5.1960	12.7140
 5.2010	12.7790
 5.2060	12.7110
 5.2110	12.6020
 5.2170	12.6510
 5.2220	12.7230
 5.2270	12.7430
 5.2320	12.7020
 5.2380	12.6780
 5.2430	12.6700
 5.2480	12.6390
 5.2540	12.6890
 5.2590	12.7300
 5.2640	12.5730
 5.2700	12.4770
 5.2750	12.4080
 5.2800	12.4240
 5.2860	12.3940
 5.2910	12.4060
 5.2970	12.4340
 5.3020	12.4770
 5.3070	12.4050
 5.3130	12.3870
 5.3180	12.4650
 5.3240	12.5300
 5.3290	12.4700
 5.3350	12.4190
 5.3400	12.3760
 5.3460	12.3900
 5.3510	12.3560
 5.3570	12.2650
 5.3620	12.1990
 5.3680	12.1980
 5.3730	12.1340
 5.3790	12.1690
 5.3850	12.2330
 5.3900	12.2270
 5.3960	12.1830
 5.4010	12.0840
 5.4070	11.9430
 5.4130	11.9400
 5.4180	11.9970
 5.4240	11.9880
 5.4300	11.9700
 5.4350	11.9610
 5.4410	11.9620
