Name: Lagerstroemia indica
Type: vegetation
Class: Tree
Genus: Lagerstroemia
Species: indica
Sample No.: JPL149
Owner: JPL
Wavelength Range: VSWIR
Origin: 34.1242; -118.1134; WGS84
Collection Date: 9/14/2016
Description: Samples were collected at the Huntington Garden in San Marino California as part of a JPL Subcontract studying HyTES imagery. Samples were taken to JPL and processed within 48 hours of collection. The same leaves were processed in the Nicolet and then measured using the ASD.
Measurement: Bidirectional reflectance
First Column: X
Second Column: Y
X Units: Wavelength (micrometer)
Y Units: Reflectance (percentage)
First X Value: 0.35
Last X Value: 2.5
Number of X Values: 2151
Additional Information: vegetation.tree.lagerstroemia.indica.vswir.jpl149.jpl.asd.ancillary.txt

 0.3500	 4.1790
 0.3510	 4.1500
 0.3520	 4.1900
 0.3530	 4.1760
 0.3540	 4.0580
 0.3550	 4.0630
 0.3560	 4.0390
 0.3570	 3.9720
 0.3580	 3.9300
 0.3590	 4.0010
 0.3600	 4.0340
 0.3610	 3.9750
 0.3620	 3.9250
 0.3630	 3.9410
 0.3640	 3.9510
 0.3650	 3.8820
 0.3660	 3.7870
 0.3670	 3.7890
 0.3680	 3.8550
 0.3690	 3.8510
 0.3700	 3.8260
 0.3710	 3.8390
 0.3720	 3.8910
 0.3730	 3.8810
 0.3740	 3.8730
 0.3750	 3.8740
 0.3760	 3.8720
 0.3770	 3.8410
 0.3780	 3.8330
 0.3790	 3.8590
 0.3800	 3.8800
 0.3810	 3.8420
 0.3820	 3.8000
 0.3830	 3.7970
 0.3840	 3.7930
 0.3850	 3.7960
 0.3860	 3.7980
 0.3870	 3.7850
 0.3880	 3.7740
 0.3890	 3.7610
 0.3900	 3.7560
 0.3910	 3.7790
 0.3920	 3.7710
 0.3930	 3.7580
 0.3940	 3.7640
 0.3950	 3.7540
 0.3960	 3.7470
 0.3970	 3.7370
 0.3980	 3.7160
 0.3990	 3.7520
 0.4000	 3.7830
 0.4010	 3.7730
 0.4020	 3.7340
 0.4030	 3.7220
 0.4040	 3.7410
 0.4050	 3.7700
 0.4060	 3.7740
 0.4070	 3.7750
 0.4080	 3.7810
 0.4090	 3.7910
 0.4100	 3.7810
 0.4110	 3.7820
 0.4120	 3.8050
 0.4130	 3.8160
 0.4140	 3.8230
 0.4150	 3.8340
 0.4160	 3.8520
 0.4170	 3.8560
 0.4180	 3.8620
 0.4190	 3.8780
 0.4200	 3.8990
 0.4210	 3.9080
 0.4220	 3.9180
 0.4230	 3.9380
 0.4240	 3.9580
 0.4250	 3.9640
 0.4260	 3.9680
 0.4270	 3.9910
 0.4280	 3.9980
 0.4290	 3.9970
 0.4300	 4.0010
 0.4310	 4.0240
 0.4320	 4.0390
 0.4330	 4.0470
 0.4340	 4.0560
 0.4350	 4.0650
 0.4360	 4.0810
 0.4370	 4.0980
 0.4380	 4.1010
 0.4390	 4.1020
 0.4400	 4.1110
 0.4410	 4.1310
 0.4420	 4.1510
 0.4430	 4.1680
 0.4440	 4.1880
 0.4450	 4.2140
 0.4460	 4.2360
 0.4470	 4.2560
 0.4480	 4.2780
 0.4490	 4.3160
 0.4500	 4.3500
 0.4510	 4.3780
 0.4520	 4.4040
 0.4530	 4.4320
 0.4540	 4.4580
 0.4550	 4.4820
 0.4560	 4.5020
 0.4570	 4.5200
 0.4580	 4.5380
 0.4590	 4.5560
 0.4600	 4.5730
 0.4610	 4.5910
 0.4620	 4.6060
 0.4630	 4.6120
 0.4640	 4.6180
 0.4650	 4.6220
 0.4660	 4.6250
 0.4670	 4.6330
 0.4680	 4.6410
 0.4690	 4.6470
 0.4700	 4.6520
 0.4710	 4.6580
 0.4720	 4.6620
 0.4730	 4.6670
 0.4740	 4.6780
 0.4750	 4.6860
 0.4760	 4.6930
 0.4770	 4.7030
 0.4780	 4.7140
 0.4790	 4.7280
 0.4800	 4.7430
 0.4810	 4.7550
 0.4820	 4.7760
 0.4830	 4.7930
 0.4840	 4.8100
 0.4850	 4.8410
 0.4860	 4.8670
 0.4870	 4.8920
 0.4880	 4.9220
 0.4890	 4.9580
 0.4900	 4.9970
 0.4910	 5.0430
 0.4920	 5.0970
 0.4930	 5.1540
 0.4940	 5.2190
 0.4950	 5.2900
 0.4960	 5.3630
 0.4970	 5.4480
 0.4980	 5.5430
 0.4990	 5.6440
 0.5000	 5.7530
 0.5010	 5.8720
 0.5020	 6.0000
 0.5030	 6.1380
 0.5040	 6.2950
 0.5050	 6.4630
 0.5060	 6.6390
 0.5070	 6.8290
 0.5080	 7.0300
 0.5090	 7.2490
 0.5100	 7.4900
 0.5110	 7.7380
 0.5120	 7.9940
 0.5130	 8.2640
 0.5140	 8.5510
 0.5150	 8.8500
 0.5160	 9.1580
 0.5170	 9.4750
 0.5180	 9.8030
 0.5190	10.1380
 0.5200	10.4760
 0.5210	10.8090
 0.5220	11.1470
 0.5230	11.4800
 0.5240	11.7980
 0.5250	12.1010
 0.5260	12.3950
 0.5270	12.6770
 0.5280	12.9380
 0.5290	13.1870
 0.5300	13.4220
 0.5310	13.6380
 0.5320	13.8370
 0.5330	14.0200
 0.5340	14.1880
 0.5350	14.3380
 0.5360	14.4750
 0.5370	14.6030
 0.5380	14.7270
 0.5390	14.8470
 0.5400	14.9760
 0.5410	15.1120
 0.5420	15.2460
 0.5430	15.3600
 0.5440	15.4500
 0.5450	15.5140
 0.5460	15.5550
 0.5470	15.5790
 0.5480	15.6070
 0.5490	15.6470
 0.5500	15.6900
 0.5510	15.7260
 0.5520	15.7490
 0.5530	15.7550
 0.5540	15.7450
 0.5550	15.7200
 0.5560	15.6800
 0.5570	15.6290
 0.5580	15.5660
 0.5590	15.4930
 0.5600	15.4110
 0.5610	15.3190
 0.5620	15.2130
 0.5630	15.0960
 0.5640	14.9730
 0.5650	14.8420
 0.5660	14.7050
 0.5670	14.5610
 0.5680	14.4120
 0.5690	14.2560
 0.5700	14.0910
 0.5710	13.9200
 0.5720	13.7570
 0.5730	13.5960
 0.5740	13.4380
 0.5750	13.2910
 0.5760	13.1500
 0.5770	13.0150
 0.5780	12.8900
 0.5790	12.7800
 0.5800	12.6810
 0.5810	12.5860
 0.5820	12.4900
 0.5830	12.3970
 0.5840	12.3020
 0.5850	12.2060
 0.5860	12.1210
 0.5870	12.0470
 0.5880	11.9810
 0.5890	11.9180
 0.5900	11.8630
 0.5910	11.8140
 0.5920	11.7690
 0.5930	11.7270
 0.5940	11.6860
 0.5950	11.6540
 0.5960	11.6300
 0.5970	11.6060
 0.5980	11.5830
 0.5990	11.5570
 0.6000	11.5230
 0.6010	11.4790
 0.6020	11.4270
 0.6030	11.3690
 0.6040	11.3050
 0.6050	11.2320
 0.6060	11.1500
 0.6070	11.0580
 0.6080	10.9600
 0.6090	10.8670
 0.6100	10.7860
 0.6110	10.7150
 0.6120	10.6020
 0.6130	10.4610
 0.6140	10.3170
 0.6150	10.1950
 0.6160	10.0770
 0.6170	 9.9660
 0.6180	 9.8680
 0.6190	 9.7820
 0.6200	 9.7060
 0.6210	 9.6380
 0.6220	 9.5740
 0.6230	 9.5200
 0.6240	 9.4770
 0.6250	 9.4440
 0.6260	 9.4180
 0.6270	 9.4000
 0.6280	 9.3870
 0.6290	 9.3770
 0.6300	 9.3720
 0.6310	 9.3640
 0.6320	 9.3460
 0.6330	 9.3200
 0.6340	 9.2830
 0.6350	 9.2330
 0.6360	 9.1670
 0.6370	 9.0810
 0.6380	 8.9820
 0.6390	 8.8690
 0.6400	 8.7410
 0.6410	 8.6030
 0.6420	 8.4580
 0.6430	 8.3100
 0.6440	 8.1590
 0.6450	 8.0060
 0.6460	 7.8560
 0.6470	 7.7150
 0.6480	 7.5890
 0.6490	 7.4770
 0.6500	 7.3790
 0.6510	 7.2960
 0.6520	 7.2200
 0.6530	 7.1490
 0.6540	 7.0770
 0.6550	 7.0000
 0.6560	 6.9140
 0.6570	 6.8140
 0.6580	 6.7000
 0.6590	 6.5750
 0.6600	 6.4440
 0.6610	 6.3110
 0.6620	 6.1760
 0.6630	 6.0430
 0.6640	 5.9160
 0.6650	 5.8030
 0.6660	 5.7040
 0.6670	 5.6190
 0.6680	 5.5480
 0.6690	 5.4890
 0.6700	 5.4470
 0.6710	 5.4180
 0.6720	 5.4030
 0.6730	 5.3990
 0.6740	 5.4060
 0.6750	 5.4220
 0.6760	 5.4480
 0.6770	 5.4850
 0.6780	 5.5310
 0.6790	 5.5870
 0.6800	 5.6580
 0.6810	 5.7490
 0.6820	 5.8600
 0.6830	 5.9960
 0.6840	 6.1630
 0.6850	 6.3680
 0.6860	 6.6200
 0.6870	 6.9280
 0.6880	 7.2980
 0.6890	 7.7420
 0.6900	 8.2660
 0.6910	 8.8740
 0.6920	 9.5680
 0.6930	10.3420
 0.6940	11.1900
 0.6950	12.1030
 0.6960	13.0730
 0.6970	14.0900
 0.6980	15.1430
 0.6990	16.2130
 0.7000	17.2960
 0.7010	18.3800
 0.7020	19.4510
 0.7030	20.4990
 0.7040	21.5240
 0.7050	22.5230
 0.7060	23.4940
 0.7070	24.4380
 0.7080	25.3570
 0.7090	26.2520
 0.7100	27.1240
 0.7110	27.9780
 0.7120	28.8170
 0.7130	29.6390
 0.7140	30.4400
 0.7150	31.2230
 0.7160	31.9920
 0.7170	32.7490
 0.7180	33.4880
 0.7190	34.2050
 0.7200	34.9010
 0.7210	35.5770
 0.7220	36.2320
 0.7230	36.8620
 0.7240	37.4660
 0.7250	38.0480
 0.7260	38.6050
 0.7270	39.1350
 0.7280	39.6420
 0.7290	40.1230
 0.7300	40.5780
 0.7310	41.0050
 0.7320	41.4130
 0.7330	41.7960
 0.7340	42.1530
 0.7350	42.4880
 0.7360	42.8040
 0.7370	43.1000
 0.7380	43.3760
 0.7390	43.6320
 0.7400	43.8720
 0.7410	44.0960
 0.7420	44.3020
 0.7430	44.4910
 0.7440	44.6650
 0.7450	44.8240
 0.7460	44.9700
 0.7470	45.1020
 0.7480	45.2240
 0.7490	45.3340
 0.7500	45.4320
 0.7510	45.5240
 0.7520	45.6080
 0.7530	45.6850
 0.7540	45.7550
 0.7550	45.8190
 0.7560	45.8780
 0.7570	45.9340
 0.7580	45.9840
 0.7590	46.0320
 0.7600	46.0760
 0.7610	46.1140
 0.7620	46.1510
 0.7630	46.1870
 0.7640	46.2220
 0.7650	46.2500
 0.7660	46.2750
 0.7670	46.2990
 0.7680	46.3220
 0.7690	46.3460
 0.7700	46.3670
 0.7710	46.3860
 0.7720	46.4050
 0.7730	46.4250
 0.7740	46.4440
 0.7750	46.4630
 0.7760	46.4800
 0.7770	46.4970
 0.7780	46.5150
 0.7790	46.5330
 0.7800	46.5510
 0.7810	46.5690
 0.7820	46.5850
 0.7830	46.6010
 0.7840	46.6140
 0.7850	46.6270
 0.7860	46.6410
 0.7870	46.6520
 0.7880	46.6670
 0.7890	46.6810
 0.7900	46.6890
 0.7910	46.6990
 0.7920	46.7090
 0.7930	46.7180
 0.7940	46.7250
 0.7950	46.7310
 0.7960	46.7360
 0.7970	46.7400
 0.7980	46.7450
 0.7990	46.7490
 0.8000	46.7510
 0.8010	46.7510
 0.8020	46.7540
 0.8030	46.7560
 0.8040	46.7550
 0.8050	46.7520
 0.8060	46.7510
 0.8070	46.7490
 0.8080	46.7440
 0.8090	46.7400
 0.8100	46.7390
 0.8110	46.7370
 0.8120	46.7340
 0.8130	46.7270
 0.8140	46.7170
 0.8150	46.7070
 0.8160	46.6990
 0.8170	46.6920
 0.8180	46.6850
 0.8190	46.6800
 0.8200	46.6730
 0.8210	46.6640
 0.8220	46.6560
 0.8230	46.6480
 0.8240	46.6390
 0.8250	46.6330
 0.8260	46.6250
 0.8270	46.6140
 0.8280	46.6070
 0.8290	46.5960
 0.8300	46.5830
 0.8310	46.5730
 0.8320	46.5660
 0.8330	46.5590
 0.8340	46.5530
 0.8350	46.5480
 0.8360	46.5390
 0.8370	46.5340
 0.8380	46.5340
 0.8390	46.5360
 0.8400	46.5370
 0.8410	46.5360
 0.8420	46.5330
 0.8430	46.5310
 0.8440	46.5320
 0.8450	46.5350
 0.8460	46.5400
 0.8470	46.5420
 0.8480	46.5460
 0.8490	46.5490
 0.8500	46.5490
 0.8510	46.5510
 0.8520	46.5600
 0.8530	46.5700
 0.8540	46.5720
 0.8550	46.5760
 0.8560	46.5830
 0.8570	46.5910
 0.8580	46.5980
 0.8590	46.6080
 0.8600	46.6180
 0.8610	46.6260
 0.8620	46.6360
 0.8630	46.6450
 0.8640	46.6540
 0.8650	46.6650
 0.8660	46.6780
 0.8670	46.6910
 0.8680	46.7010
 0.8690	46.7090
 0.8700	46.7210
 0.8710	46.7350
 0.8720	46.7490
 0.8730	46.7600
 0.8740	46.7700
 0.8750	46.7840
 0.8760	46.8000
 0.8770	46.8090
 0.8780	46.8240
 0.8790	46.8380
 0.8800	46.8470
 0.8810	46.8600
 0.8820	46.8750
 0.8830	46.8870
 0.8840	46.8960
 0.8850	46.9100
 0.8860	46.9240
 0.8870	46.9350
 0.8880	46.9460
 0.8890	46.9610
 0.8900	46.9740
 0.8910	46.9860
 0.8920	47.0000
 0.8930	47.0100
 0.8940	47.0210
 0.8950	47.0340
 0.8960	47.0440
 0.8970	47.0550
 0.8980	47.0650
 0.8990	47.0740
 0.9000	47.0840
 0.9010	47.0990
 0.9020	47.1100
 0.9030	47.1170
 0.9040	47.1260
 0.9050	47.1350
 0.9060	47.1440
 0.9070	47.1540
 0.9080	47.1620
 0.9090	47.1660
 0.9100	47.1700
 0.9110	47.1790
 0.9120	47.1870
 0.9130	47.1900
 0.9140	47.1940
 0.9150	47.2020
 0.9160	47.2000
 0.9170	47.1990
 0.9180	47.2000
 0.9190	47.2000
 0.9200	47.2000
 0.9210	47.1930
 0.9220	47.1830
 0.9230	47.1800
 0.9240	47.1790
 0.9250	47.1720
 0.9260	47.1590
 0.9270	47.1430
 0.9280	47.1270
 0.9290	47.1110
 0.9300	47.0940
 0.9310	47.0740
 0.9320	47.0470
 0.9330	47.0170
 0.9340	46.9920
 0.9350	46.9760
 0.9360	46.9530
 0.9370	46.9230
 0.9380	46.8920
 0.9390	46.8610
 0.9400	46.8300
 0.9410	46.7990
 0.9420	46.7650
 0.9430	46.7220
 0.9440	46.6790
 0.9450	46.6360
 0.9460	46.5910
 0.9470	46.5430
 0.9480	46.4850
 0.9490	46.4280
 0.9500	46.3790
 0.9510	46.3100
 0.9520	46.2360
 0.9530	46.1630
 0.9540	46.0920
 0.9550	46.0220
 0.9560	45.9540
 0.9570	45.8900
 0.9580	45.8290
 0.9590	45.7660
 0.9600	45.7130
 0.9610	45.6670
 0.9620	45.6200
 0.9630	45.5810
 0.9640	45.5460
 0.9650	45.5130
 0.9660	45.4840
 0.9670	45.4520
 0.9680	45.4310
 0.9690	45.4120
 0.9700	45.3840
 0.9710	45.3800
 0.9720	45.3700
 0.9730	45.3560
 0.9740	45.3490
 0.9750	45.3480
 0.9760	45.3400
 0.9770	45.3280
 0.9780	45.3230
 0.9790	45.3180
 0.9800	45.3290
 0.9810	45.3390
 0.9820	45.3240
 0.9830	45.3340
 0.9840	45.3460
 0.9850	45.3540
 0.9860	45.3620
 0.9870	45.3690
 0.9880	45.3750
 0.9890	45.3890
 0.9900	45.4160
 0.9910	45.4250
 0.9920	45.4370
 0.9930	45.4550
 0.9940	45.4720
 0.9950	45.4860
 0.9960	45.5010
 0.9970	45.5210
 0.9980	45.5440
 0.9990	45.5600
 1.0000	45.5810
 1.0010	46.0880
 1.0020	46.1110
 1.0030	46.1330
 1.0040	46.1550
 1.0050	46.1760
 1.0060	46.1990
 1.0070	46.2210
 1.0080	46.2460
 1.0090	46.2730
 1.0100	46.2980
 1.0110	46.3270
 1.0120	46.3540
 1.0130	46.3780
 1.0140	46.4030
 1.0150	46.4300
 1.0160	46.4560
 1.0170	46.4810
 1.0180	46.5040
 1.0190	46.5260
 1.0200	46.5460
 1.0210	46.5630
 1.0220	46.5840
 1.0230	46.6040
 1.0240	46.6250
 1.0250	46.6470
 1.0260	46.6720
 1.0270	46.6940
 1.0280	46.7160
 1.0290	46.7390
 1.0300	46.7650
 1.0310	46.7870
 1.0320	46.8090
 1.0330	46.8290
 1.0340	46.8490
 1.0350	46.8660
 1.0360	46.8830
 1.0370	46.9030
 1.0380	46.9230
 1.0390	46.9430
 1.0400	46.9610
 1.0410	46.9810
 1.0420	47.0000
 1.0430	47.0180
 1.0440	47.0350
 1.0450	47.0540
 1.0460	47.0700
 1.0470	47.0840
 1.0480	47.0990
 1.0490	47.1140
 1.0500	47.1290
 1.0510	47.1440
 1.0520	47.1580
 1.0530	47.1700
 1.0540	47.1800
 1.0550	47.1910
 1.0560	47.2010
 1.0570	47.2120
 1.0580	47.2270
 1.0590	47.2360
 1.0600	47.2390
 1.0610	47.2460
 1.0620	47.2510
 1.0630	47.2580
 1.0640	47.2700
 1.0650	47.2770
 1.0660	47.2820
 1.0670	47.2860
 1.0680	47.2900
 1.0690	47.2910
 1.0700	47.2940
 1.0710	47.2970
 1.0720	47.2990
 1.0730	47.3010
 1.0740	47.3010
 1.0750	47.2990
 1.0760	47.2970
 1.0770	47.2910
 1.0780	47.2890
 1.0790	47.2890
 1.0800	47.2880
 1.0810	47.2890
 1.0820	47.2870
 1.0830	47.2810
 1.0840	47.2770
 1.0850	47.2710
 1.0860	47.2680
 1.0870	47.2630
 1.0880	47.2590
 1.0890	47.2530
 1.0900	47.2460
 1.0910	47.2390
 1.0920	47.2320
 1.0930	47.2240
 1.0940	47.2110
 1.0950	47.2020
 1.0960	47.1950
 1.0970	47.1850
 1.0980	47.1770
 1.0990	47.1670
 1.1000	47.1550
 1.1010	47.1430
 1.1020	47.1310
 1.1030	47.1200
 1.1040	47.1070
 1.1050	47.0960
 1.1060	47.0840
 1.1070	47.0730
 1.1080	47.0600
 1.1090	47.0460
 1.1100	47.0320
 1.1110	47.0190
 1.1120	47.0020
 1.1130	46.9830
 1.1140	46.9640
 1.1150	46.9420
 1.1160	46.9210
 1.1170	46.8990
 1.1180	46.8760
 1.1190	46.8520
 1.1200	46.8260
 1.1210	46.7960
 1.1220	46.7630
 1.1230	46.7260
 1.1240	46.6860
 1.1250	46.6400
 1.1260	46.5900
 1.1270	46.5330
 1.1280	46.4710
 1.1290	46.4010
 1.1300	46.3270
 1.1310	46.2430
 1.1320	46.1520
 1.1330	46.0520
 1.1340	45.9460
 1.1350	45.8300
 1.1360	45.7060
 1.1370	45.5720
 1.1380	45.4320
 1.1390	45.2880
 1.1400	45.1360
 1.1410	44.9830
 1.1420	44.8240
 1.1430	44.6610
 1.1440	44.5010
 1.1450	44.3360
 1.1460	44.1770
 1.1470	44.0170
 1.1480	43.8660
 1.1490	43.7180
 1.1500	43.5790
 1.1510	43.4430
 1.1520	43.3180
 1.1530	43.2010
 1.1540	43.0940
 1.1550	42.9980
 1.1560	42.9100
 1.1570	42.8280
 1.1580	42.7530
 1.1590	42.6860
 1.1600	42.6280
 1.1610	42.5780
 1.1620	42.5340
 1.1630	42.4940
 1.1640	42.4570
 1.1650	42.4250
 1.1660	42.3960
 1.1670	42.3710
 1.1680	42.3520
 1.1690	42.3340
 1.1700	42.3200
 1.1710	42.3050
 1.1720	42.2930
 1.1730	42.2790
 1.1740	42.2660
 1.1750	42.2510
 1.1760	42.2370
 1.1770	42.2230
 1.1780	42.2100
 1.1790	42.1960
 1.1800	42.1800
 1.1810	42.1640
 1.1820	42.1500
 1.1830	42.1350
 1.1840	42.1180
 1.1850	42.1030
 1.1860	42.0850
 1.1870	42.0670
 1.1880	42.0540
 1.1890	42.0430
 1.1900	42.0320
 1.1910	42.0230
 1.1920	42.0150
 1.1930	42.0070
 1.1940	42.0000
 1.1950	41.9930
 1.1960	41.9890
 1.1970	41.9900
 1.1980	41.9900
 1.1990	41.9930
 1.2000	42.0000
 1.2010	42.0080
 1.2020	42.0160
 1.2030	42.0260
 1.2040	42.0380
 1.2050	42.0500
 1.2060	42.0640
 1.2070	42.0790
 1.2080	42.0980
 1.2090	42.1180
 1.2100	42.1390
 1.2110	42.1610
 1.2120	42.1850
 1.2130	42.2080
 1.2140	42.2320
 1.2150	42.2560
 1.2160	42.2820
 1.2170	42.3070
 1.2180	42.3330
 1.2190	42.3590
 1.2200	42.3860
 1.2210	42.4140
 1.2220	42.4430
 1.2230	42.4690
 1.2240	42.4980
 1.2250	42.5260
 1.2260	42.5510
 1.2270	42.5770
 1.2280	42.6020
 1.2290	42.6260
 1.2300	42.6510
 1.2310	42.6750
 1.2320	42.6990
 1.2330	42.7200
 1.2340	42.7410
 1.2350	42.7610
 1.2360	42.7820
 1.2370	42.8030
 1.2380	42.8220
 1.2390	42.8430
 1.2400	42.8600
 1.2410	42.8740
 1.2420	42.8900
 1.2430	42.9070
 1.2440	42.9240
 1.2450	42.9420
 1.2460	42.9580
 1.2470	42.9740
 1.2480	42.9880
 1.2490	43.0010
 1.2500	43.0150
 1.2510	43.0270
 1.2520	43.0370
 1.2530	43.0470
 1.2540	43.0580
 1.2550	43.0670
 1.2560	43.0750
 1.2570	43.0810
 1.2580	43.0850
 1.2590	43.0890
 1.2600	43.0930
 1.2610	43.0960
 1.2620	43.0980
 1.2630	43.0980
 1.2640	43.0990
 1.2650	43.0980
 1.2660	43.0950
 1.2670	43.0910
 1.2680	43.0860
 1.2690	43.0810
 1.2700	43.0750
 1.2710	43.0690
 1.2720	43.0610
 1.2730	43.0520
 1.2740	43.0410
 1.2750	43.0280
 1.2760	43.0130
 1.2770	42.9970
 1.2780	42.9820
 1.2790	42.9660
 1.2800	42.9500
 1.2810	42.9300
 1.2820	42.9070
 1.2830	42.8820
 1.2840	42.8550
 1.2850	42.8270
 1.2860	42.7980
 1.2870	42.7660
 1.2880	42.7310
 1.2890	42.6940
 1.2900	42.6550
 1.2910	42.6130
 1.2920	42.5690
 1.2930	42.5230
 1.2940	42.4740
 1.2950	42.4230
 1.2960	42.3680
 1.2970	42.3110
 1.2980	42.2510
 1.2990	42.1890
 1.3000	42.1230
 1.3010	42.0560
 1.3020	41.9860
 1.3030	41.9110
 1.3040	41.8340
 1.3050	41.7560
 1.3060	41.6740
 1.3070	41.5910
 1.3080	41.5050
 1.3090	41.4160
 1.3100	41.3220
 1.3110	41.2250
 1.3120	41.1240
 1.3130	41.0220
 1.3140	40.9170
 1.3150	40.8090
 1.3160	40.6970
 1.3170	40.5810
 1.3180	40.4610
 1.3190	40.3390
 1.3200	40.2140
 1.3210	40.0860
 1.3220	39.9560
 1.3230	39.8230
 1.3240	39.6860
 1.3250	39.5490
 1.3260	39.4080
 1.3270	39.2640
 1.3280	39.1180
 1.3290	38.9690
 1.3300	38.8170
 1.3310	38.6650
 1.3320	38.5080
 1.3330	38.3540
 1.3340	38.1980
 1.3350	38.0400
 1.3360	37.8820
 1.3370	37.7230
 1.3380	37.5630
 1.3390	37.4050
 1.3400	37.2480
 1.3410	37.0930
 1.3420	36.9380
 1.3430	36.7850
 1.3440	36.6330
 1.3450	36.4830
 1.3460	36.3340
 1.3470	36.1870
 1.3480	36.0430
 1.3490	35.8980
 1.3500	35.7550
 1.3510	35.6120
 1.3520	35.4700
 1.3530	35.3280
 1.3540	35.1860
 1.3550	35.0450
 1.3560	34.9020
 1.3570	34.7570
 1.3580	34.6110
 1.3590	34.4620
 1.3600	34.3100
 1.3610	34.1540
 1.3620	33.9910
 1.3630	33.8240
 1.3640	33.6510
 1.3650	33.4680
 1.3660	33.2800
 1.3670	33.0820
 1.3680	32.8700
 1.3690	32.6460
 1.3700	32.4060
 1.3710	32.1500
 1.3720	31.8800
 1.3730	31.5900
 1.3740	31.2820
 1.3750	30.9540
 1.3760	30.6000
 1.3770	30.2220
 1.3780	29.8150
 1.3790	29.3860
 1.3800	28.9320
 1.3810	28.4490
 1.3820	27.9470
 1.3830	27.4230
 1.3840	26.8800
 1.3850	26.3140
 1.3860	25.7360
 1.3870	25.1350
 1.3880	24.5330
 1.3890	23.9200
 1.3900	23.2980
 1.3910	22.6800
 1.3920	22.0580
 1.3930	21.4340
 1.3940	20.8180
 1.3950	20.2050
 1.3960	19.6040
 1.3970	19.0190
 1.3980	18.4460
 1.3990	17.8990
 1.4000	17.3720
 1.4010	16.8610
 1.4020	16.3770
 1.4030	15.9110
 1.4040	15.4680
 1.4050	15.0520
 1.4060	14.6580
 1.4070	14.2920
 1.4080	13.9480
 1.4090	13.6250
 1.4100	13.3250
 1.4110	13.0450
 1.4120	12.7840
 1.4130	12.5440
 1.4140	12.3210
 1.4150	12.1170
 1.4160	11.9290
 1.4170	11.7560
 1.4180	11.5970
 1.4190	11.4480
 1.4200	11.3130
 1.4210	11.1890
 1.4220	11.0750
 1.4230	10.9730
 1.4240	10.8790
 1.4250	10.7920
 1.4260	10.7130
 1.4270	10.6400
 1.4280	10.5750
 1.4290	10.5150
 1.4300	10.4640
 1.4310	10.4160
 1.4320	10.3740
 1.4330	10.3350
 1.4340	10.3020
 1.4350	10.2720
 1.4360	10.2480
 1.4370	10.2260
 1.4380	10.2080
 1.4390	10.1940
 1.4400	10.1820
 1.4410	10.1740
 1.4420	10.1680
 1.4430	10.1640
 1.4440	10.1620
 1.4450	10.1620
 1.4460	10.1640
 1.4470	10.1680
 1.4480	10.1750
 1.4490	10.1820
 1.4500	10.1910
 1.4510	10.2010
 1.4520	10.2130
 1.4530	10.2270
 1.4540	10.2440
 1.4550	10.2620
 1.4560	10.2830
 1.4570	10.3050
 1.4580	10.3310
 1.4590	10.3590
 1.4600	10.3910
 1.4610	10.4280
 1.4620	10.4670
 1.4630	10.5100
 1.4640	10.5560
 1.4650	10.6060
 1.4660	10.6620
 1.4670	10.7220
 1.4680	10.7870
 1.4690	10.8560
 1.4700	10.9280
 1.4710	11.0060
 1.4720	11.0860
 1.4730	11.1710
 1.4740	11.2590
 1.4750	11.3500
 1.4760	11.4440
 1.4770	11.5410
