Name: Baccharis pilularis 3
Type: vegetation
Class: Shrub
Genus: Baccharis
Species: pilularis
Sample No.: VH125
Owner: UCSB
Wavelength Range: TIR
Origin: 34.5088; -119.7683; WGS84
Collection Date: 6/3/2013
Description: Samples were collected as part of the HyspIRI Airborne Campaign. 48 individual plants were sampled in three times in 2013 - spring  summer  and fall. The name of the sample includes a 1  2  or 3 which references a different individual of the species. Samples were taken to JPL and processed within 48 hours of collection. The same leaves were processed in the Nicolet and then measured using the ASD.
Measurement: Hemispherical reflectance
First Column: X
Second Column: Y
X Units: Wavelength (micrometers)
Y Units: Reflectance (percentage)
First X Value: 2.501
Last X Value: 15.387
Number of X Values: 1737
Additional Information: vegetation.shrub.baccharis.pilularis.tir.vh125.ucsb.nicolet.ancillary.txt

 2.5010	 2.8220
 2.5030	 2.7860
 2.5040	 2.7700
 2.5050	 2.7900
 2.5060	 2.8470
 2.5070	 2.7800
 2.5090	 2.7860
 2.5100	 2.8000
 2.5110	 2.7860
 2.5120	 2.7320
 2.5140	 2.8000
 2.5150	 2.7820
 2.5160	 2.8240
 2.5170	 2.8870
 2.5180	 2.8500
 2.5200	 2.8020
 2.5210	 2.8350
 2.5220	 2.8470
 2.5230	 2.8330
 2.5250	 2.7640
 2.5260	 2.8270
 2.5270	 2.8690
 2.5280	 2.9040
 2.5290	 2.8550
 2.5310	 2.8070
 2.5320	 2.7840
 2.5330	 2.8330
 2.5340	 2.8410
 2.5360	 2.8670
 2.5370	 2.8570
 2.5380	 2.9110
 2.5390	 2.9040
 2.5410	 2.8710
 2.5420	 2.8040
 2.5430	 2.8340
 2.5440	 2.8770
 2.5460	 2.9050
 2.5470	 2.9090
 2.5480	 2.9320
 2.5490	 2.8940
 2.5510	 2.9070
 2.5520	 2.9110
 2.5530	 2.9220
 2.5540	 2.8820
 2.5560	 2.8950
 2.5570	 2.9240
 2.5580	 2.9220
 2.5590	 2.9160
 2.5610	 2.9510
 2.5620	 2.9300
 2.5630	 2.9510
 2.5640	 2.9610
 2.5660	 2.9590
 2.5670	 2.9490
 2.5680	 2.9750
 2.5700	 2.9310
 2.5710	 2.9350
 2.5720	 2.9250
 2.5730	 2.9590
 2.5750	 2.9590
 2.5760	 3.0020
 2.5770	 3.0030
 2.5790	 2.9720
 2.5800	 2.9400
 2.5810	 2.9660
 2.5820	 2.9570
 2.5840	 2.9580
 2.5850	 2.9240
 2.5860	 2.9760
 2.5880	 3.0040
 2.5890	 3.0490
 2.5900	 3.0790
 2.5910	 3.0920
 2.5930	 2.9960
 2.5940	 2.9500
 2.5950	 2.9600
 2.5970	 2.9670
 2.5980	 2.9460
 2.5990	 3.0100
 2.6000	 2.9980
 2.6020	 3.0160
 2.6030	 3.0130
 2.6040	 3.0160
 2.6060	 2.9770
 2.6070	 2.9780
 2.6080	 2.9470
 2.6100	 2.9250
 2.6110	 2.9160
 2.6120	 2.9620
 2.6140	 2.9490
 2.6150	 2.9430
 2.6160	 2.9350
 2.6180	 2.9670
 2.6190	 2.9880
 2.6200	 2.9930
 2.6220	 2.9660
 2.6230	 2.9430
 2.6240	 2.8930
 2.6260	 2.9010
 2.6270	 2.8940
 2.6280	 2.9120
 2.6300	 2.9230
 2.6310	 2.9380
 2.6320	 2.9060
 2.6340	 2.9510
 2.6350	 2.9640
 2.6360	 2.9830
 2.6380	 2.9190
 2.6390	 2.9060
 2.6400	 2.9030
 2.6420	 2.9150
 2.6430	 2.9070
 2.6440	 2.8860
 2.6460	 2.8530
 2.6470	 2.8620
 2.6480	 2.8650
 2.6500	 2.8830
 2.6510	 2.8460
 2.6520	 2.8720
 2.6540	 2.9030
 2.6550	 2.8970
 2.6560	 2.8480
 2.6580	 2.8450
 2.6590	 2.8260
 2.6610	 2.8540
 2.6620	 2.8490
 2.6630	 2.8400
 2.6650	 2.7610
 2.6660	 2.7650
 2.6670	 2.7580
 2.6690	 2.7820
 2.6700	 2.7320
 2.6720	 2.7290
 2.6730	 2.7500
 2.6740	 2.7640
 2.6760	 2.7340
 2.6770	 2.7430
 2.6780	 2.7150
 2.6800	 2.6720
 2.6810	 2.6400
 2.6830	 2.6900
 2.6840	 2.6700
 2.6850	 2.7010
 2.6870	 2.7380
 2.6880	 2.7430
 2.6900	 2.6840
 2.6910	 2.7390
 2.6920	 2.7240
 2.6940	 2.7290
 2.6950	 2.6910
 2.6970	 2.6920
 2.6980	 2.6860
 2.6990	 2.6650
 2.7010	 2.6330
 2.7020	 2.6310
 2.7040	 2.6250
 2.7050	 2.6620
 2.7060	 2.6410
 2.7080	 2.6290
 2.7090	 2.5890
 2.7110	 2.5940
 2.7120	 2.6160
 2.7130	 2.6430
 2.7150	 2.6430
 2.7160	 2.6720
 2.7180	 2.6310
 2.7190	 2.6100
 2.7210	 2.5880
 2.7220	 2.5960
 2.7230	 2.6270
 2.7250	 2.6420
 2.7260	 2.5420
 2.7280	 2.5600
 2.7290	 2.5360
 2.7310	 2.5570
 2.7320	 2.5260
 2.7330	 2.5110
 2.7350	 2.5210
 2.7360	 2.5470
 2.7380	 2.5220
 2.7390	 2.5350
 2.7410	 2.5120
 2.7420	 2.5480
 2.7440	 2.5150
 2.7450	 2.4770
 2.7470	 2.4380
 2.7480	 2.4610
 2.7490	 2.4290
 2.7510	 2.3980
 2.7520	 2.4150
 2.7540	 2.4390
 2.7550	 2.3720
 2.7570	 2.3790
 2.7580	 2.3890
 2.7600	 2.3630
 2.7610	 2.3070
 2.7630	 2.3600
 2.7640	 2.3320
 2.7660	 2.3010
 2.7670	 2.2820
 2.7680	 2.3220
 2.7700	 2.3000
 2.7710	 2.3330
 2.7730	 2.3410
 2.7740	 2.3280
 2.7760	 2.2580
 2.7770	 2.2660
 2.7790	 2.2540
 2.7800	 2.2940
 2.7820	 2.2590
 2.7830	 2.2520
 2.7850	 2.2540
 2.7860	 2.2680
 2.7880	 2.2450
 2.7890	 2.2980
 2.7910	 2.3300
 2.7920	 2.3340
 2.7940	 2.2760
 2.7950	 2.2670
 2.7970	 2.2370
 2.7980	 2.3020
 2.8000	 2.2510
 2.8010	 2.2260
 2.8030	 2.2320
 2.8040	 2.2670
 2.8060	 2.2570
 2.8070	 2.2650
 2.8090	 2.2530
 2.8110	 2.2640
 2.8120	 2.2570
 2.8140	 2.2710
 2.8150	 2.2500
 2.8170	 2.2560
 2.8180	 2.2580
 2.8200	 2.2940
 2.8210	 2.2050
 2.8230	 2.1670
 2.8240	 2.1790
 2.8260	 2.1990
 2.8270	 2.1720
 2.8290	 2.1690
 2.8300	 2.1600
 2.8320	 2.2010
 2.8340	 2.2080
 2.8350	 2.2220
 2.8370	 2.2280
 2.8380	 2.2250
 2.8400	 2.1680
 2.8410	 2.2050
 2.8430	 2.1810
 2.8440	 2.1790
 2.8460	 2.1810
 2.8480	 2.2040
 2.8490	 2.1420
 2.8510	 2.1110
 2.8520	 2.1210
 2.8540	 2.1760
 2.8550	 2.1920
 2.8570	 2.1780
 2.8590	 2.1430
 2.8600	 2.1880
 2.8620	 2.1850
 2.8630	 2.1910
 2.8650	 2.1500
 2.8660	 2.1600
 2.8680	 2.1420
 2.8700	 2.1520
 2.8710	 2.1590
 2.8730	 2.1490
 2.8740	 2.1270
 2.8760	 2.1330
 2.8780	 2.1440
 2.8790	 2.1870
 2.8810	 2.1280
 2.8820	 2.1300
 2.8840	 2.1350
 2.8860	 2.1450
 2.8870	 2.1200
 2.8890	 2.1540
 2.8900	 2.1330
 2.8920	 2.1450
 2.8940	 2.1470
 2.8950	 2.1520
 2.8970	 2.1630
 2.8980	 2.2180
 2.9000	 2.2030
 2.9020	 2.1960
 2.9030	 2.1970
 2.9050	 2.2160
 2.9070	 2.1660
 2.9080	 2.1890
 2.9100	 2.2050
 2.9120	 2.2220
 2.9130	 2.2170
 2.9150	 2.2340
 2.9160	 2.2400
 2.9180	 2.2490
 2.9200	 2.2210
 2.9210	 2.2040
 2.9230	 2.2130
 2.9250	 2.2730
 2.9260	 2.2310
 2.9280	 2.2340
 2.9300	 2.2230
 2.9310	 2.2430
 2.9330	 2.2730
 2.9350	 2.2700
 2.9360	 2.1990
 2.9380	 2.2090
 2.9400	 2.1910
 2.9410	 2.2650
 2.9430	 2.3200
 2.9450	 2.2990
 2.9460	 2.2260
 2.9480	 2.2140
 2.9500	 2.2300
 2.9510	 2.2730
 2.9530	 2.2400
 2.9550	 2.2580
 2.9560	 2.2600
 2.9580	 2.2740
 2.9600	 2.2700
 2.9610	 2.3090
 2.9630	 2.2800
 2.9650	 2.3010
 2.9660	 2.3170
 2.9680	 2.3390
 2.9700	 2.2820
 2.9720	 2.2700
 2.9730	 2.2880
 2.9750	 2.3260
 2.9770	 2.3260
 2.9780	 2.3410
 2.9800	 2.3160
 2.9820	 2.3180
 2.9840	 2.3210
 2.9850	 2.3650
 2.9870	 2.3610
 2.9890	 2.3900
 2.9900	 2.4150
 2.9920	 2.4080
 2.9940	 2.3110
 2.9960	 2.3580
 2.9970	 2.3810
 2.9990	 2.3700
 3.0010	 2.3540
 3.0030	 2.4150
 3.0040	 2.4340
 3.0060	 2.4360
 3.0080	 2.4330
 3.0100	 2.4400
 3.0110	 2.4150
 3.0130	 2.4650
 3.0150	 2.4420
 3.0170	 2.4230
 3.0180	 2.3850
 3.0200	 2.4350
 3.0220	 2.4570
 3.0240	 2.4790
 3.0250	 2.4840
 3.0270	 2.5170
 3.0290	 2.4640
 3.0310	 2.4790
 3.0320	 2.4740
 3.0340	 2.4970
 3.0360	 2.4980
 3.0380	 2.4860
 3.0400	 2.4710
 3.0410	 2.5180
 3.0430	 2.4970
 3.0450	 2.4780
 3.0470	 2.4680
 3.0480	 2.5170
 3.0500	 2.5480
 3.0520	 2.5990
 3.0540	 2.6230
 3.0560	 2.6360
 3.0570	 2.6010
 3.0590	 2.6290
 3.0610	 2.6050
 3.0630	 2.6260
 3.0650	 2.5620
 3.0660	 2.5460
 3.0680	 2.5550
 3.0700	 2.5650
 3.0720	 2.5850
 3.0740	 2.6770
 3.0760	 2.7150
 3.0770	 2.6730
 3.0790	 2.5700
 3.0810	 2.6130
 3.0830	 2.6480
 3.0850	 2.6670
 3.0870	 2.7060
 3.0880	 2.7460
 3.0900	 2.7070
 3.0920	 2.6950
 3.0940	 2.6820
 3.0960	 2.7270
 3.0980	 2.7410
 3.0990	 2.7070
 3.1010	 2.6250
 3.1030	 2.6940
 3.1050	 2.7260
 3.1070	 2.7130
 3.1090	 2.7480
 3.1110	 2.7910
 3.1120	 2.7590
 3.1140	 2.7890
 3.1160	 2.7520
 3.1180	 2.7300
 3.1200	 2.7210
 3.1220	 2.8070
 3.1240	 2.8300
 3.1260	 2.8190
 3.1270	 2.7710
 3.1290	 2.7940
 3.1310	 2.7650
 3.1330	 2.7740
 3.1350	 2.8200
 3.1370	 2.8540
 3.1390	 2.8600
 3.1410	 2.9080
 3.1430	 2.9010
 3.1450	 2.8950
 3.1460	 2.8180
 3.1480	 2.8370
 3.1500	 2.8530
 3.1520	 2.8970
 3.1540	 2.8900
 3.1560	 2.8860
 3.1580	 2.8610
 3.1600	 2.8980
 3.1620	 2.8840
 3.1640	 2.8810
 3.1660	 2.8950
 3.1680	 2.9310
 3.1700	 2.8890
 3.1710	 2.8830
 3.1730	 2.8830
 3.1750	 2.9390
 3.1770	 2.9270
 3.1790	 2.9420
 3.1810	 2.9780
 3.1830	 2.9970
 3.1850	 2.9460
 3.1870	 3.0010
 3.1890	 3.0140
 3.1910	 2.9810
 3.1930	 3.0140
 3.1950	 3.0710
 3.1970	 3.0520
 3.1990	 3.0440
 3.2010	 3.0240
 3.2030	 3.0340
 3.2050	 2.9870
 3.2070	 2.9770
 3.2090	 2.9970
 3.2110	 3.0640
 3.2130	 3.0290
 3.2150	 3.0390
 3.2170	 3.0690
 3.2190	 3.0940
 3.2210	 3.0550
 3.2230	 3.0480
 3.2250	 3.0930
 3.2270	 3.1160
 3.2290	 3.0630
 3.2310	 3.0840
 3.2330	 3.1000
 3.2350	 3.1020
 3.2370	 3.0790
 3.2390	 3.1070
 3.2410	 3.0970
 3.2430	 3.1180
 3.2450	 3.1030
 3.2470	 3.0850
 3.2490	 3.1020
 3.2510	 3.1730
 3.2530	 3.1780
 3.2550	 3.2080
 3.2570	 3.1760
 3.2590	 3.1400
 3.2610	 3.1110
 3.2630	 3.1610
 3.2650	 3.2000
 3.2670	 3.1960
 3.2690	 3.1400
 3.2720	 3.1480
 3.2740	 3.1850
 3.2760	 3.2230
 3.2780	 3.2130
 3.2800	 3.2160
 3.2820	 3.1900
 3.2840	 3.1820
 3.2860	 3.1250
 3.2880	 3.1650
 3.2900	 3.2140
 3.2920	 3.2490
 3.2940	 3.1890
 3.2960	 3.1250
 3.2990	 3.0990
 3.3010	 3.1770
 3.3030	 3.2130
 3.3050	 3.2160
 3.3070	 3.1810
 3.3090	 3.2210
 3.3110	 3.1970
 3.3130	 3.1980
 3.3150	 3.2020
 3.3180	 3.1630
 3.3200	 3.1580
 3.3220	 3.2070
 3.3240	 3.1880
 3.3260	 3.1700
 3.3280	 3.1410
 3.3300	 3.1760
 3.3330	 3.1840
 3.3350	 3.1730
 3.3370	 3.1120
 3.3390	 3.0990
 3.3410	 3.0500
 3.3430	 3.0820
 3.3450	 3.0740
 3.3480	 3.0470
 3.3500	 3.0250
 3.3520	 3.0520
 3.3540	 3.0340
 3.3560	 3.0150
 3.3580	 2.9870
 3.3610	 2.9860
 3.3630	 2.9820
 3.3650	 2.9650
 3.3670	 2.9220
 3.3690	 2.9270
 3.3720	 2.9560
 3.3740	 3.0310
 3.3760	 2.9860
 3.3780	 3.0070
 3.3800	 3.0230
 3.3830	 3.0290
 3.3850	 2.9930
 3.3870	 2.9790
 3.3890	 2.9360
 3.3910	 2.8770
 3.3940	 2.8230
 3.3960	 2.8720
 3.3980	 2.9160
 3.4000	 2.9390
 3.4020	 2.9620
 3.4050	 3.0440
 3.4070	 3.0800
 3.4090	 3.1540
 3.4110	 3.2230
 3.4140	 3.3750
 3.4160	 3.5590
 3.4180	 3.8200
 3.4200	 4.0860
 3.4230	 4.4680
 3.4250	 4.8850
 3.4270	 5.2680
 3.4290	 5.4360
 3.4320	 5.3020
 3.4340	 4.8940
 3.4360	 4.4720
 3.4390	 4.1620
 3.4410	 4.0560
 3.4430	 3.9460
 3.4450	 3.8710
 3.4480	 3.8810
 3.4500	 3.9170
 3.4520	 3.8740
 3.4550	 3.9060
 3.4570	 3.8580
 3.4590	 3.8200
 3.4620	 3.7900
 3.4640	 3.7830
 3.4660	 3.7440
 3.4680	 3.7310
 3.4710	 3.7080
 3.4730	 3.7100
 3.4750	 3.6320
 3.4780	 3.5800
 3.4800	 3.5100
 3.4820	 3.5090
 3.4850	 3.5220
 3.4870	 3.5710
 3.4890	 3.5640
 3.4920	 3.5650
 3.4940	 3.5240
 3.4970	 3.5900
 3.4990	 3.6380
 3.5010	 3.7200
 3.5040	 3.8910
 3.5060	 4.3020
 3.5080	 4.9020
 3.5110	 5.4700
 3.5130	 5.4170
 3.5160	 4.9900
 3.5180	 4.6050
 3.5200	 4.4330
 3.5230	 4.2970
 3.5250	 4.2050
 3.5270	 4.1460
 3.5300	 4.1380
 3.5320	 4.1090
 3.5350	 4.1110
 3.5370	 4.0970
 3.5400	 4.0980
 3.5420	 4.0450
 3.5440	 4.0580
 3.5470	 4.0790
 3.5490	 4.0940
 3.5520	 4.0290
 3.5540	 4.0290
 3.5570	 4.0590
 3.5590	 4.0680
 3.5610	 4.0230
 3.5640	 4.0390
 3.5660	 4.0170
 3.5690	 4.0230
 3.5710	 4.0350
 3.5740	 4.0900
 3.5760	 4.0670
 3.5790	 4.0320
 3.5810	 4.0160
 3.5840	 4.0390
 3.5860	 4.0680
 3.5890	 4.0910
 3.5910	 4.0730
 3.5930	 4.0520
 3.5960	 4.0390
 3.5980	 4.0530
 3.6010	 4.0370
 3.6030	 4.0640
 3.6060	 4.0290
 3.6080	 4.0320
 3.6110	 4.0160
 3.6140	 4.0150
 3.6160	 4.0090
 3.6190	 4.0030
 3.6210	 4.0520
 3.6240	 4.0870
 3.6260	 4.0440
 3.6290	 4.0740
 3.6310	 4.0840
 3.6340	 4.1090
 3.6360	 4.0430
 3.6390	 4.0120
 3.6410	 4.0480
 3.6440	 4.0970
 3.6470	 4.1030
 3.6490	 4.0790
 3.6520	 4.0470
 3.6540	 4.0510
 3.6570	 4.0350
 3.6590	 4.0960
 3.6620	 4.1060
 3.6650	 4.1040
 3.6670	 4.0950
 3.6700	 4.1220
 3.6720	 4.0920
 3.6750	 4.0940
 3.6780	 4.0910
 3.6800	 4.0940
 3.6830	 4.0880
 3.6850	 4.1360
 3.6880	 4.1200
 3.6910	 4.1080
 3.6930	 4.1310
 3.6960	 4.1340
 3.6990	 4.0800
 3.7010	 4.0920
 3.7040	 4.1220
 3.7060	 4.1270
 3.7090	 4.1350
 3.7120	 4.1630
 3.7140	 4.1360
 3.7170	 4.1730
 3.7200	 4.1580
 3.7220	 4.1150
 3.7250	 4.1040
 3.7280	 4.1480
 3.7300	 4.1640
 3.7330	 4.2030
 3.7360	 4.1640
 3.7390	 4.1710
 3.7410	 4.1700
 3.7440	 4.1870
 3.7470	 4.2040
 3.7490	 4.2150
 3.7520	 4.1560
 3.7550	 4.1740
 3.7580	 4.1550
 3.7600	 4.1360
 3.7630	 4.1510
 3.7660	 4.2340
 3.7680	 4.2730
 3.7710	 4.2720
 3.7740	 4.2280
 3.7770	 4.2320
 3.7790	 4.2120
 3.7820	 4.2220
 3.7850	 4.2170
 3.7880	 4.2730
 3.7900	 4.2930
 3.7930	 4.2940
 3.7960	 4.2440
 3.7990	 4.1790
 3.8020	 4.1230
 3.8040	 4.2540
 3.8070	 4.3440
 3.8100	 4.3410
 3.8130	 4.2830
 3.8160	 4.2860
 3.8180	 4.2920
 3.8210	 4.2950
 3.8240	 4.2990
 3.8270	 4.3240
 3.8300	 4.3170
 3.8330	 4.3390
 3.8350	 4.3110
 3.8380	 4.3090
 3.8410	 4.3420
 3.8440	 4.3600
 3.8470	 4.3320
 3.8500	 4.3650
 3.8520	 4.3450
 3.8550	 4.3440
 3.8580	 4.3330
 3.8610	 4.3520
 3.8640	 4.3750
 3.8670	 4.3910
 3.8700	 4.3810
 3.8730	 4.3710
 3.8750	 4.3670
 3.8780	 4.3720
 3.8810	 4.3750
 3.8840	 4.3890
 3.8870	 4.3860
 3.8900	 4.3690
 3.8930	 4.3490
 3.8960	 4.3220
 3.8990	 4.3190
 3.9020	 4.4010
 3.9050	 4.4080
 3.9080	 4.3990
 3.9110	 4.4050
 3.9140	 4.4030
 3.9160	 4.3660
 3.9190	 4.4110
 3.9220	 4.4550
 3.9250	 4.4280
 3.9280	 4.3840
 3.9310	 4.4060
 3.9340	 4.3480
 3.9370	 4.3560
 3.9400	 4.4070
 3.9430	 4.4070
 3.9460	 4.4470
 3.9490	 4.4950
 3.9520	 4.4360
 3.9550	 4.4300
 3.9580	 4.4300
 3.9610	 4.4430
 3.9640	 4.4350
 3.9670	 4.3850
 3.9700	 4.3940
 3.9730	 4.4630
 3.9770	 4.4830
 3.9800	 4.4820
 3.9830	 4.4900
 3.9860	 4.4850
 3.9890	 4.4210
 3.9920	 4.4720
 3.9950	 4.5100
 3.9980	 4.4950
 4.0010	 4.4750
 4.0040	 4.4810
 4.0070	 4.4670
 4.0100	 4.4800
 4.0130	 4.4780
 4.0170	 4.4980
 4.0200	 4.5320
 4.0230	 4.5430
 4.0260	 4.5200
 4.0290	 4.5390
 4.0320	 4.5580
 4.0350	 4.5630
 4.0380	 4.5500
 4.0420	 4.5340
 4.0450	 4.4960
 4.0480	 4.4760
 4.0510	 4.4870
 4.0540	 4.5170
 4.0570	 4.5370
 4.0610	 4.5620
 4.0640	 4.5340
 4.0670	 4.5340
 4.0700	 4.5320
 4.0730	 4.5790
 4.0770	 4.5780
 4.0800	 4.5720
 4.0830	 4.6150
 4.0860	 4.6380
 4.0890	 4.6230
 4.0930	 4.6100
 4.0960	 4.5860
 4.0990	 4.5580
 4.1020	 4.5070
 4.1060	 4.5110
 4.1090	 4.5410
 4.1120	 4.5600
 4.1150	 4.5560
 4.1190	 4.5440
 4.1220	 4.5710
 4.1250	 4.6010
 4.1280	 4.5550
 4.1320	 4.5710
 4.1350	 4.5760
 4.1380	 4.5630
 4.1420	 4.5230
 4.1450	 4.5780
 4.1480	 4.6050
 4.1520	 4.6200
 4.1550	 4.6520
 4.1580	 4.6610
 4.1620	 4.6280
 4.1650	 4.6360
 4.1680	 4.6580
 4.1720	 4.6890
 4.1750	 4.6310
 4.1780	 4.6180
 4.1820	 4.6210
 4.1850	 4.6250
 4.1890	 4.6030
 4.1920	 4.5790
 4.1950	 4.4830
 4.1990	 4.3540
 4.2020	 4.1420
 4.2060	 3.8540
 4.2090	 3.5460
 4.2120	 3.2790
 4.2160	 2.9650
 4.2190	 2.7330
 4.2230	 2.5660
 4.2260	 2.3980
 4.2300	 2.2510
 4.2330	 2.2010
 4.2360	 2.1930
 4.2400	 2.1940
 4.2430	 2.2710
 4.2470	 2.4630
 4.2500	 2.7330
 4.2540	 3.1460
 4.2570	 3.4680
 4.2610	 3.2500
 4.2640	 2.8740
 4.2680	 2.7110
 4.2710	 2.5850
 4.2750	 2.5710
 4.2780	 2.6610
 4.2820	 2.7100
 4.2850	 2.7170
 4.2890	 2.7220
 4.2930	 2.7590
 4.2960	 2.8670
 4.3000	 2.9710
 4.3030	 2.9920
 4.3070	 3.0570
 4.3100	 3.2680
 4.3140	 3.4220
 4.3180	 3.5420
 4.3210	 3.6700
 4.3250	 3.8110
 4.3280	 3.9030
 4.3320	 4.0240
 4.3360	 4.1050
 4.3390	 4.1770
 4.3430	 4.2190
 4.3470	 4.2630
 4.3500	 4.3040
 4.3540	 4.3360
 4.3570	 4.3670
 4.3610	 4.4120
 4.3650	 4.4310
 4.3680	 4.4540
 4.3720	 4.4440
 4.3760	 4.4880
 4.3800	 4.5590
 4.3830	 4.5420
 4.3870	 4.4890
 4.3910	 4.5220
 4.3940	 4.5370
 4.3980	 4.5040
 4.4020	 4.4550
 4.4060	 4.4070
 4.4090	 4.4160
 4.4130	 4.4510
 4.4170	 4.4710
 4.4210	 4.4820
 4.4240	 4.4560
 4.4280	 4.4430
 4.4320	 4.4550
 4.4360	 4.4470
 4.4400	 4.4400
 4.4430	 4.4560
 4.4470	 4.4680
 4.4510	 4.4900
 4.4550	 4.4770
 4.4590	 4.4760
 4.4620	 4.4530
 4.4660	 4.4660
 4.4700	 4.5210
 4.4740	 4.5150
 4.4780	 4.4910
 4.4820	 4.4820
 4.4860	 4.4600
 4.4900	 4.4720
 4.4930	 4.4790
 4.4970	 4.5300
 4.5010	 4.5560
 4.5050	 4.5400
 4.5090	 4.5300
 4.5130	 4.5000
 4.5170	 4.4850
 4.5210	 4.5120
 4.5250	 4.5280
 4.5290	 4.5580
 4.5330	 4.5350
 4.5370	 4.4860
 4.5410	 4.5520
 4.5450	 4.5770
 4.5490	 4.5090
 4.5530	 4.5120
 4.5570	 4.5090
 4.5610	 4.4910
 4.5650	 4.4760
 4.5690	 4.5340
 4.5730	 4.5950
 4.5770	 4.5930
 4.5810	 4.5640
 4.5850	 4.5600
 4.5890	 4.5350
 4.5930	 4.5150
 4.5970	 4.4720
 4.6010	 4.4650
 4.6050	 4.5180
 4.6090	 4.5410
 4.6130	 4.5450
 4.6170	 4.5810
 4.6220	 4.5990
 4.6260	 4.5530
 4.6300	 4.5210
 4.6340	 4.5360
 4.6380	 4.5600
 4.6420	 4.5400
 4.6460	 4.4980
 4.6510	 4.5010
 4.6550	 4.5290
 4.6590	 4.5050
 4.6630	 4.5040
 4.6670	 4.5040
 4.6720	 4.4940
 4.6760	 4.5120
 4.6800	 4.5310
 4.6840	 4.5390
 4.6880	 4.5160
 4.6930	 4.5000
 4.6970	 4.4910
 4.7010	 4.5320
 4.7050	 4.5720
 4.7100	 4.5480
 4.7140	 4.5040
 4.7180	 4.5160
 4.7230	 4.5050
 4.7270	 4.4910
 4.7310	 4.4840
 4.7360	 4.4580
 4.7400	 4.4850
 4.7440	 4.5270
 4.7490	 4.5400
 4.7530	 4.5150
 4.7570	 4.4970
 4.7620	 4.4940
 4.7660	 4.5210
 4.7700	 4.5030
 4.7750	 4.4280
 4.7790	 4.4180
 4.7840	 4.4520
 4.7880	 4.4700
 4.7920	 4.5170
 4.7970	 4.5340
 4.8010	 4.5200
 4.8060	 4.4990
 4.8100	 4.4830
 4.8150	 4.5040
 4.8190	 4.4790
 4.8240	 4.4530
 4.8280	 4.4650
 4.8330	 4.4430
 4.8370	 4.5040
 4.8420	 4.5120
 4.8460	 4.4710
 4.8510	 4.4960
 4.8550	 4.5180
 4.8600	 4.4770
 4.8640	 4.4790
 4.8690	 4.4660
 4.8730	 4.3980
 4.8780	 4.3880
 4.8830	 4.4480
 4.8870	 4.4310
 4.8920	 4.4130
 4.8960	 4.4040
 4.9010	 4.4070
 4.9060	 4.4190
 4.9100	 4.4390
 4.9150	 4.4050
 4.9200	 4.3710
 4.9240	 4.3760
 4.9290	 4.4350
 4.9340	 4.4570
 4.9380	 4.4370
 4.9430	 4.3680
 4.9480	 4.3790
 4.9530	 4.3790
 4.9570	 4.3950
 4.9620	 4.4410
 4.9670	 4.4530
 4.9720	 4.4170
 4.9760	 4.4300
 4.9810	 4.4310
 4.9860	 4.3910
 4.9910	 4.3600
 4.9960	 4.3860
 5.0000	 4.3960
 5.0050	 4.3710
 5.0100	 4.3620
 5.0150	 4.3960
 5.0200	 4.4110
 5.0250	 4.4430
 5.0290	 4.4220
 5.0340	 4.3850
 5.0390	 4.3710
 5.0440	 4.3950
 5.0490	 4.4100
 5.0540	 4.4290
 5.0590	 4.4220
 5.0640	 4.4300
 5.0690	 4.4050
 5.0740	 4.4110
 5.0790	 4.3690
 5.0840	 4.3410
 5.0890	 4.3200
 5.0940	 4.3400
 5.0990	 4.3770
 5.1040	 4.3860
 5.1090	 4.3940
 5.1140	 4.4220
 5.1190	 4.3990
 5.1240	 4.3780
 5.1290	 4.3720
 5.1340	 4.3950
 5.1390	 4.4200
 5.1440	 4.4150
 5.1490	 4.4120
 5.1540	 4.4320
 5.1600	 4.4280
 5.1650	 4.4150
 5.1700	 4.4230
 5.1750	 4.4400
 5.1800	 4.4130
 5.1850	 4.3960
 5.1910	 4.4000
 5.1960	 4.4370
 5.2010	 4.4160
 5.2060	 4.4010
 5.2110	 4.4130
 5.2170	 4.4470
 5.2220	 4.4370
 5.2270	 4.4240
 5.2320	 4.4140
 5.2380	 4.4190
 5.2430	 4.3800
 5.2480	 4.3980
 5.2540	 4.4310
 5.2590	 4.4570
 5.2640	 4.4220
 5.2700	 4.4010
 5.2750	 4.4100
 5.2800	 4.4520
 5.2860	 4.4330
 5.2910	 4.4200
 5.2970	 4.4340
 5.3020	 4.4280
 5.3070	 4.3870
 5.3130	 4.3950
 5.3180	 4.3800
 5.3240	 4.3980
 5.3290	 4.3990
 5.3350	 4.3910
 5.3400	 4.3980
 5.3460	 4.4360
 5.3510	 4.3920
 5.3570	 4.3920
 5.3620	 4.4160
 5.3680	 4.4530
 5.3730	 4.4060
 5.3790	 4.3880
 5.3850	 4.4380
 5.3900	 4.4290
 5.3960	 4.3780
 5.4010	 4.4160
 5.4070	 4.4410
 5.4130	 4.4630
 5.4180	 4.3800
 5.4240	 4.3660
 5.4300	 4.4250
 5.4350	 4.4110
