Name: Salvia leucophylla 2
Type: vegetation
Class: Shrub
Genus: Salvia
Species: leucophylla
Sample No.: VH094
Owner: UCSB
Wavelength Range: VSWIR
Origin: 34.698; -120.0477; WGS84
Collection Date: 4/21/2013
Description: Samples were collected as part of the HyspIRI Airborne Campaign. 48 individual plants were sampled in three times in 2013 - spring  summer  and fall. The name of the sample includes a 1  2  or 3 which references a different individual of the species. Samples were taken to JPL and processed within 48 hours of collection. The same leaves were processed in the Nicolet and then measured using the ASD.
Measurement: Bidirectional reflectance
First Column: X
Second Column: Y
X Units: Wavelength (micrometers)
Y Units: Reflectance (percentage)
First X Value: 0.35
Last X Value: 2.5
Number of X Values: 2151
Additional Information: vegetation.shrub.salvia.leucophylla.vswir.vh094.ucsb.asd.ancillary.txt

 0.3500	 4.3880
 0.3510	 4.2690
 0.3520	 4.2280
 0.3530	 4.1830
 0.3540	 4.0800
 0.3550	 4.1670
 0.3560	 4.2220
 0.3570	 4.2300
 0.3580	 4.2670
 0.3590	 4.2360
 0.3600	 4.2040
 0.3610	 4.2380
 0.3620	 4.3940
 0.3630	 4.5000
 0.3640	 4.5410
 0.3650	 4.5660
 0.3660	 4.6830
 0.3670	 4.7360
 0.3680	 4.7850
 0.3690	 5.0070
 0.3700	 5.0650
 0.3710	 5.1410
 0.3720	 5.3300
 0.3730	 5.4440
 0.3740	 5.5870
 0.3750	 5.7460
 0.3760	 5.8900
 0.3770	 6.0770
 0.3780	 6.2400
 0.3790	 6.3730
 0.3800	 6.5230
 0.3810	 6.7020
 0.3820	 6.9410
 0.3830	 7.2110
 0.3840	 7.3560
 0.3850	 7.4890
 0.3860	 7.6600
 0.3870	 7.8770
 0.3880	 8.0370
 0.3890	 8.2420
 0.3900	 8.4840
 0.3910	 8.6260
 0.3920	 8.8190
 0.3930	 9.0390
 0.3940	 9.2330
 0.3950	 9.3590
 0.3960	 9.4770
 0.3970	 9.6100
 0.3980	 9.7620
 0.3990	 9.9530
 0.4000	10.1300
 0.4010	10.2660
 0.4020	10.3690
 0.4030	10.5040
 0.4040	10.6560
 0.4050	10.8030
 0.4060	10.9700
 0.4070	11.1160
 0.4080	11.2310
 0.4090	11.3310
 0.4100	11.4620
 0.4110	11.6000
 0.4120	11.7340
 0.4130	11.8920
 0.4140	12.0200
 0.4150	12.1370
 0.4160	12.2720
 0.4170	12.3970
 0.4180	12.5220
 0.4190	12.6490
 0.4200	12.7740
 0.4210	12.9150
 0.4220	13.0530
 0.4230	13.1800
 0.4240	13.3150
 0.4250	13.4420
 0.4260	13.5600
 0.4270	13.6760
 0.4280	13.7890
 0.4290	13.9060
 0.4300	14.0240
 0.4310	14.1320
 0.4320	14.2530
 0.4330	14.3720
 0.4340	14.4760
 0.4350	14.5660
 0.4360	14.6540
 0.4370	14.7390
 0.4380	14.8090
 0.4390	14.8900
 0.4400	14.9720
 0.4410	15.0430
 0.4420	15.1000
 0.4430	15.1690
 0.4440	15.2420
 0.4450	15.3020
 0.4460	15.3690
 0.4470	15.4210
 0.4480	15.4590
 0.4490	15.5120
 0.4500	15.5640
 0.4510	15.6070
 0.4520	15.6440
 0.4530	15.7000
 0.4540	15.7440
 0.4550	15.7760
 0.4560	15.8170
 0.4570	15.8500
 0.4580	15.8790
 0.4590	15.9100
 0.4600	15.9420
 0.4610	15.9660
 0.4620	15.9960
 0.4630	16.0410
 0.4640	16.0480
 0.4650	16.0570
 0.4660	16.0820
 0.4670	16.1070
 0.4680	16.1240
 0.4690	16.1330
 0.4700	16.1420
 0.4710	16.1690
 0.4720	16.1880
 0.4730	16.1980
 0.4740	16.2120
 0.4750	16.2210
 0.4760	16.2370
 0.4770	16.2610
 0.4780	16.2710
 0.4790	16.2800
 0.4800	16.2950
 0.4810	16.3180
 0.4820	16.3260
 0.4830	16.3310
 0.4840	16.3400
 0.4850	16.3570
 0.4860	16.3830
 0.4870	16.4070
 0.4880	16.4190
 0.4890	16.4300
 0.4900	16.4400
 0.4910	16.4530
 0.4920	16.4730
 0.4930	16.4930
 0.4940	16.5150
 0.4950	16.5400
 0.4960	16.5660
 0.4970	16.5920
 0.4980	16.6230
 0.4990	16.6610
 0.5000	16.6850
 0.5010	16.7180
 0.5020	16.7600
 0.5030	16.7960
 0.5040	16.8400
 0.5050	16.8910
 0.5060	16.9450
 0.5070	16.9970
 0.5080	17.0630
 0.5090	17.1400
 0.5100	17.2140
 0.5110	17.2880
 0.5120	17.3710
 0.5130	17.4710
 0.5140	17.5830
 0.5150	17.7020
 0.5160	17.8250
 0.5170	17.9510
 0.5180	18.0820
 0.5190	18.2210
 0.5200	18.3690
 0.5210	18.5290
 0.5220	18.6890
 0.5230	18.8520
 0.5240	19.0170
 0.5250	19.1810
 0.5260	19.3440
 0.5270	19.5060
 0.5280	19.6620
 0.5290	19.8150
 0.5300	19.9610
 0.5310	20.1000
 0.5320	20.2390
 0.5330	20.3640
 0.5340	20.4840
 0.5350	20.6050
 0.5360	20.7190
 0.5370	20.8260
 0.5380	20.9270
 0.5390	21.0220
 0.5400	21.1190
 0.5410	21.2200
 0.5420	21.3200
 0.5430	21.4070
 0.5440	21.4890
 0.5450	21.5630
 0.5460	21.6250
 0.5470	21.6690
 0.5480	21.7120
 0.5490	21.7590
 0.5500	21.8080
 0.5510	21.8540
 0.5520	21.8900
 0.5530	21.9110
 0.5540	21.9230
 0.5550	21.9290
 0.5560	21.9270
 0.5570	21.9130
 0.5580	21.8920
 0.5590	21.8630
 0.5600	21.8250
 0.5610	21.7770
 0.5620	21.7200
 0.5630	21.6580
 0.5640	21.5930
 0.5650	21.5250
 0.5660	21.4540
 0.5670	21.3790
 0.5680	21.3030
 0.5690	21.2150
 0.5700	21.1250
 0.5710	21.0400
 0.5720	20.9560
 0.5730	20.8680
 0.5740	20.7790
 0.5750	20.6920
 0.5760	20.6180
 0.5770	20.5520
 0.5780	20.4910
 0.5790	20.4380
 0.5800	20.3820
 0.5810	20.3250
 0.5820	20.2720
 0.5830	20.2270
 0.5840	20.1940
 0.5850	20.1680
 0.5860	20.1280
 0.5870	20.0930
 0.5880	20.0610
 0.5890	20.0290
 0.5900	19.9970
 0.5910	19.9720
 0.5920	19.9530
 0.5930	19.9320
 0.5940	19.9140
 0.5950	19.9020
 0.5960	19.8980
 0.5970	19.8950
 0.5980	19.8920
 0.5990	19.8870
 0.6000	19.8790
 0.6010	19.8650
 0.6020	19.8440
 0.6030	19.8170
 0.6040	19.7860
 0.6050	19.7490
 0.6060	19.7030
 0.6070	19.6500
 0.6080	19.6000
 0.6090	19.5510
 0.6100	19.5100
 0.6110	19.4820
 0.6120	19.4230
 0.6130	19.3460
 0.6140	19.2660
 0.6150	19.2010
 0.6160	19.1480
 0.6170	19.0990
 0.6180	19.0480
 0.6190	19.0040
 0.6200	18.9740
 0.6210	18.9500
 0.6220	18.9170
 0.6230	18.8890
 0.6240	18.8670
 0.6250	18.8520
 0.6260	18.8440
 0.6270	18.8350
 0.6280	18.8250
 0.6290	18.8170
 0.6300	18.8130
 0.6310	18.8140
 0.6320	18.8120
 0.6330	18.7980
 0.6340	18.7800
 0.6350	18.7610
 0.6360	18.7400
 0.6370	18.7070
 0.6380	18.6740
 0.6390	18.6400
 0.6400	18.5950
 0.6410	18.5480
 0.6420	18.4940
 0.6430	18.4360
 0.6440	18.3830
 0.6450	18.3260
 0.6460	18.2680
 0.6470	18.2110
 0.6480	18.1600
 0.6490	18.1070
 0.6500	18.0550
 0.6510	18.0090
 0.6520	17.9610
 0.6530	17.9160
 0.6540	17.8770
 0.6550	17.8320
 0.6560	17.7840
 0.6570	17.7310
 0.6580	17.6720
 0.6590	17.6100
 0.6600	17.5500
 0.6610	17.4930
 0.6620	17.4370
 0.6630	17.3810
 0.6640	17.3310
 0.6650	17.2880
 0.6660	17.2450
 0.6670	17.2060
 0.6680	17.1750
 0.6690	17.1540
 0.6700	17.1380
 0.6710	17.1230
 0.6720	17.1130
 0.6730	17.1130
 0.6740	17.1120
 0.6750	17.1120
 0.6760	17.1200
 0.6770	17.1330
 0.6780	17.1470
 0.6790	17.1620
 0.6800	17.1810
 0.6810	17.2080
 0.6820	17.2420
 0.6830	17.2830
 0.6840	17.3420
 0.6850	17.4140
 0.6860	17.5050
 0.6870	17.6180
 0.6880	17.7560
 0.6890	17.9310
 0.6900	18.1480
 0.6910	18.4080
 0.6920	18.7100
 0.6930	19.0640
 0.6940	19.4770
 0.6950	19.9350
 0.6960	20.4450
 0.6970	21.0030
 0.6980	21.6040
 0.6990	22.2460
 0.7000	22.9260
 0.7010	23.6380
 0.7020	24.3720
 0.7030	25.1300
 0.7040	25.9070
 0.7050	26.6940
 0.7060	27.4840
 0.7070	28.2800
 0.7080	29.0800
 0.7090	29.8830
 0.7100	30.6840
 0.7110	31.4860
 0.7120	32.2880
 0.7130	33.0890
 0.7140	33.8820
 0.7150	34.6700
 0.7160	35.4590
 0.7170	36.2480
 0.7180	37.0230
 0.7190	37.7850
 0.7200	38.5410
 0.7210	39.2880
 0.7220	40.0180
 0.7230	40.7290
 0.7240	41.4240
 0.7250	42.0980
 0.7260	42.7510
 0.7270	43.3810
 0.7280	43.9900
 0.7290	44.5750
 0.7300	45.1390
 0.7310	45.6810
 0.7320	46.1930
 0.7330	46.6780
 0.7340	47.1410
 0.7350	47.5880
 0.7360	48.0100
 0.7370	48.4040
 0.7380	48.7760
 0.7390	49.1370
 0.7400	49.4790
 0.7410	49.8010
 0.7420	50.1030
 0.7430	50.3840
 0.7440	50.6530
 0.7450	50.9080
 0.7460	51.1410
 0.7470	51.3620
 0.7480	51.5710
 0.7490	51.7690
 0.7500	51.9590
 0.7510	52.1300
 0.7520	52.2870
 0.7530	52.4370
 0.7540	52.5740
 0.7550	52.7040
 0.7560	52.8290
 0.7570	52.9500
 0.7580	53.0610
 0.7590	53.1660
 0.7600	53.2670
 0.7610	53.3550
 0.7620	53.4400
 0.7630	53.5230
 0.7640	53.6020
 0.7650	53.6780
 0.7660	53.7540
 0.7670	53.8260
 0.7680	53.8850
 0.7690	53.9570
 0.7700	54.0200
 0.7710	54.0690
 0.7720	54.1380
 0.7730	54.1900
 0.7740	54.2400
 0.7750	54.3020
 0.7760	54.3560
 0.7770	54.4050
 0.7780	54.4530
 0.7790	54.5040
 0.7800	54.5580
 0.7810	54.6050
 0.7820	54.6480
 0.7830	54.6970
 0.7840	54.7450
 0.7850	54.7940
 0.7860	54.8420
 0.7870	54.8840
 0.7880	54.9230
 0.7890	54.9620
 0.7900	55.0020
 0.7910	55.0440
 0.7920	55.0820
 0.7930	55.1180
 0.7940	55.1610
 0.7950	55.2040
 0.7960	55.2380
 0.7970	55.2660
 0.7980	55.3070
 0.7990	55.3390
 0.8000	55.3650
 0.8010	55.3950
 0.8020	55.4330
 0.8030	55.4590
 0.8040	55.4800
 0.8050	55.5150
 0.8060	55.5380
 0.8070	55.5670
 0.8080	55.6010
 0.8090	55.6200
 0.8100	55.6370
 0.8110	55.6560
 0.8120	55.6800
 0.8130	55.7110
 0.8140	55.7370
 0.8150	55.7550
 0.8160	55.7680
 0.8170	55.7890
 0.8180	55.8050
 0.8190	55.8170
 0.8200	55.8320
 0.8210	55.8550
 0.8220	55.8730
 0.8230	55.8850
 0.8240	55.9040
 0.8250	55.9130
 0.8260	55.9250
 0.8270	55.9440
 0.8280	55.9600
 0.8290	55.9710
 0.8300	55.9780
 0.8310	55.9840
 0.8320	55.9940
 0.8330	56.0050
 0.8340	56.0170
 0.8350	56.0310
 0.8360	56.0470
 0.8370	56.0620
 0.8380	56.0780
 0.8390	56.0980
 0.8400	56.1140
 0.8410	56.1260
 0.8420	56.1360
 0.8430	56.1560
 0.8440	56.1710
 0.8450	56.1850
 0.8460	56.2040
 0.8470	56.2310
 0.8480	56.2590
 0.8490	56.2820
 0.8500	56.2960
 0.8510	56.3060
 0.8520	56.3220
 0.8530	56.3470
 0.8540	56.3760
 0.8550	56.3940
 0.8560	56.4150
 0.8570	56.4410
 0.8580	56.4640
 0.8590	56.4760
 0.8600	56.4940
 0.8610	56.5220
 0.8620	56.5450
 0.8630	56.5700
 0.8640	56.5950
 0.8650	56.6190
 0.8660	56.6430
 0.8670	56.6690
 0.8680	56.6980
 0.8690	56.7260
 0.8700	56.7520
 0.8710	56.7710
 0.8720	56.7900
 0.8730	56.8180
 0.8740	56.8440
 0.8750	56.8750
 0.8760	56.9080
 0.8770	56.9280
 0.8780	56.9570
 0.8790	56.9900
 0.8800	57.0200
 0.8810	57.0430
 0.8820	57.0700
 0.8830	57.0990
 0.8840	57.1240
 0.8850	57.1530
 0.8860	57.1840
 0.8870	57.2170
 0.8880	57.2480
 0.8890	57.2740
 0.8900	57.3000
 0.8910	57.3280
 0.8920	57.3580
 0.8930	57.3880
 0.8940	57.4110
 0.8950	57.4330
 0.8960	57.4650
 0.8970	57.4920
 0.8980	57.5110
 0.8990	57.5300
 0.9000	57.5590
 0.9010	57.5930
 0.9020	57.6260
 0.9030	57.6560
 0.9040	57.6810
 0.9050	57.7070
 0.9060	57.7390
 0.9070	57.7720
 0.9080	57.7910
 0.9090	57.8070
 0.9100	57.8310
 0.9110	57.8650
 0.9120	57.8980
 0.9130	57.9140
 0.9140	57.9290
 0.9150	57.9580
 0.9160	57.9820
 0.9170	58.0090
 0.9180	58.0370
 0.9190	58.0620
 0.9200	58.0900
 0.9210	58.1100
 0.9220	58.1210
 0.9230	58.1310
 0.9240	58.1410
 0.9250	58.1560
 0.9260	58.1690
 0.9270	58.1640
 0.9280	58.1700
 0.9290	58.1820
 0.9300	58.1900
 0.9310	58.1890
 0.9320	58.1800
 0.9330	58.1760
 0.9340	58.1770
 0.9350	58.1620
 0.9360	58.1730
 0.9370	58.1750
 0.9380	58.1520
 0.9390	58.1310
 0.9400	58.1180
 0.9410	58.1070
 0.9420	58.0880
 0.9430	58.0500
 0.9440	58.0210
 0.9450	57.9940
 0.9460	57.9620
 0.9470	57.9370
 0.9480	57.8870
 0.9490	57.8230
 0.9500	57.7650
 0.9510	57.7220
 0.9520	57.6700
 0.9530	57.6110
 0.9540	57.5520
 0.9550	57.4700
 0.9560	57.3980
 0.9570	57.3340
 0.9580	57.2690
 0.9590	57.2160
 0.9600	57.1600
 0.9610	57.1220
 0.9620	57.1130
 0.9630	57.0630
 0.9640	57.0210
 0.9650	57.0030
 0.9660	57.0020
 0.9670	56.9850
 0.9680	56.9710
 0.9690	56.9580
 0.9700	56.9430
 0.9710	56.9580
 0.9720	56.9510
 0.9730	56.9320
 0.9740	56.9350
 0.9750	56.9490
 0.9760	56.9590
 0.9770	56.9640
 0.9780	56.9730
 0.9790	56.9880
 0.9800	57.0010
 0.9810	57.0160
 0.9820	57.0360
 0.9830	57.0170
 0.9840	57.0360
 0.9850	57.0960
 0.9860	57.1480
 0.9870	57.1380
 0.9880	57.1570
 0.9890	57.1970
 0.9900	57.2140
 0.9910	57.2440
 0.9920	57.3270
 0.9930	57.4110
 0.9940	57.4950
 0.9950	57.5780
 0.9960	57.6620
 0.9970	57.7460
 0.9980	57.8290
 0.9990	57.9130
 1.0000	57.9970
 1.0010	58.0800
 1.0020	58.1640
 1.0030	58.2470
 1.0040	58.3310
 1.0050	58.4150
 1.0060	58.4980
 1.0070	58.5820
 1.0080	58.6660
 1.0090	58.7490
 1.0100	58.7490
 1.0110	58.7820
 1.0120	58.8180
 1.0130	58.8570
 1.0140	58.8950
 1.0150	58.9350
 1.0160	58.9680
 1.0170	58.9980
 1.0180	59.0350
 1.0190	59.0700
 1.0200	59.1030
 1.0210	59.1380
 1.0220	59.1710
 1.0230	59.2060
 1.0240	59.2410
 1.0250	59.2750
 1.0260	59.3110
 1.0270	59.3420
 1.0280	59.3680
 1.0290	59.3990
 1.0300	59.4300
 1.0310	59.4600
 1.0320	59.4930
 1.0330	59.5250
 1.0340	59.5520
 1.0350	59.5800
 1.0360	59.6090
 1.0370	59.6370
 1.0380	59.6650
 1.0390	59.6940
 1.0400	59.7200
 1.0410	59.7450
 1.0420	59.7690
 1.0430	59.7930
 1.0440	59.8160
 1.0450	59.8370
 1.0460	59.8630
 1.0470	59.8920
 1.0480	59.9180
 1.0490	59.9470
 1.0500	59.9710
 1.0510	59.9900
 1.0520	60.0080
 1.0530	60.0240
 1.0540	60.0340
 1.0550	60.0500
 1.0560	60.0670
 1.0570	60.0820
 1.0580	60.0980
 1.0590	60.1130
 1.0600	60.1230
 1.0610	60.1370
 1.0620	60.1540
 1.0630	60.1690
 1.0640	60.1850
 1.0650	60.1970
 1.0660	60.2070
 1.0670	60.2150
 1.0680	60.2210
 1.0690	60.2210
 1.0700	60.2270
 1.0710	60.2340
 1.0720	60.2400
 1.0730	60.2490
 1.0740	60.2520
 1.0750	60.2500
 1.0760	60.2520
 1.0770	60.2510
 1.0780	60.2550
 1.0790	60.2640
 1.0800	60.2680
 1.0810	60.2720
 1.0820	60.2740
 1.0830	60.2710
 1.0840	60.2680
 1.0850	60.2640
 1.0860	60.2580
 1.0870	60.2550
 1.0880	60.2520
 1.0890	60.2490
 1.0900	60.2500
 1.0910	60.2450
 1.0920	60.2360
 1.0930	60.2270
 1.0940	60.2170
 1.0950	60.2060
 1.0960	60.1960
 1.0970	60.1840
 1.0980	60.1690
 1.0990	60.1550
 1.1000	60.1410
 1.1010	60.1280
 1.1020	60.1180
 1.1030	60.1060
 1.1040	60.0940
 1.1050	60.0810
 1.1060	60.0680
 1.1070	60.0540
 1.1080	60.0390
 1.1090	60.0220
 1.1100	60.0040
 1.1110	59.9830
 1.1120	59.9640
 1.1130	59.9440
 1.1140	59.9230
 1.1150	59.9040
 1.1160	59.8800
 1.1170	59.8560
 1.1180	59.8270
 1.1190	59.7940
 1.1200	59.7590
 1.1210	59.7160
 1.1220	59.6690
 1.1230	59.6190
 1.1240	59.5640
 1.1250	59.5030
 1.1260	59.4400
 1.1270	59.3640
 1.1280	59.2810
 1.1290	59.1870
 1.1300	59.0860
 1.1310	58.9720
 1.1320	58.8460
 1.1330	58.7120
 1.1340	58.5700
 1.1350	58.4170
 1.1360	58.2570
 1.1370	58.0870
 1.1380	57.9070
 1.1390	57.7200
 1.1400	57.5260
 1.1410	57.3340
 1.1420	57.1380
 1.1430	56.9400
 1.1440	56.7460
 1.1450	56.5490
 1.1460	56.3610
 1.1470	56.1760
 1.1480	56.0000
 1.1490	55.8280
 1.1500	55.6680
 1.1510	55.5150
 1.1520	55.3730
 1.1530	55.2420
 1.1540	55.1210
 1.1550	55.0080
 1.1560	54.9060
 1.1570	54.8150
 1.1580	54.7320
 1.1590	54.6590
 1.1600	54.5890
 1.1610	54.5230
 1.1620	54.4660
 1.1630	54.4130
 1.1640	54.3650
 1.1650	54.3220
 1.1660	54.2850
 1.1670	54.2480
 1.1680	54.2150
 1.1690	54.1810
 1.1700	54.1510
 1.1710	54.1180
 1.1720	54.0860
 1.1730	54.0520
 1.1740	54.0160
 1.1750	53.9780
 1.1760	53.9410
 1.1770	53.9030
 1.1780	53.8660
 1.1790	53.8290
 1.1800	53.7930
 1.1810	53.7570
 1.1820	53.7190
 1.1830	53.6820
 1.1840	53.6520
 1.1850	53.6210
 1.1860	53.5930
 1.1870	53.5710
 1.1880	53.5520
 1.1890	53.5330
 1.1900	53.5210
 1.1910	53.5160
 1.1920	53.5120
 1.1930	53.5120
 1.1940	53.5160
 1.1950	53.5250
 1.1960	53.5370
 1.1970	53.5470
 1.1980	53.5620
 1.1990	53.5800
 1.2000	53.5970
 1.2010	53.6200
 1.2020	53.6470
 1.2030	53.6740
 1.2040	53.7010
 1.2050	53.7320
 1.2060	53.7650
 1.2070	53.7990
 1.2080	53.8350
 1.2090	53.8760
 1.2100	53.9190
 1.2110	53.9650
 1.2120	54.0160
 1.2130	54.0670
 1.2140	54.1180
 1.2150	54.1730
 1.2160	54.2310
 1.2170	54.2900
 1.2180	54.3500
 1.2190	54.4080
 1.2200	54.4670
 1.2210	54.5260
 1.2220	54.5860
 1.2230	54.6470
 1.2240	54.7050
 1.2250	54.7600
 1.2260	54.8140
 1.2270	54.8680
 1.2280	54.9220
 1.2290	54.9750
 1.2300	55.0230
 1.2310	55.0680
 1.2320	55.1120
 1.2330	55.1540
 1.2340	55.1960
 1.2350	55.2410
 1.2360	55.2810
 1.2370	55.3190
 1.2380	55.3550
 1.2390	55.3890
 1.2400	55.4220
 1.2410	55.4570
 1.2420	55.4910
 1.2430	55.5220
 1.2440	55.5540
 1.2450	55.5860
 1.2460	55.6160
 1.2470	55.6450
 1.2480	55.6750
 1.2490	55.7030
 1.2500	55.7270
 1.2510	55.7510
 1.2520	55.7720
 1.2530	55.7890
 1.2540	55.8070
 1.2550	55.8230
 1.2560	55.8360
 1.2570	55.8520
 1.2580	55.8650
 1.2590	55.8770
 1.2600	55.8880
 1.2610	55.8980
 1.2620	55.9060
 1.2630	55.9130
 1.2640	55.9200
 1.2650	55.9260
 1.2660	55.9290
 1.2670	55.9280
 1.2680	55.9270
 1.2690	55.9250
 1.2700	55.9210
 1.2710	55.9190
 1.2720	55.9140
 1.2730	55.9070
 1.2740	55.8960
 1.2750	55.8860
 1.2760	55.8730
 1.2770	55.8580
 1.2780	55.8450
 1.2790	55.8290
 1.2800	55.8110
 1.2810	55.7940
 1.2820	55.7720
 1.2830	55.7470
 1.2840	55.7230
 1.2850	55.6960
 1.2860	55.6670
 1.2870	55.6350
 1.2880	55.6000
 1.2890	55.5590
 1.2900	55.5170
 1.2910	55.4710
 1.2920	55.4240
 1.2930	55.3770
 1.2940	55.3260
 1.2950	55.2720
 1.2960	55.2150
 1.2970	55.1530
 1.2980	55.0860
 1.2990	55.0160
 1.3000	54.9450
 1.3010	54.8730
 1.3020	54.7970
 1.3030	54.7190
 1.3040	54.6360
 1.3050	54.5490
 1.3060	54.4570
 1.3070	54.3610
 1.3080	54.2640
 1.3090	54.1600
 1.3100	54.0530
 1.3110	53.9450
 1.3120	53.8320
 1.3130	53.7190
 1.3140	53.6000
 1.3150	53.4750
 1.3160	53.3480
 1.3170	53.2170
 1.3180	53.0800
 1.3190	52.9410
 1.3200	52.7990
 1.3210	52.6500
 1.3220	52.5020
 1.3230	52.3510
 1.3240	52.1950
 1.3250	52.0380
 1.3260	51.8770
 1.3270	51.7130
 1.3280	51.5500
 1.3290	51.3830
 1.3300	51.2130
 1.3310	51.0420
 1.3320	50.8660
 1.3330	50.6920
 1.3340	50.5170
 1.3350	50.3400
 1.3360	50.1640
 1.3370	49.9860
 1.3380	49.8120
 1.3390	49.6400
 1.3400	49.4680
 1.3410	49.2980
 1.3420	49.1260
 1.3430	48.9550
 1.3440	48.7830
 1.3450	48.6150
 1.3460	48.4480
 1.3470	48.2820
 1.3480	48.1180
 1.3490	47.9550
 1.3500	47.7940
 1.3510	47.6310
 1.3520	47.4720
 1.3530	47.3120
 1.3540	47.1500
 1.3550	46.9910
 1.3560	46.8310
 1.3570	46.6680
 1.3580	46.5060
 1.3590	46.3410
 1.3600	46.1730
 1.3610	46.0040
 1.3620	45.8290
 1.3630	45.6500
 1.3640	45.4620
 1.3650	45.2660
 1.3660	45.0630
 1.3670	44.8490
 1.3680	44.6260
 1.3690	44.3910
 1.3700	44.1380
 1.3710	43.8720
 1.3720	43.5910
 1.3730	43.2900
 1.3740	42.9730
 1.3750	42.6380
 1.3760	42.2810
 1.3770	41.9030
 1.3780	41.4990
 1.3790	41.0750
 1.3800	40.6300
 1.3810	40.1610
 1.3820	39.6790
 1.3830	39.1810
 1.3840	38.6660
 1.3850	38.1340
 1.3860	37.5920
 1.3870	37.0290
 1.3880	36.4680
 1.3890	35.8970
 1.3900	35.3230
 1.3910	34.7550
 1.3920	34.1860
 1.3930	33.6170
 1.3940	33.0560
 1.3950	32.4970
 1.3960	31.9510
 1.3970	31.4200
 1.3980	30.9030
 1.3990	30.4070
 1.4000	29.9290
 1.4010	29.4660
 1.4020	29.0260
 1.4030	28.6020
 1.4040	28.2000
 1.4050	27.8190
 1.4060	27.4580
 1.4070	27.1210
 1.4080	26.8050
 1.4090	26.5080
 1.4100	26.2330
 1.4110	25.9760
 1.4120	25.7370
 1.4130	25.5160
 1.4140	25.3120
 1.4150	25.1250
 1.4160	24.9530
 1.4170	24.7950
 1.4180	24.6510
 1.4190	24.5170
 1.4200	24.3950
 1.4210	24.2830
 1.4220	24.1810
 1.4230	24.0900
 1.4240	24.0060
 1.4250	23.9290
 1.4260	23.8610
 1.4270	23.7980
 1.4280	23.7430
 1.4290	23.6930
 1.4300	23.6510
 1.4310	23.6130
 1.4320	23.5810
 1.4330	23.5520
 1.4340	23.5300
 1.4350	23.5110
 1.4360	23.4950
 1.4370	23.4830
 1.4380	23.4760
 1.4390	23.4700
 1.4400	23.4680
 1.4410	23.4690
 1.4420	23.4710
 1.4430	23.4760
 1.4440	23.4840
 1.4450	23.4930
 1.4460	23.5040
 1.4470	23.5160
 1.4480	23.5280
 1.4490	23.5440
 1.4500	23.5590
 1.4510	23.5760
 1.4520	23.5940
 1.4530	23.6130
 1.4540	23.6340
 1.4550	23.6580
 1.4560	23.6830
 1.4570	23.7110
 1.4580	23.7420
 1.4590	23.7760
 1.4600	23.8140
 1.4610	23.8540
 1.4620	23.8990
 1.4630	23.9470
 1.4640	23.9990
 1.4650	24.0560
 1.4660	24.1170
 1.4670	24.1820
 1.4680	24.2530
 1.4690	24.3270
 1.4700	24.4070
