Name: Arctostaphylos glandulosa 1
Type: vegetation
Class: Shrub
Genus: Arctostaphylos
Species: glandulosa
Sample No.: VH036
Owner: UCSB
Wavelength Range: VSWIR
Origin: 34.5084; -119.7682; WGS84
Collection Date: 4/1/2013
Description: Samples were collected as part of the HyspIRI Airborne Campaign. 48 individual plants were sampled in three times in 2013 - spring  summer  and fall. The name of the sample includes a 1  2  or 3 which references a different individual of the species. Samples were taken to JPL and processed within 48 hours of collection. The same leaves were processed in the Nicolet and then measured using the ASD.
Measurement: Bidirectional reflectance
First Column: X
Second Column: Y
X Units: Wavelength (micrometers)
Y Units: Reflectance (percentage)
First X Value: 0.35
Last X Value: 2.5
Number of X Values: 2151
Additional Information: vegetation.shrub.arctostaphylos.glandulosa.vswir.vh036.ucsb.asd.ancillary.txt

 0.3500	 5.5630
 0.3510	 5.7340
 0.3520	 5.4740
 0.3530	 5.2300
 0.3540	 5.3500
 0.3550	 5.3380
 0.3560	 5.3170
 0.3570	 5.2780
 0.3580	 5.1710
 0.3590	 5.2380
 0.3600	 5.2230
 0.3610	 5.0940
 0.3620	 5.2060
 0.3630	 5.2950
 0.3640	 5.2590
 0.3650	 5.1200
 0.3660	 5.1550
 0.3670	 5.1480
 0.3680	 5.1200
 0.3690	 5.2360
 0.3700	 5.2040
 0.3710	 5.1640
 0.3720	 5.2110
 0.3730	 5.2640
 0.3740	 5.2310
 0.3750	 5.1750
 0.3760	 5.1810
 0.3770	 5.1540
 0.3780	 5.1190
 0.3790	 5.0930
 0.3800	 5.0870
 0.3810	 5.1600
 0.3820	 5.2130
 0.3830	 5.1780
 0.3840	 5.0860
 0.3850	 5.1590
 0.3860	 5.2420
 0.3870	 5.1170
 0.3880	 5.1150
 0.3890	 5.1220
 0.3900	 5.0940
 0.3910	 5.0840
 0.3920	 5.1050
 0.3930	 5.1180
 0.3940	 5.1030
 0.3950	 5.1120
 0.3960	 5.1600
 0.3970	 5.1820
 0.3980	 5.1040
 0.3990	 5.1150
 0.4000	 5.1310
 0.4010	 5.1030
 0.4020	 5.0620
 0.4030	 5.0750
 0.4040	 5.0930
 0.4050	 5.0690
 0.4060	 5.0910
 0.4070	 5.1230
 0.4080	 5.1220
 0.4090	 5.0580
 0.4100	 5.0600
 0.4110	 5.0810
 0.4120	 5.0880
 0.4130	 5.1200
 0.4140	 5.1210
 0.4150	 5.0990
 0.4160	 5.0840
 0.4170	 5.0920
 0.4180	 5.1260
 0.4190	 5.1570
 0.4200	 5.1400
 0.4210	 5.1370
 0.4220	 5.1590
 0.4230	 5.1950
 0.4240	 5.2200
 0.4250	 5.2490
 0.4260	 5.2790
 0.4270	 5.3020
 0.4280	 5.3490
 0.4290	 5.4020
 0.4300	 5.4510
 0.4310	 5.4960
 0.4320	 5.5520
 0.4330	 5.6080
 0.4340	 5.6520
 0.4350	 5.7110
 0.4360	 5.7710
 0.4370	 5.8260
 0.4380	 5.8780
 0.4390	 5.9270
 0.4400	 5.9840
 0.4410	 6.0510
 0.4420	 6.1140
 0.4430	 6.1760
 0.4440	 6.2290
 0.4450	 6.2660
 0.4460	 6.3390
 0.4470	 6.4090
 0.4480	 6.4610
 0.4490	 6.5140
 0.4500	 6.5640
 0.4510	 6.6100
 0.4520	 6.6510
 0.4530	 6.7010
 0.4540	 6.7360
 0.4550	 6.7610
 0.4560	 6.7930
 0.4570	 6.8220
 0.4580	 6.8480
 0.4590	 6.8710
 0.4600	 6.8970
 0.4610	 6.9190
 0.4620	 6.9370
 0.4630	 6.9500
 0.4640	 6.9620
 0.4650	 6.9720
 0.4660	 6.9820
 0.4670	 6.9920
 0.4680	 6.9990
 0.4690	 7.0070
 0.4700	 7.0170
 0.4710	 7.0130
 0.4720	 7.0260
 0.4730	 7.0480
 0.4740	 7.0570
 0.4750	 7.0680
 0.4760	 7.0810
 0.4770	 7.0940
 0.4780	 7.0950
 0.4790	 7.0990
 0.4800	 7.1100
 0.4810	 7.1260
 0.4820	 7.1300
 0.4830	 7.1430
 0.4840	 7.1600
 0.4850	 7.1560
 0.4860	 7.1800
 0.4870	 7.2050
 0.4880	 7.2110
 0.4890	 7.2300
 0.4900	 7.2520
 0.4910	 7.2770
 0.4920	 7.3100
 0.4930	 7.3440
 0.4940	 7.3780
 0.4950	 7.4130
 0.4960	 7.4590
 0.4970	 7.5070
 0.4980	 7.5570
 0.4990	 7.6130
 0.5000	 7.6760
 0.5010	 7.7490
 0.5020	 7.8270
 0.5030	 7.9080
 0.5040	 7.9980
 0.5050	 8.1000
 0.5060	 8.2120
 0.5070	 8.3370
 0.5080	 8.4700
 0.5090	 8.6090
 0.5100	 8.7540
 0.5110	 8.9180
 0.5120	 9.0960
 0.5130	 9.2860
 0.5140	 9.4910
 0.5150	 9.7060
 0.5160	 9.9340
 0.5170	10.1790
 0.5180	10.4300
 0.5190	10.6880
 0.5200	10.9520
 0.5210	11.2210
 0.5220	11.4880
 0.5230	11.7570
 0.5240	12.0280
 0.5250	12.2850
 0.5260	12.5370
 0.5270	12.7830
 0.5280	13.0220
 0.5290	13.2440
 0.5300	13.4470
 0.5310	13.6360
 0.5320	13.8210
 0.5330	13.9960
 0.5340	14.1590
 0.5350	14.3080
 0.5360	14.4430
 0.5370	14.5720
 0.5380	14.6950
 0.5390	14.8080
 0.5400	14.9180
 0.5410	15.0300
 0.5420	15.1420
 0.5430	15.2480
 0.5440	15.3460
 0.5450	15.4340
 0.5460	15.5070
 0.5470	15.5610
 0.5480	15.6060
 0.5490	15.6510
 0.5500	15.6980
 0.5510	15.7360
 0.5520	15.7590
 0.5530	15.7660
 0.5540	15.7610
 0.5550	15.7390
 0.5560	15.7020
 0.5570	15.6500
 0.5580	15.5890
 0.5590	15.5150
 0.5600	15.4300
 0.5610	15.3390
 0.5620	15.2380
 0.5630	15.1270
 0.5640	15.0030
 0.5650	14.8720
 0.5660	14.7280
 0.5670	14.5750
 0.5680	14.4280
 0.5690	14.2730
 0.5700	14.1090
 0.5710	13.9390
 0.5720	13.7780
 0.5730	13.6240
 0.5740	13.4770
 0.5750	13.3390
 0.5760	13.2150
 0.5770	13.1010
 0.5780	12.9950
 0.5790	12.8920
 0.5800	12.7960
 0.5810	12.7020
 0.5820	12.6050
 0.5830	12.5090
 0.5840	12.4200
 0.5850	12.3380
 0.5860	12.2620
 0.5870	12.1940
 0.5880	12.1380
 0.5890	12.0910
 0.5900	12.0400
 0.5910	11.9880
 0.5920	11.9400
 0.5930	11.9000
 0.5940	11.8650
 0.5950	11.8360
 0.5960	11.8100
 0.5970	11.7850
 0.5980	11.7540
 0.5990	11.7190
 0.6000	11.6800
 0.6010	11.6340
 0.6020	11.5820
 0.6030	11.5250
 0.6040	11.4630
 0.6050	11.3960
 0.6060	11.3210
 0.6070	11.2360
 0.6080	11.1480
 0.6090	11.0610
 0.6100	10.9800
 0.6110	10.9040
 0.6120	10.8080
 0.6130	10.6990
 0.6140	10.5910
 0.6150	10.5020
 0.6160	10.4140
 0.6170	10.3270
 0.6180	10.2500
 0.6190	10.1840
 0.6200	10.1260
 0.6210	10.0750
 0.6220	10.0280
 0.6230	 9.9830
 0.6240	 9.9460
 0.6250	 9.9190
 0.6260	 9.8950
 0.6270	 9.8750
 0.6280	 9.8590
 0.6290	 9.8420
 0.6300	 9.8330
 0.6310	 9.8250
 0.6320	 9.8110
 0.6330	 9.7950
 0.6340	 9.7660
 0.6350	 9.7290
 0.6360	 9.6890
 0.6370	 9.6430
 0.6380	 9.5870
 0.6390	 9.5210
 0.6400	 9.4450
 0.6410	 9.3630
 0.6420	 9.2760
 0.6430	 9.1840
 0.6440	 9.0850
 0.6450	 8.9880
 0.6460	 8.8920
 0.6470	 8.7930
 0.6480	 8.7020
 0.6490	 8.6140
 0.6500	 8.5320
 0.6510	 8.4650
 0.6520	 8.3980
 0.6530	 8.3310
 0.6540	 8.2640
 0.6550	 8.1960
 0.6560	 8.1210
 0.6570	 8.0390
 0.6580	 7.9530
 0.6590	 7.8610
 0.6600	 7.7670
 0.6610	 7.6730
 0.6620	 7.5770
 0.6630	 7.4880
 0.6640	 7.4060
 0.6650	 7.3310
 0.6660	 7.2660
 0.6670	 7.2060
 0.6680	 7.1530
 0.6690	 7.1120
 0.6700	 7.0830
 0.6710	 7.0610
 0.6720	 7.0440
 0.6730	 7.0300
 0.6740	 7.0270
 0.6750	 7.0290
 0.6760	 7.0300
 0.6770	 7.0450
 0.6780	 7.0630
 0.6790	 7.0860
 0.6800	 7.1200
 0.6810	 7.1700
 0.6820	 7.2330
 0.6830	 7.3090
 0.6840	 7.4120
 0.6850	 7.5420
 0.6860	 7.7010
 0.6870	 7.8950
 0.6880	 8.1290
 0.6890	 8.4120
 0.6900	 8.7500
 0.6910	 9.1450
 0.6920	 9.6000
 0.6930	10.1140
 0.6940	10.6890
 0.6950	11.3290
 0.6960	12.0270
 0.6970	12.7800
 0.6980	13.5870
 0.6990	14.4430
 0.7000	15.3370
 0.7010	16.2600
 0.7020	17.2070
 0.7030	18.1710
 0.7040	19.1450
 0.7050	20.1210
 0.7060	21.0910
 0.7070	22.0540
 0.7080	23.0040
 0.7090	23.9400
 0.7100	24.8590
 0.7110	25.7640
 0.7120	26.6520
 0.7130	27.5170
 0.7140	28.3580
 0.7150	29.1760
 0.7160	29.9740
 0.7170	30.7480
 0.7180	31.4970
 0.7190	32.2200
 0.7200	32.9160
 0.7210	33.5870
 0.7220	34.2310
 0.7230	34.8480
 0.7240	35.4370
 0.7250	35.9970
 0.7260	36.5270
 0.7270	37.0270
 0.7280	37.5020
 0.7290	37.9500
 0.7300	38.3710
 0.7310	38.7640
 0.7320	39.1320
 0.7330	39.4790
 0.7340	39.8050
 0.7350	40.1120
 0.7360	40.3970
 0.7370	40.6610
 0.7380	40.9060
 0.7390	41.1420
 0.7400	41.3580
 0.7410	41.5570
 0.7420	41.7470
 0.7430	41.9210
 0.7440	42.0790
 0.7450	42.2270
 0.7460	42.3650
 0.7470	42.4930
 0.7480	42.6120
 0.7490	42.7210
 0.7500	42.8200
 0.7510	42.9080
 0.7520	42.9880
 0.7530	43.0650
 0.7540	43.1320
 0.7550	43.1960
 0.7560	43.2590
 0.7570	43.3180
 0.7580	43.3630
 0.7590	43.4040
 0.7600	43.4480
 0.7610	43.4870
 0.7620	43.5250
 0.7630	43.5610
 0.7640	43.5910
 0.7650	43.6170
 0.7660	43.6430
 0.7670	43.6700
 0.7680	43.6940
 0.7690	43.7190
 0.7700	43.7360
 0.7710	43.7510
 0.7720	43.7800
 0.7730	43.7990
 0.7740	43.8150
 0.7750	43.8370
 0.7760	43.8470
 0.7770	43.8620
 0.7780	43.8800
 0.7790	43.8920
 0.7800	43.9090
 0.7810	43.9290
 0.7820	43.9480
 0.7830	43.9600
 0.7840	43.9730
 0.7850	43.9860
 0.7860	43.9970
 0.7870	44.0080
 0.7880	44.0190
 0.7890	44.0310
 0.7900	44.0450
 0.7910	44.0530
 0.7920	44.0660
 0.7930	44.0810
 0.7940	44.0870
 0.7950	44.0900
 0.7960	44.1020
 0.7970	44.1180
 0.7980	44.1160
 0.7990	44.1160
 0.8000	44.1230
 0.8010	44.1350
 0.8020	44.1330
 0.8030	44.1370
 0.8040	44.1430
 0.8050	44.1410
 0.8060	44.1430
 0.8070	44.1430
 0.8080	44.1410
 0.8090	44.1400
 0.8100	44.1360
 0.8110	44.1360
 0.8120	44.1400
 0.8130	44.1300
 0.8140	44.1230
 0.8150	44.1160
 0.8160	44.1050
 0.8170	44.1070
 0.8180	44.1000
 0.8190	44.0900
 0.8200	44.0900
 0.8210	44.0820
 0.8220	44.0730
 0.8230	44.0670
 0.8240	44.0610
 0.8250	44.0460
 0.8260	44.0350
 0.8270	44.0310
 0.8280	44.0150
 0.8290	44.0020
 0.8300	43.9920
 0.8310	43.9820
 0.8320	43.9700
 0.8330	43.9560
 0.8340	43.9430
 0.8350	43.9310
 0.8360	43.9180
 0.8370	43.9040
 0.8380	43.8930
 0.8390	43.8890
 0.8400	43.8850
 0.8410	43.8810
 0.8420	43.8750
 0.8430	43.8690
 0.8440	43.8640
 0.8450	43.8590
 0.8460	43.8540
 0.8470	43.8590
 0.8480	43.8530
 0.8490	43.8430
 0.8500	43.8440
 0.8510	43.8360
 0.8520	43.8380
 0.8530	43.8440
 0.8540	43.8330
 0.8550	43.8190
 0.8560	43.8180
 0.8570	43.8260
 0.8580	43.8250
 0.8590	43.8230
 0.8600	43.8220
 0.8610	43.8200
 0.8620	43.8230
 0.8630	43.8270
 0.8640	43.8300
 0.8650	43.8340
 0.8660	43.8340
 0.8670	43.8320
 0.8680	43.8310
 0.8690	43.8350
 0.8700	43.8420
 0.8710	43.8420
 0.8720	43.8420
 0.8730	43.8570
 0.8740	43.8640
 0.8750	43.8630
 0.8760	43.8620
 0.8770	43.8700
 0.8780	43.8770
 0.8790	43.8750
 0.8800	43.8690
 0.8810	43.8800
 0.8820	43.8850
 0.8830	43.8850
 0.8840	43.8830
 0.8850	43.8870
 0.8860	43.8870
 0.8870	43.8910
 0.8880	43.9010
 0.8890	43.8960
 0.8900	43.8940
 0.8910	43.9000
 0.8920	43.9050
 0.8930	43.8940
 0.8940	43.8950
 0.8950	43.9050
 0.8960	43.9020
 0.8970	43.9060
 0.8980	43.9090
 0.8990	43.9080
 0.9000	43.9070
 0.9010	43.9040
 0.9020	43.9030
 0.9030	43.9050
 0.9040	43.9020
 0.9050	43.9070
 0.9060	43.9140
 0.9070	43.9170
 0.9080	43.9210
 0.9090	43.9150
 0.9100	43.9060
 0.9110	43.9020
 0.9120	43.9110
 0.9130	43.9080
 0.9140	43.8990
 0.9150	43.8980
 0.9160	43.9040
 0.9170	43.9000
 0.9180	43.8880
 0.9190	43.8780
 0.9200	43.8750
 0.9210	43.8630
 0.9220	43.8520
 0.9230	43.8590
 0.9240	43.8420
 0.9250	43.8300
 0.9260	43.8230
 0.9270	43.8030
 0.9280	43.8000
 0.9290	43.7780
 0.9300	43.7410
 0.9310	43.7290
 0.9320	43.7060
 0.9330	43.6800
 0.9340	43.6590
 0.9350	43.6440
 0.9360	43.6170
 0.9370	43.5880
 0.9380	43.5590
 0.9390	43.5220
 0.9400	43.4930
 0.9410	43.4680
 0.9420	43.4400
 0.9430	43.4130
 0.9440	43.3740
 0.9450	43.3310
 0.9460	43.2860
 0.9470	43.2170
 0.9480	43.1730
 0.9490	43.1250
 0.9500	43.0470
 0.9510	42.9850
 0.9520	42.9020
 0.9530	42.8100
 0.9540	42.7280
 0.9550	42.6480
 0.9560	42.5620
 0.9570	42.4770
 0.9580	42.4000
 0.9590	42.3440
 0.9600	42.2700
 0.9610	42.2040
 0.9620	42.1750
 0.9630	42.1230
 0.9640	42.0640
 0.9650	42.0150
 0.9660	41.9810
 0.9670	41.9350
 0.9680	41.9100
 0.9690	41.8990
 0.9700	41.8810
 0.9710	41.8520
 0.9720	41.8310
 0.9730	41.8150
 0.9740	41.7920
 0.9750	41.7890
 0.9760	41.7970
 0.9770	41.7990
 0.9780	41.7830
 0.9790	41.7700
 0.9800	41.7640
 0.9810	41.7720
 0.9820	41.8020
 0.9830	41.8120
 0.9840	41.8220
 0.9850	41.8320
 0.9860	41.8360
 0.9870	41.8490
 0.9880	41.8590
 0.9890	41.8790
 0.9900	41.9250
 0.9910	41.9530
 0.9920	42.0030
 0.9930	42.0520
 0.9940	42.1020
 0.9950	42.1510
 0.9960	42.2000
 0.9970	42.2500
 0.9980	42.2990
 0.9990	42.3490
 1.0000	42.3980
 1.0010	42.4470
 1.0020	42.4970
 1.0030	42.5460
 1.0040	42.5950
 1.0050	42.6450
 1.0060	42.6940
 1.0070	42.7440
 1.0080	42.7930
 1.0090	42.8420
 1.0100	42.8420
 1.0110	42.8770
 1.0120	42.9070
 1.0130	42.9300
 1.0140	42.9580
 1.0150	42.9870
 1.0160	43.0150
 1.0170	43.0410
 1.0180	43.0710
 1.0190	43.0960
 1.0200	43.1210
 1.0210	43.1490
 1.0220	43.1750
 1.0230	43.2030
 1.0240	43.2360
 1.0250	43.2630
 1.0260	43.2880
 1.0270	43.3130
 1.0280	43.3350
 1.0290	43.3570
 1.0300	43.3760
 1.0310	43.3970
 1.0320	43.4180
 1.0330	43.4410
 1.0340	43.4630
 1.0350	43.4870
 1.0360	43.5070
 1.0370	43.5240
 1.0380	43.5450
 1.0390	43.5690
 1.0400	43.5890
 1.0410	43.6110
 1.0420	43.6270
 1.0430	43.6340
 1.0440	43.6470
 1.0450	43.6590
 1.0460	43.6730
 1.0470	43.6900
 1.0480	43.7050
 1.0490	43.7160
 1.0500	43.7280
 1.0510	43.7410
 1.0520	43.7520
 1.0530	43.7650
 1.0540	43.7800
 1.0550	43.7940
 1.0560	43.8100
 1.0570	43.8220
 1.0580	43.8310
 1.0590	43.8420
 1.0600	43.8530
 1.0610	43.8620
 1.0620	43.8700
 1.0630	43.8790
 1.0640	43.8880
 1.0650	43.8950
 1.0660	43.9050
 1.0670	43.9120
 1.0680	43.9180
 1.0690	43.9200
 1.0700	43.9240
 1.0710	43.9290
 1.0720	43.9320
 1.0730	43.9320
 1.0740	43.9360
 1.0750	43.9420
 1.0760	43.9460
 1.0770	43.9530
 1.0780	43.9550
 1.0790	43.9510
 1.0800	43.9520
 1.0810	43.9570
 1.0820	43.9560
 1.0830	43.9530
 1.0840	43.9520
 1.0850	43.9490
 1.0860	43.9450
 1.0870	43.9420
 1.0880	43.9420
 1.0890	43.9380
 1.0900	43.9300
 1.0910	43.9230
 1.0920	43.9170
 1.0930	43.9090
 1.0940	43.9000
 1.0950	43.8900
 1.0960	43.8760
 1.0970	43.8640
 1.0980	43.8540
 1.0990	43.8420
 1.1000	43.8300
 1.1010	43.8180
 1.1020	43.8050
 1.1030	43.7890
 1.1040	43.7710
 1.1050	43.7550
 1.1060	43.7370
 1.1070	43.7170
 1.1080	43.6960
 1.1090	43.6780
 1.1100	43.6530
 1.1110	43.6230
 1.1120	43.5930
 1.1130	43.5590
 1.1140	43.5280
 1.1150	43.5040
 1.1160	43.4690
 1.1170	43.4330
 1.1180	43.3920
 1.1190	43.3450
 1.1200	43.2940
 1.1210	43.2440
 1.1220	43.1920
 1.1230	43.1330
 1.1240	43.0690
 1.1250	43.0010
 1.1260	42.9270
 1.1270	42.8490
 1.1280	42.7710
 1.1290	42.6830
 1.1300	42.5890
 1.1310	42.4890
 1.1320	42.3810
 1.1330	42.2660
 1.1340	42.1470
 1.1350	42.0190
 1.1360	41.8820
 1.1370	41.7390
 1.1380	41.5880
 1.1390	41.4310
 1.1400	41.2650
 1.1410	41.0970
 1.1420	40.9240
 1.1430	40.7470
 1.1440	40.5690
 1.1450	40.3860
 1.1460	40.2080
 1.1470	40.0260
 1.1480	39.8550
 1.1490	39.6860
 1.1500	39.5260
 1.1510	39.3720
 1.1520	39.2270
 1.1530	39.0860
 1.1540	38.9600
 1.1550	38.8430
 1.1560	38.7380
 1.1570	38.6470
 1.1580	38.5640
 1.1590	38.4870
 1.1600	38.4200
 1.1610	38.3620
 1.1620	38.3100
 1.1630	38.2680
 1.1640	38.2300
 1.1650	38.1960
 1.1660	38.1680
 1.1670	38.1430
 1.1680	38.1230
 1.1690	38.1030
 1.1700	38.0870
 1.1710	38.0690
 1.1720	38.0540
 1.1730	38.0370
 1.1740	38.0190
 1.1750	38.0010
 1.1760	37.9830
 1.1770	37.9620
 1.1780	37.9400
 1.1790	37.9170
 1.1800	37.8920
 1.1810	37.8660
 1.1820	37.8390
 1.1830	37.8130
 1.1840	37.7860
 1.1850	37.7600
 1.1860	37.7330
 1.1870	37.7070
 1.1880	37.6820
 1.1890	37.6550
 1.1900	37.6320
 1.1910	37.6120
 1.1920	37.5940
 1.1930	37.5770
 1.1940	37.5620
 1.1950	37.5490
 1.1960	37.5380
 1.1970	37.5280
 1.1980	37.5210
 1.1990	37.5160
 1.2000	37.5150
 1.2010	37.5150
 1.2020	37.5170
 1.2030	37.5220
 1.2040	37.5300
 1.2050	37.5420
 1.2060	37.5580
 1.2070	37.5790
 1.2080	37.6010
 1.2090	37.6260
 1.2100	37.6550
 1.2110	37.6880
 1.2120	37.7240
 1.2130	37.7640
 1.2140	37.8080
 1.2150	37.8540
 1.2160	37.9040
 1.2170	37.9540
 1.2180	38.0060
 1.2190	38.0610
 1.2200	38.1170
 1.2210	38.1760
 1.2220	38.2360
 1.2230	38.2950
 1.2240	38.3520
 1.2250	38.4080
 1.2260	38.4630
 1.2270	38.5160
 1.2280	38.5690
 1.2290	38.6220
 1.2300	38.6720
 1.2310	38.7190
 1.2320	38.7610
 1.2330	38.7990
 1.2340	38.8390
 1.2350	38.8760
 1.2360	38.9140
 1.2370	38.9530
 1.2380	38.9900
 1.2390	39.0250
 1.2400	39.0570
 1.2410	39.0870
 1.2420	39.1160
 1.2430	39.1450
 1.2440	39.1740
 1.2450	39.2020
 1.2460	39.2300
 1.2470	39.2550
 1.2480	39.2770
 1.2490	39.2980
 1.2500	39.3190
 1.2510	39.3390
 1.2520	39.3600
 1.2530	39.3790
 1.2540	39.3950
 1.2550	39.4090
 1.2560	39.4220
 1.2570	39.4330
 1.2580	39.4460
 1.2590	39.4570
 1.2600	39.4680
 1.2610	39.4760
 1.2620	39.4810
 1.2630	39.4850
 1.2640	39.4890
 1.2650	39.4920
 1.2660	39.4960
 1.2670	39.4980
 1.2680	39.4970
 1.2690	39.4960
 1.2700	39.4930
 1.2710	39.4890
 1.2720	39.4840
 1.2730	39.4750
 1.2740	39.4650
 1.2750	39.4550
 1.2760	39.4410
 1.2770	39.4250
 1.2780	39.4100
 1.2790	39.3910
 1.2800	39.3710
 1.2810	39.3530
 1.2820	39.3320
 1.2830	39.3100
 1.2840	39.2860
 1.2850	39.2590
 1.2860	39.2320
 1.2870	39.2020
 1.2880	39.1700
 1.2890	39.1360
 1.2900	39.1010
 1.2910	39.0640
 1.2920	39.0250
 1.2930	38.9830
 1.2940	38.9400
 1.2950	38.8940
 1.2960	38.8450
 1.2970	38.7950
 1.2980	38.7410
 1.2990	38.6810
 1.3000	38.6220
 1.3010	38.5570
 1.3020	38.4910
 1.3030	38.4250
 1.3040	38.3530
 1.3050	38.2770
 1.3060	38.2010
 1.3070	38.1160
 1.3080	38.0280
 1.3090	37.9400
 1.3100	37.8430
 1.3110	37.7440
 1.3120	37.6430
 1.3130	37.5370
 1.3140	37.4260
 1.3150	37.3130
 1.3160	37.1950
 1.3170	37.0750
 1.3180	36.9490
 1.3190	36.8200
 1.3200	36.6880
 1.3210	36.5480
 1.3220	36.4040
 1.3230	36.2580
 1.3240	36.1070
 1.3250	35.9560
 1.3260	35.8040
 1.3270	35.6480
 1.3280	35.4880
 1.3290	35.3240
 1.3300	35.1550
 1.3310	34.9840
 1.3320	34.8110
 1.3330	34.6380
 1.3340	34.4650
 1.3350	34.2910
 1.3360	34.1150
 1.3370	33.9350
 1.3380	33.7570
 1.3390	33.5780
 1.3400	33.3990
 1.3410	33.2240
 1.3420	33.0500
 1.3430	32.8770
 1.3440	32.7050
 1.3450	32.5350
 1.3460	32.3660
 1.3470	32.1990
 1.3480	32.0340
 1.3490	31.8710
 1.3500	31.7110
 1.3510	31.5500
 1.3520	31.3900
 1.3530	31.2310
 1.3540	31.0720
 1.3550	30.9150
 1.3560	30.7590
 1.3570	30.6030
 1.3580	30.4470
 1.3590	30.2890
 1.3600	30.1280
 1.3610	29.9640
 1.3620	29.7940
 1.3630	29.6200
 1.3640	29.4410
 1.3650	29.2560
 1.3660	29.0660
 1.3670	28.8680
 1.3680	28.6600
 1.3690	28.4410
 1.3700	28.2070
 1.3710	27.9610
 1.3720	27.7030
 1.3730	27.4280
 1.3740	27.1400
 1.3750	26.8340
 1.3760	26.5080
 1.3770	26.1650
 1.3780	25.7990
 1.3790	25.4160
 1.3800	25.0170
 1.3810	24.5950
 1.3820	24.1620
 1.3830	23.7140
 1.3840	23.2520
 1.3850	22.7740
 1.3860	22.2910
 1.3870	21.7910
 1.3880	21.2940
 1.3890	20.7910
 1.3900	20.2840
 1.3910	19.7810
 1.3920	19.2790
 1.3930	18.7780
 1.3940	18.2870
 1.3950	17.7990
 1.3960	17.3220
 1.3970	16.8590
 1.3980	16.4070
 1.3990	15.9780
 1.4000	15.5630
 1.4010	15.1630
 1.4020	14.7840
 1.4030	14.4200
 1.4040	14.0750
 1.4050	13.7520
 1.4060	13.4460
 1.4070	13.1640
 1.4080	12.8990
 1.4090	12.6520
 1.4100	12.4250
 1.4110	12.2130
 1.4120	12.0180
 1.4130	11.8390
 1.4140	11.6740
 1.4150	11.5260
 1.4160	11.3910
 1.4170	11.2670
 1.4180	11.1570
 1.4190	11.0560
 1.4200	10.9630
 1.4210	10.8810
 1.4220	10.8080
 1.4230	10.7430
 1.4240	10.6860
 1.4250	10.6330
 1.4260	10.5880
 1.4270	10.5470
 1.4280	10.5130
 1.4290	10.4820
 1.4300	10.4580
 1.4310	10.4360
 1.4320	10.4190
 1.4330	10.4050
 1.4340	10.3950
 1.4350	10.3870
 1.4360	10.3820
 1.4370	10.3790
 1.4380	10.3790
 1.4390	10.3820
 1.4400	10.3870
 1.4410	10.3940
 1.4420	10.4020
 1.4430	10.4110
 1.4440	10.4220
 1.4450	10.4340
 1.4460	10.4460
 1.4470	10.4600
 1.4480	10.4750
 1.4490	10.4910
 1.4500	10.5070
 1.4510	10.5230
 1.4520	10.5390
 1.4530	10.5570
 1.4540	10.5760
 1.4550	10.5970
 1.4560	10.6180
 1.4570	10.6400
 1.4580	10.6630
 1.4590	10.6880
 1.4600	10.7160
 1.4610	10.7450
 1.4620	10.7780
 1.4630	10.8140
 1.4640	10.8520
 1.4650	10.8930
 1.4660	10.9370
 1.4670	10.9840
 1.4680	11.0350
