Name: Baccharis pilularis 2
Type: vegetation
Class: Shrub
Genus: Baccharis
Species: pilularis
Sample No.: VH003
Owner: UCSB
Wavelength Range: TIR
Origin: 34.418; -119.8455; WGS84
Collection Date: 4/1/2013
Description: Samples were collected as part of the HyspIRI Airborne Campaign. 48 individual plants were sampled in three times in 2013 - spring  summer  and fall. The name of the sample includes a 1  2  or 3 which references a different individual of the species. Samples were taken to JPL and processed within 48 hours of collection. The same leaves were processed in the Nicolet and then measured using the ASD.
Measurement: Hemispherical reflectance
First Column: X
Second Column: Y
X Units: Wavelength (micrometers)
Y Units: Reflectance (percentage)
First X Value: 2.501
Last X Value: 15.387
Number of X Values: 1737
Additional Information: vegetation.shrub.baccharis.pilularis.tir.vh003.ucsb.nicolet.ancillary.txt

 2.5010	11.2020
 2.5030	11.1970
 2.5040	11.2380
 2.5050	11.0870
 2.5060	11.1380
 2.5070	11.1600
 2.5090	11.1010
 2.5100	11.0610
 2.5110	11.1160
 2.5120	11.1290
 2.5140	11.1970
 2.5150	11.2250
 2.5160	11.2540
 2.5170	11.1860
 2.5180	11.2000
 2.5200	11.1350
 2.5210	11.1570
 2.5220	11.0610
 2.5230	11.0580
 2.5250	11.0070
 2.5260	11.1120
 2.5270	11.2020
 2.5280	11.2670
 2.5290	11.1420
 2.5310	11.0360
 2.5320	10.9370
 2.5330	11.0070
 2.5340	11.0850
 2.5360	11.1260
 2.5370	11.0510
 2.5380	11.0660
 2.5390	11.0200
 2.5410	11.1260
 2.5420	11.1740
 2.5430	11.0680
 2.5440	10.9600
 2.5460	11.1140
 2.5470	11.1430
 2.5480	11.1460
 2.5490	11.0710
 2.5510	11.0860
 2.5520	11.1500
 2.5530	11.2600
 2.5540	11.0740
 2.5560	10.9420
 2.5570	10.9540
 2.5580	11.0990
 2.5590	11.1180
 2.5610	11.0930
 2.5620	11.0120
 2.5630	11.0680
 2.5640	11.1220
 2.5660	11.0860
 2.5670	10.9760
 2.5680	11.0300
 2.5700	11.0900
 2.5710	11.1150
 2.5720	11.0270
 2.5730	11.1080
 2.5750	11.2270
 2.5760	11.1830
 2.5770	11.0680
 2.5790	11.0660
 2.5800	11.1070
 2.5810	11.0950
 2.5820	10.9750
 2.5840	10.9570
 2.5850	11.0050
 2.5860	11.1780
 2.5880	11.1650
 2.5890	11.0970
 2.5900	10.9720
 2.5910	10.9150
 2.5930	10.9040
 2.5940	11.0100
 2.5950	11.0230
 2.5970	10.9850
 2.5980	10.8140
 2.5990	10.8150
 2.6000	10.8060
 2.6020	10.8160
 2.6030	10.7710
 2.6040	10.8660
 2.6060	10.9170
 2.6070	10.8630
 2.6080	10.7650
 2.6100	10.7920
 2.6110	10.8890
 2.6120	10.9270
 2.6140	10.7580
 2.6150	10.7470
 2.6160	10.7550
 2.6180	10.7110
 2.6190	10.6570
 2.6200	10.7070
 2.6220	10.5730
 2.6230	10.5220
 2.6240	10.4770
 2.6260	10.4930
 2.6270	10.4960
 2.6280	10.4800
 2.6300	10.4580
 2.6310	10.5300
 2.6320	10.5120
 2.6340	10.4190
 2.6350	10.3290
 2.6360	10.3760
 2.6380	10.3610
 2.6390	10.3280
 2.6400	10.2880
 2.6420	10.3080
 2.6430	10.2830
 2.6440	10.3870
 2.6460	10.2830
 2.6470	10.2750
 2.6480	10.2380
 2.6500	10.1620
 2.6510	10.1480
 2.6520	10.2590
 2.6540	10.2120
 2.6550	10.2170
 2.6560	10.1610
 2.6580	10.1060
 2.6590	10.0760
 2.6610	10.0820
 2.6620	10.0060
 2.6630	10.0540
 2.6650	10.0020
 2.6660	10.0220
 2.6670	 9.9710
 2.6690	 9.9530
 2.6700	 9.8610
 2.6720	 9.8360
 2.6730	 9.7920
 2.6740	 9.7510
 2.6760	 9.6980
 2.6770	 9.8060
 2.6780	 9.7900
 2.6800	 9.7280
 2.6810	 9.6270
 2.6830	 9.6010
 2.6840	 9.5740
 2.6850	 9.5900
 2.6870	 9.6180
 2.6880	 9.7010
 2.6900	 9.6830
 2.6910	 9.6380
 2.6920	 9.4930
 2.6940	 9.5840
 2.6950	 9.6770
 2.6970	 9.6760
 2.6980	 9.6100
 2.6990	 9.6090
 2.7010	 9.5570
 2.7020	 9.5590
 2.7040	 9.5200
 2.7050	 9.4240
 2.7060	 9.3990
 2.7080	 9.4590
 2.7090	 9.4230
 2.7110	 9.4430
 2.7120	 9.4460
 2.7130	 9.5030
 2.7150	 9.3850
 2.7160	 9.3080
 2.7180	 9.3710
 2.7190	 9.4930
 2.7210	 9.3850
 2.7220	 9.3930
 2.7230	 9.4240
 2.7250	 9.4290
 2.7260	 9.3590
 2.7280	 9.3700
 2.7290	 9.3840
 2.7310	 9.3620
 2.7320	 9.3050
 2.7330	 9.3680
 2.7350	 9.3230
 2.7360	 9.2980
 2.7380	 9.2500
 2.7390	 9.2850
 2.7410	 9.2340
 2.7420	 9.3250
 2.7440	 9.3530
 2.7450	 9.3910
 2.7470	 9.3890
 2.7480	 9.3770
 2.7490	 9.2660
 2.7510	 9.1730
 2.7520	 9.0350
 2.7540	 9.1730
 2.7550	 9.1830
 2.7570	 9.1500
 2.7580	 9.1800
 2.7600	 9.3380
 2.7610	 9.2860
 2.7630	 9.1920
 2.7640	 9.1280
 2.7660	 9.1290
 2.7670	 9.1860
 2.7680	 9.3660
 2.7700	 9.2090
 2.7710	 9.0900
 2.7730	 9.1200
 2.7740	 9.2200
 2.7760	 9.1620
 2.7770	 9.2040
 2.7790	 9.1670
 2.7800	 9.2040
 2.7820	 9.1830
 2.7830	 9.1370
 2.7850	 8.9860
 2.7860	 9.0460
 2.7880	 9.1990
 2.7890	 9.2300
 2.7910	 9.0430
 2.7920	 9.0380
 2.7940	 9.0720
 2.7950	 9.2300
 2.7970	 9.1340
 2.7980	 9.0720
 2.8000	 9.1040
 2.8010	 9.1990
 2.8030	 9.1250
 2.8040	 9.1080
 2.8060	 9.0360
 2.8070	 9.0570
 2.8090	 9.1030
 2.8110	 9.1800
 2.8120	 9.0500
 2.8140	 9.0630
 2.8150	 9.0970
 2.8170	 9.0740
 2.8180	 9.0290
 2.8200	 9.1130
 2.8210	 9.0560
 2.8230	 8.9330
 2.8240	 8.8350
 2.8260	 8.9020
 2.8270	 8.9660
 2.8290	 9.0420
 2.8300	 8.9830
 2.8320	 9.0670
 2.8340	 9.1410
 2.8350	 9.2050
 2.8370	 9.1370
 2.8380	 9.1020
 2.8400	 8.9930
 2.8410	 9.0390
 2.8430	 9.0380
 2.8440	 9.0290
 2.8460	 8.9630
 2.8480	 9.0320
 2.8490	 8.9540
 2.8510	 8.9240
 2.8520	 8.8940
 2.8540	 9.0450
 2.8550	 9.1320
 2.8570	 9.1160
 2.8590	 9.0280
 2.8600	 9.0440
 2.8620	 9.0460
 2.8630	 9.0950
 2.8650	 9.0810
 2.8660	 9.1620
 2.8680	 9.1410
 2.8700	 9.0930
 2.8710	 9.0950
 2.8730	 9.1340
 2.8740	 9.0790
 2.8760	 9.1000
 2.8780	 9.0080
 2.8790	 9.0900
 2.8810	 9.1860
 2.8820	 9.1970
 2.8840	 9.1280
 2.8860	 9.0760
 2.8870	 9.0070
 2.8890	 9.0420
 2.8900	 9.1050
 2.8920	 9.1850
 2.8940	 9.0900
 2.8950	 9.1030
 2.8970	 9.1520
 2.8980	 9.2400
 2.9000	 9.2410
 2.9020	 9.1920
 2.9030	 9.1590
 2.9050	 9.2260
 2.9070	 9.2650
 2.9080	 9.3420
 2.9100	 9.2880
 2.9120	 9.2160
 2.9130	 9.1020
 2.9150	 9.1940
 2.9160	 9.1280
 2.9180	 9.1230
 2.9200	 9.2100
 2.9210	 9.2290
 2.9230	 9.1150
 2.9250	 9.1410
 2.9260	 9.1000
 2.9280	 9.0600
 2.9300	 8.9860
 2.9310	 9.0270
 2.9330	 9.1600
 2.9350	 9.2480
 2.9360	 9.2030
 2.9380	 9.2330
 2.9400	 9.2120
 2.9410	 9.2270
 2.9430	 9.1890
 2.9450	 9.1910
 2.9460	 9.1120
 2.9480	 9.0830
 2.9500	 9.1070
 2.9510	 9.0970
 2.9530	 9.0290
 2.9550	 9.0020
 2.9560	 8.9910
 2.9580	 9.0970
 2.9600	 9.3130
 2.9610	 9.4650
 2.9630	 9.5180
 2.9650	 9.1680
 2.9660	 8.8510
 2.9680	 8.8100
 2.9700	 9.3860
 2.9720	 9.6170
 2.9730	 9.5260
 2.9750	 9.1920
 2.9770	 9.1470
 2.9780	 9.2350
 2.9800	 9.5690
 2.9820	 9.6270
 2.9840	 9.3440
 2.9850	 9.2360
 2.9870	 9.0670
 2.9890	 9.2320
 2.9900	 9.0750
 2.9920	 9.0380
 2.9940	 9.4890
 2.9960	 9.4820
 2.9970	 9.2200
 2.9990	 9.2120
 3.0010	 9.1560
 3.0030	 9.3280
 3.0040	 9.3700
 3.0060	 9.3310
 3.0080	 9.5160
 3.0100	 9.8120
 3.0110	 9.6310
 3.0130	 9.2290
 3.0150	 8.7680
 3.0170	 8.8180
 3.0180	 9.0060
 3.0200	 8.7910
 3.0220	 8.5300
 3.0240	 8.9840
 3.0250	 8.9410
 3.0270	 8.7140
 3.0290	 9.2160
 3.0310	 9.3700
 3.0320	 9.1320
 3.0340	 9.2660
 3.0360	 9.2870
 3.0380	 9.2110
 3.0400	 8.9090
 3.0410	 9.2760
 3.0430	 9.6080
 3.0450	 9.5280
 3.0470	 9.7050
 3.0480	 9.5440
 3.0500	 9.1530
 3.0520	 8.9520
 3.0540	 9.0470
 3.0560	 9.5550
 3.0570	 9.2570
 3.0590	 8.9170
 3.0610	 9.0740
 3.0630	 9.0110
 3.0650	 9.1560
 3.0660	 9.1780
 3.0680	 9.2270
 3.0700	 9.3100
 3.0720	 9.1000
 3.0740	 9.1920
 3.0760	 9.2230
 3.0770	 9.0290
 3.0790	 8.9920
 3.0810	 9.1470
 3.0830	 9.0550
 3.0850	 9.1330
 3.0870	 9.1440
 3.0880	 9.0100
 3.0900	 8.8820
 3.0920	 8.9140
 3.0940	 8.9100
 3.0960	 9.0060
 3.0980	 9.0800
 3.0990	 9.0760
 3.1010	 9.0540
 3.1030	 9.1520
 3.1050	 9.1440
 3.1070	 9.3310
 3.1090	 9.3660
 3.1110	 9.1960
 3.1120	 9.0810
 3.1140	 9.1780
 3.1160	 9.1710
 3.1180	 9.1300
 3.1200	 9.0460
 3.1220	 9.1020
 3.1240	 9.0790
 3.1260	 9.0900
 3.1270	 9.0800
 3.1290	 8.9910
 3.1310	 8.9780
 3.1330	 8.9560
 3.1350	 8.9800
 3.1370	 9.1210
 3.1390	 9.0880
 3.1410	 9.0810
 3.1430	 9.1210
 3.1450	 9.0630
 3.1460	 8.7040
 3.1480	 8.7300
 3.1500	 8.9650
 3.1520	 9.0850
 3.1540	 9.1260
 3.1560	 9.1170
 3.1580	 8.8680
 3.1600	 8.7740
 3.1620	 8.6850
 3.1640	 8.6560
 3.1660	 8.8170
 3.1680	 9.0420
 3.1700	 8.4600
 3.1710	 8.3020
 3.1730	 8.4700
 3.1750	 8.7940
 3.1770	 9.2540
 3.1790	 9.0620
 3.1810	 8.5010
 3.1830	 8.4930
 3.1850	 8.9960
 3.1870	 9.4930
 3.1890	 9.2020
 3.1910	 9.0610
 3.1930	 9.0140
 3.1950	 8.8370
 3.1970	 8.7770
 3.1990	 8.9620
 3.2010	 9.0670
 3.2030	 9.1350
 3.2050	 9.0030
 3.2070	 8.8350
 3.2090	 8.8590
 3.2110	 8.9460
 3.2130	 8.9170
 3.2150	 8.9200
 3.2170	 8.8400
 3.2190	 8.8610
 3.2210	 8.8420
 3.2230	 8.8730
 3.2250	 8.8520
 3.2270	 8.8620
 3.2290	 8.8690
 3.2310	 8.8190
 3.2330	 8.7250
 3.2350	 8.8170
 3.2370	 8.8150
 3.2390	 8.8430
 3.2410	 8.8960
 3.2430	 9.0170
 3.2450	 8.9710
 3.2470	 8.8440
 3.2490	 8.7060
 3.2510	 8.7130
 3.2530	 8.8440
 3.2550	 8.9950
 3.2570	 8.9080
 3.2590	 8.8900
 3.2610	 8.8310
 3.2630	 8.8730
 3.2650	 8.8230
 3.2670	 8.8310
 3.2690	 8.8860
 3.2720	 8.8710
 3.2740	 8.8480
 3.2760	 8.8830
 3.2780	 8.7540
 3.2800	 8.7720
 3.2820	 8.8410
 3.2840	 8.8290
 3.2860	 8.6720
 3.2880	 8.7110
 3.2900	 8.7170
 3.2920	 8.7770
 3.2940	 8.8020
 3.2960	 8.7760
 3.2990	 8.7200
 3.3010	 8.7220
 3.3030	 8.7390
 3.3050	 8.7800
 3.3070	 8.7130
 3.3090	 8.6630
 3.3110	 8.5720
 3.3130	 8.6550
 3.3150	 8.6980
 3.3180	 8.7340
 3.3200	 8.7160
 3.3220	 8.6200
 3.3240	 8.5570
 3.3260	 8.6650
 3.3280	 8.6780
 3.3300	 8.6550
 3.3330	 8.5900
 3.3350	 8.6720
 3.3370	 8.6340
 3.3390	 8.6130
 3.3410	 8.4820
 3.3430	 8.4260
 3.3450	 8.4470
 3.3480	 8.4470
 3.3500	 8.4660
 3.3520	 8.5810
 3.3540	 8.5330
 3.3560	 8.4820
 3.3580	 8.4340
 3.3610	 8.4130
 3.3630	 8.4440
 3.3650	 8.5550
 3.3670	 8.5310
 3.3690	 8.4430
 3.3720	 8.4030
 3.3740	 8.5070
 3.3760	 8.5440
 3.3780	 8.5930
 3.3800	 8.5600
 3.3830	 8.5470
 3.3850	 8.4940
 3.3870	 8.5540
 3.3890	 8.5460
 3.3910	 8.6190
 3.3940	 8.6370
 3.3960	 8.6710
 3.3980	 8.5810
 3.4000	 8.4750
 3.4020	 8.4770
 3.4050	 8.6620
 3.4070	 8.7450
 3.4090	 8.7300
 3.4110	 8.7510
 3.4140	 8.9350
 3.4160	 9.0380
 3.4180	 9.1320
 3.4200	 9.2150
 3.4230	 9.4180
 3.4250	 9.6540
 3.4270	 9.8620
 3.4290	 9.9690
 3.4320	 9.9490
 3.4340	 9.7230
 3.4360	 9.5020
 3.4390	 9.3210
 3.4410	 9.3840
 3.4430	 9.3320
 3.4450	 9.2770
 3.4480	 9.3650
 3.4500	 9.3120
 3.4520	 9.1410
 3.4550	 9.1880
 3.4570	 9.2340
 3.4590	 9.2440
 3.4620	 9.0870
 3.4640	 9.0810
 3.4660	 9.0790
 3.4680	 9.0730
 3.4710	 8.9700
 3.4730	 8.9380
 3.4750	 8.9880
 3.4780	 9.0840
 3.4800	 9.0950
 3.4820	 9.1090
 3.4850	 9.0880
 3.4870	 9.1410
 3.4890	 9.0070
 3.4920	 8.9820
 3.4940	 8.9950
 3.4970	 9.0130
 3.4990	 9.0280
 3.5010	 9.1740
 3.5040	 9.3070
 3.5060	 9.4760
 3.5080	 9.6430
 3.5110	 9.9520
 3.5130	 9.9380
 3.5160	 9.6950
 3.5180	 9.5040
 3.5200	 9.4650
 3.5230	 9.4160
 3.5250	 9.3940
 3.5270	 9.3590
 3.5300	 9.3540
 3.5320	 9.3460
 3.5350	 9.3580
 3.5370	 9.2630
 3.5400	 9.2970
 3.5420	 9.2810
 3.5440	 9.2230
 3.5470	 9.2380
 3.5490	 9.3010
 3.5520	 9.2350
 3.5540	 9.2680
 3.5570	 9.3100
 3.5590	 9.3230
 3.5610	 9.2740
 3.5640	 9.2440
 3.5660	 9.3100
 3.5690	 9.3790
 3.5710	 9.3120
 3.5740	 9.3100
 3.5760	 9.3350
 3.5790	 9.3270
 3.5810	 9.2200
 3.5840	 9.1410
 3.5860	 9.2460
 3.5890	 9.1500
 3.5910	 9.0200
 3.5930	 9.1390
 3.5960	 9.0620
 3.5980	 9.1270
 3.6010	 9.1840
 3.6030	 9.2030
 3.6060	 9.1960
 3.6080	 9.2420
 3.6110	 9.2420
 3.6140	 9.2610
 3.6160	 9.2640
 3.6190	 9.3110
 3.6210	 9.3050
 3.6240	 9.2940
 3.6260	 9.2830
 3.6290	 9.3030
 3.6310	 9.2620
 3.6340	 9.2720
 3.6360	 9.2860
 3.6390	 9.2790
 3.6410	 9.1760
 3.6440	 9.1590
 3.6470	 9.1870
 3.6490	 9.2600
 3.6520	 9.3030
 3.6540	 9.2920
 3.6570	 9.1930
 3.6590	 9.2570
 3.6620	 9.2450
 3.6650	 9.1840
 3.6670	 9.1960
 3.6700	 9.2340
 3.6720	 9.2370
 3.6750	 9.3220
 3.6780	 9.3460
 3.6800	 9.3530
 3.6830	 9.3570
 3.6850	 9.3350
 3.6880	 9.3000
 3.6910	 9.2990
 3.6930	 9.2650
 3.6960	 9.2640
 3.6990	 9.2970
 3.7010	 9.3400
 3.7040	 9.3060
 3.7060	 9.3770
 3.7090	 9.3280
 3.7120	 9.2700
 3.7140	 9.2620
 3.7170	 9.3100
 3.7200	 9.3260
 3.7220	 9.3770
 3.7250	 9.3590
 3.7280	 9.3380
 3.7300	 9.3240
 3.7330	 9.4100
 3.7360	 9.4420
 3.7390	 9.3680
 3.7410	 9.3640
 3.7440	 9.4390
 3.7470	 9.3690
 3.7490	 9.3360
 3.7520	 9.3360
 3.7550	 9.3390
 3.7580	 9.3690
 3.7600	 9.3860
 3.7630	 9.3460
 3.7660	 9.4000
 3.7680	 9.3880
 3.7710	 9.3510
 3.7740	 9.2840
 3.7770	 9.2780
 3.7790	 9.3750
 3.7820	 9.5350
 3.7850	 9.4840
 3.7880	 9.4450
 3.7900	 9.4190
 3.7930	 9.4450
 3.7960	 9.4200
 3.7990	 9.4010
 3.8020	 9.4510
 3.8040	 9.4940
 3.8070	 9.4650
 3.8100	 9.4430
 3.8130	 9.4090
 3.8160	 9.4420
 3.8180	 9.4620
 3.8210	 9.4780
 3.8240	 9.4490
 3.8270	 9.4310
 3.8300	 9.4000
 3.8330	 9.4370
 3.8350	 9.4730
 3.8380	 9.4820
 3.8410	 9.4420
 3.8440	 9.4640
 3.8470	 9.4450
 3.8500	 9.4790
 3.8520	 9.4420
 3.8550	 9.4450
 3.8580	 9.4820
 3.8610	 9.4770
 3.8640	 9.4630
 3.8670	 9.4780
 3.8700	 9.5000
 3.8730	 9.4500
 3.8750	 9.4180
 3.8780	 9.4670
 3.8810	 9.4800
 3.8840	 9.5620
 3.8870	 9.5640
 3.8900	 9.5690
 3.8930	 9.4880
 3.8960	 9.5220
 3.8990	 9.4690
 3.9020	 9.4620
 3.9050	 9.4730
 3.9080	 9.5180
 3.9110	 9.5090
 3.9140	 9.4890
 3.9160	 9.4530
 3.9190	 9.4330
 3.9220	 9.3940
 3.9250	 9.4320
 3.9280	 9.4860
 3.9310	 9.5150
 3.9340	 9.4720
 3.9370	 9.4840
 3.9400	 9.4670
 3.9430	 9.4690
 3.9460	 9.4300
 3.9490	 9.4730
 3.9520	 9.4770
 3.9550	 9.4880
 3.9580	 9.4640
 3.9610	 9.4340
 3.9640	 9.3700
 3.9670	 9.3860
 3.9700	 9.4400
 3.9730	 9.4780
 3.9770	 9.3930
 3.9800	 9.4400
 3.9830	 9.4540
 3.9860	 9.4490
 3.9890	 9.4490
 3.9920	 9.4710
 3.9950	 9.4570
 3.9980	 9.4830
 4.0010	 9.4310
 4.0040	 9.3450
 4.0070	 9.3070
 4.0100	 9.3760
 4.0130	 9.3590
 4.0170	 9.3700
 4.0200	 9.3720
 4.0230	 9.3580
 4.0260	 9.3330
 4.0290	 9.3240
 4.0320	 9.3150
 4.0350	 9.3890
 4.0380	 9.4030
 4.0420	 9.3760
 4.0450	 9.3480
 4.0480	 9.3760
 4.0510	 9.3430
 4.0540	 9.3670
 4.0570	 9.3720
 4.0610	 9.3570
 4.0640	 9.3220
 4.0670	 9.3560
 4.0700	 9.3730
 4.0730	 9.3810
 4.0770	 9.3390
 4.0800	 9.3900
 4.0830	 9.4480
 4.0860	 9.4650
 4.0890	 9.4260
 4.0930	 9.3580
 4.0960	 9.3220
 4.0990	 9.3340
 4.1020	 9.3270
 4.1060	 9.2940
 4.1090	 9.2920
 4.1120	 9.2960
 4.1150	 9.2010
 4.1190	 9.1870
 4.1220	 9.1960
 4.1250	 9.2440
 4.1280	 9.3090
 4.1320	 9.3370
 4.1350	 9.3210
 4.1380	 9.2810
 4.1420	 9.2490
 4.1450	 9.2450
 4.1480	 9.2120
 4.1520	 9.2340
 4.1550	 9.2370
 4.1580	 9.2490
 4.1620	 9.2610
 4.1650	 9.3230
 4.1680	 9.3380
 4.1720	 9.2510
 4.1750	 9.2010
 4.1780	 9.2220
 4.1820	 9.2210
 4.1850	 9.2150
 4.1890	 9.1910
 4.1920	 9.1860
 4.1950	 9.1640
 4.1990	 9.1960
 4.2020	 9.2110
 4.2060	 9.2330
 4.2090	 9.1580
 4.2120	 9.0210
 4.2160	 9.0910
 4.2190	 9.3010
 4.2230	 9.3930
 4.2260	 9.3360
 4.2300	 9.0330
 4.2330	 8.9540
 4.2360	 9.0820
 4.2400	 9.2040
 4.2430	 9.1500
 4.2470	 9.2120
 4.2500	 9.2630
 4.2540	 9.1570
 4.2570	 9.1290
 4.2610	 9.1540
 4.2640	 9.1290
 4.2680	 8.9700
 4.2710	 8.9010
 4.2750	 8.9280
 4.2780	 9.0110
 4.2820	 9.0720
 4.2850	 9.0660
 4.2890	 9.3160
 4.2930	 9.2510
 4.2960	 9.0660
 4.3000	 9.0370
 4.3030	 9.1070
 4.3070	 9.0610
 4.3100	 9.0330
 4.3140	 8.9980
 4.3180	 8.9960
 4.3210	 8.9700
 4.3250	 8.9180
 4.3280	 8.9360
 4.3320	 9.0410
 4.3360	 8.9940
 4.3390	 8.9120
 4.3430	 8.8800
 4.3470	 8.8630
 4.3500	 8.8550
 4.3540	 8.9050
 4.3570	 8.9280
 4.3610	 8.8960
 4.3650	 8.8970
 4.3680	 8.9170
 4.3720	 8.9010
 4.3760	 8.8780
 4.3800	 8.8640
 4.3830	 8.8740
 4.3870	 8.8590
 4.3910	 8.8860
 4.3940	 8.8960
 4.3980	 8.8660
 4.4020	 8.8360
 4.4060	 8.7870
 4.4090	 8.8150
 4.4130	 8.8660
 4.4170	 8.8160
 4.4210	 8.7780
 4.4240	 8.7630
 4.4280	 8.7440
 4.4320	 8.7550
 4.4360	 8.8020
 4.4400	 8.7700
 4.4430	 8.7210
 4.4470	 8.7210
 4.4510	 8.7600
 4.4550	 8.7590
 4.4590	 8.7020
 4.4620	 8.6710
 4.4660	 8.6860
 4.4700	 8.7300
 4.4740	 8.7220
 4.4780	 8.6680
 4.4820	 8.6890
 4.4860	 8.6960
 4.4900	 8.6990
 4.4930	 8.7120
 4.4970	 8.7220
 4.5010	 8.7170
 4.5050	 8.7130
 4.5090	 8.6740
 4.5130	 8.7020
 4.5170	 8.7350
 4.5210	 8.7220
 4.5250	 8.7290
 4.5290	 8.7060
 4.5330	 8.6800
 4.5370	 8.6710
 4.5410	 8.6280
 4.5450	 8.6060
 4.5490	 8.6040
 4.5530	 8.6120
 4.5570	 8.6220
 4.5610	 8.6490
 4.5650	 8.6500
 4.5690	 8.6550
 4.5730	 8.6510
 4.5770	 8.6510
 4.5810	 8.6230
 4.5850	 8.5510
 4.5890	 8.5580
 4.5930	 8.6190
 4.5970	 8.6100
 4.6010	 8.5960
 4.6050	 8.5910
 4.6090	 8.6460
 4.6130	 8.6730
 4.6170	 8.6430
 4.6220	 8.6250
 4.6260	 8.6010
 4.6300	 8.5900
 4.6340	 8.6490
 4.6380	 8.6530
 4.6420	 8.5880
 4.6460	 8.6080
 4.6510	 8.6390
 4.6550	 8.6080
 4.6590	 8.5640
 4.6630	 8.5170
 4.6670	 8.4980
 4.6720	 8.5560
 4.6760	 8.5730
 4.6800	 8.5530
 4.6840	 8.5560
 4.6880	 8.5230
 4.6930	 8.5530
 4.6970	 8.5860
 4.7010	 8.5550
 4.7050	 8.5160
 4.7100	 8.5390
 4.7140	 8.5860
 4.7180	 8.5520
 4.7230	 8.5080
 4.7270	 8.5300
 4.7310	 8.5670
 4.7360	 8.5450
 4.7400	 8.5050
 4.7440	 8.4980
 4.7490	 8.5070
 4.7530	 8.4780
 4.7570	 8.4890
 4.7620	 8.4990
 4.7660	 8.5030
 4.7700	 8.5110
 4.7750	 8.5260
 4.7790	 8.4920
 4.7840	 8.4310
 4.7880	 8.4490
 4.7920	 8.5190
 4.7970	 8.4950
 4.8010	 8.4340
 4.8060	 8.4080
 4.8100	 8.4650
 4.8150	 8.5360
 4.8190	 8.5450
 4.8240	 8.5310
 4.8280	 8.4880
 4.8330	 8.4370
 4.8370	 8.4630
 4.8420	 8.4880
 4.8460	 8.4860
 4.8510	 8.4470
 4.8550	 8.4460
 4.8600	 8.4510
 4.8640	 8.4750
 4.8690	 8.5070
 4.8730	 8.4960
 4.8780	 8.4590
 4.8830	 8.4790
 4.8870	 8.4810
 4.8920	 8.4420
 4.8960	 8.4360
 4.9010	 8.4960
 4.9060	 8.4980
 4.9100	 8.4830
 4.9150	 8.4630
 4.9200	 8.4600
 4.9240	 8.4400
 4.9290	 8.4240
 4.9340	 8.4460
 4.9380	 8.5230
 4.9430	 8.4680
 4.9480	 8.4180
 4.9530	 8.4310
 4.9570	 8.4000
 4.9620	 8.3780
 4.9670	 8.3830
 4.9720	 8.3940
 4.9760	 8.4570
 4.9810	 8.4860
 4.9860	 8.4680
 4.9910	 8.4400
 4.9960	 8.4620
 5.0000	 8.4630
 5.0050	 8.4580
 5.0100	 8.4010
 5.0150	 8.4190
 5.0200	 8.4740
 5.0250	 8.4490
 5.0290	 8.3760
 5.0340	 8.3630
 5.0390	 8.4240
 5.0440	 8.4840
 5.0490	 8.4690
 5.0540	 8.4440
 5.0590	 8.4810
 5.0640	 8.5290
 5.0690	 8.4720
 5.0740	 8.4500
 5.0790	 8.4310
 5.0840	 8.4480
 5.0890	 8.4650
 5.0940	 8.4260
 5.0990	 8.4580
 5.1040	 8.5250
 5.1090	 8.5210
 5.1140	 8.5120
 5.1190	 8.4900
 5.1240	 8.4850
 5.1290	 8.4530
 5.1340	 8.4480
 5.1390	 8.4570
 5.1440	 8.5130
 5.1490	 8.4620
 5.1540	 8.4500
 5.1600	 8.4420
 5.1650	 8.3690
 5.1700	 8.4090
 5.1750	 8.4940
 5.1800	 8.4850
 5.1850	 8.4970
 5.1910	 8.4720
 5.1960	 8.4520
 5.2010	 8.4350
 5.2060	 8.4990
 5.2110	 8.5520
 5.2170	 8.4830
 5.2220	 8.4400
 5.2270	 8.4980
 5.2320	 8.5060
 5.2380	 8.4950
 5.2430	 8.4540
 5.2480	 8.4890
 5.2540	 8.4760
 5.2590	 8.4700
 5.2640	 8.4940
 5.2700	 8.4560
 5.2750	 8.4370
 5.2800	 8.4800
 5.2860	 8.4610
 5.2910	 8.4200
 5.2970	 8.3940
 5.3020	 8.4400
 5.3070	 8.4220
 5.3130	 8.3870
 5.3180	 8.3500
 5.3240	 8.3690
 5.3290	 8.4190
 5.3350	 8.4560
 5.3400	 8.4520
 5.3460	 8.4950
 5.3510	 8.4360
 5.3570	 8.3860
 5.3620	 8.3650
 5.3680	 8.3960
 5.3730	 8.3930
 5.3790	 8.3830
 5.3850	 8.3560
 5.3900	 8.3940
 5.3960	 8.3850
 5.4010	 8.4100
 5.4070	 8.4600
 5.4130	 8.3990
 5.4180	 8.3520
 5.4240	 8.4140
 5.4300	 8.4010
 5.4350	 8.3450
