Name: Quercus agrifolia 1
Type: vegetation
Class: Tree
Genus: Quercus
Species: agrifolia
Sample No.: VH075
Owner: UCSB
Wavelength Range: VSWIR
Origin: 34.7153; -120.0601; WGS84
Collection Date: 4/21/2013
Description: Samples were collected as part of the HyspIRI Airborne Campaign. 48 individual plants were sampled in three times in 2013 - spring  summer  and fall. The name of the sample includes a 1  2  or 3 which references a different individual of the species. Samples were taken to JPL and processed within 48 hours of collection. The same leaves were processed in the Nicolet and then measured using the ASD.
Measurement: Bidirectional reflectance
First Column: X
Second Column: Y
X Units: Wavelength (micrometers)
Y Units: Reflectance (percentage)
First X Value: 0.35
Last X Value: 2.5
Number of X Values: 2151
Additional Information: vegetation.tree.quercus.agrifolia.vswir.vh075.ucsb.asd.ancillary.txt

 0.3500	 3.3840
 0.3510	 3.5150
 0.3520	 3.4380
 0.3530	 3.3420
 0.3540	 3.4140
 0.3550	 3.3560
 0.3560	 3.2140
 0.3570	 3.1510
 0.3580	 3.3330
 0.3590	 3.4350
 0.3600	 3.4080
 0.3610	 3.3040
 0.3620	 3.2680
 0.3630	 3.2800
 0.3640	 3.2930
 0.3650	 3.2700
 0.3660	 3.2360
 0.3670	 3.2240
 0.3680	 3.2660
 0.3690	 3.3700
 0.3700	 3.3180
 0.3710	 3.1830
 0.3720	 3.1120
 0.3730	 3.3410
 0.3740	 3.3210
 0.3750	 3.1880
 0.3760	 3.2150
 0.3770	 3.1890
 0.3780	 3.2260
 0.3790	 3.2940
 0.3800	 3.2340
 0.3810	 3.1700
 0.3820	 3.1660
 0.3830	 3.2160
 0.3840	 3.1800
 0.3850	 3.1420
 0.3860	 3.1220
 0.3870	 3.1190
 0.3880	 3.1300
 0.3890	 3.1480
 0.3900	 3.1440
 0.3910	 3.0670
 0.3920	 3.1170
 0.3930	 3.1730
 0.3940	 3.1290
 0.3950	 3.0960
 0.3960	 3.1210
 0.3970	 3.1380
 0.3980	 3.0580
 0.3990	 3.0800
 0.4000	 3.0990
 0.4010	 3.0750
 0.4020	 3.0910
 0.4030	 3.1120
 0.4040	 3.1010
 0.4050	 3.0490
 0.4060	 3.0520
 0.4070	 3.0890
 0.4080	 3.1180
 0.4090	 3.0960
 0.4100	 3.1100
 0.4110	 3.1400
 0.4120	 3.1630
 0.4130	 3.1790
 0.4140	 3.1780
 0.4150	 3.1820
 0.4160	 3.2070
 0.4170	 3.2030
 0.4180	 3.1900
 0.4190	 3.1980
 0.4200	 3.2540
 0.4210	 3.2590
 0.4220	 3.2670
 0.4230	 3.3130
 0.4240	 3.3050
 0.4250	 3.2950
 0.4260	 3.3020
 0.4270	 3.3240
 0.4280	 3.3190
 0.4290	 3.3210
 0.4300	 3.3430
 0.4310	 3.3530
 0.4320	 3.3720
 0.4330	 3.3920
 0.4340	 3.4090
 0.4350	 3.4460
 0.4360	 3.4660
 0.4370	 3.4640
 0.4380	 3.4620
 0.4390	 3.4520
 0.4400	 3.4430
 0.4410	 3.4450
 0.4420	 3.4660
 0.4430	 3.4870
 0.4440	 3.5000
 0.4450	 3.5080
 0.4460	 3.5340
 0.4470	 3.5560
 0.4480	 3.5660
 0.4490	 3.5730
 0.4500	 3.5850
 0.4510	 3.5950
 0.4520	 3.6000
 0.4530	 3.6100
 0.4540	 3.6170
 0.4550	 3.6300
 0.4560	 3.6660
 0.4570	 3.6600
 0.4580	 3.6450
 0.4590	 3.6480
 0.4600	 3.6710
 0.4610	 3.6810
 0.4620	 3.6830
 0.4630	 3.6930
 0.4640	 3.6980
 0.4650	 3.6980
 0.4660	 3.6980
 0.4670	 3.7110
 0.4680	 3.7010
 0.4690	 3.6950
 0.4700	 3.7120
 0.4710	 3.7140
 0.4720	 3.7070
 0.4730	 3.7040
 0.4740	 3.7140
 0.4750	 3.7110
 0.4760	 3.7140
 0.4770	 3.7290
 0.4780	 3.7350
 0.4790	 3.7370
 0.4800	 3.7370
 0.4810	 3.7380
 0.4820	 3.7480
 0.4830	 3.7570
 0.4840	 3.7630
 0.4850	 3.7630
 0.4860	 3.7690
 0.4870	 3.7810
 0.4880	 3.7960
 0.4890	 3.8090
 0.4900	 3.8150
 0.4910	 3.8230
 0.4920	 3.8450
 0.4930	 3.8640
 0.4940	 3.8810
 0.4950	 3.8960
 0.4960	 3.9060
 0.4970	 3.9260
 0.4980	 3.9530
 0.4990	 3.9790
 0.5000	 4.0050
 0.5010	 4.0410
 0.5020	 4.0840
 0.5030	 4.1190
 0.5040	 4.1560
 0.5050	 4.2020
 0.5060	 4.2590
 0.5070	 4.3000
 0.5080	 4.3570
 0.5090	 4.4290
 0.5100	 4.5030
 0.5110	 4.5780
 0.5120	 4.6570
 0.5130	 4.7430
 0.5140	 4.8310
 0.5150	 4.9380
 0.5160	 5.0520
 0.5170	 5.1600
 0.5180	 5.2760
 0.5190	 5.3990
 0.5200	 5.5280
 0.5210	 5.6640
 0.5220	 5.7950
 0.5230	 5.9250
 0.5240	 6.0580
 0.5250	 6.1860
 0.5260	 6.3070
 0.5270	 6.4240
 0.5280	 6.5410
 0.5290	 6.6480
 0.5300	 6.7430
 0.5310	 6.8320
 0.5320	 6.9190
 0.5330	 7.0030
 0.5340	 7.0780
 0.5350	 7.1420
 0.5360	 7.2000
 0.5370	 7.2500
 0.5380	 7.2970
 0.5390	 7.3490
 0.5400	 7.3930
 0.5410	 7.4410
 0.5420	 7.4980
 0.5430	 7.5430
 0.5440	 7.5820
 0.5450	 7.6180
 0.5460	 7.6520
 0.5470	 7.6670
 0.5480	 7.6790
 0.5490	 7.6940
 0.5500	 7.7110
 0.5510	 7.7300
 0.5520	 7.7410
 0.5530	 7.7390
 0.5540	 7.7300
 0.5550	 7.7120
 0.5560	 7.6820
 0.5570	 7.6410
 0.5580	 7.5910
 0.5590	 7.5380
 0.5600	 7.4860
 0.5610	 7.4320
 0.5620	 7.3740
 0.5630	 7.3150
 0.5640	 7.2560
 0.5650	 7.1870
 0.5660	 7.1070
 0.5670	 7.0190
 0.5680	 6.9270
 0.5690	 6.8340
 0.5700	 6.7420
 0.5710	 6.6530
 0.5720	 6.5700
 0.5730	 6.4940
 0.5740	 6.4300
 0.5750	 6.3790
 0.5760	 6.3280
 0.5770	 6.2750
 0.5780	 6.2230
 0.5790	 6.1700
 0.5800	 6.1220
 0.5810	 6.0800
 0.5820	 6.0440
 0.5830	 6.0050
 0.5840	 5.9590
 0.5850	 5.9100
 0.5860	 5.8680
 0.5870	 5.8210
 0.5880	 5.7740
 0.5890	 5.7340
 0.5900	 5.7150
 0.5910	 5.7040
 0.5920	 5.6980
 0.5930	 5.6960
 0.5940	 5.6890
 0.5950	 5.6740
 0.5960	 5.6540
 0.5970	 5.6390
 0.5980	 5.6170
 0.5990	 5.5940
 0.6000	 5.5760
 0.6010	 5.5550
 0.6020	 5.5320
 0.6030	 5.5070
 0.6040	 5.4800
 0.6050	 5.4580
 0.6060	 5.4330
 0.6070	 5.3990
 0.6080	 5.3640
 0.6090	 5.3300
 0.6100	 5.3010
 0.6110	 5.2770
 0.6120	 5.2360
 0.6130	 5.1840
 0.6140	 5.1330
 0.6150	 5.0940
 0.6160	 5.0550
 0.6170	 5.0190
 0.6180	 4.9910
 0.6190	 4.9620
 0.6200	 4.9380
 0.6210	 4.9180
 0.6220	 4.8970
 0.6230	 4.8760
 0.6240	 4.8630
 0.6250	 4.8550
 0.6260	 4.8410
 0.6270	 4.8330
 0.6280	 4.8280
 0.6290	 4.8240
 0.6300	 4.8250
 0.6310	 4.8230
 0.6320	 4.8150
 0.6330	 4.8070
 0.6340	 4.7920
 0.6350	 4.7750
 0.6360	 4.7570
 0.6370	 4.7350
 0.6380	 4.7090
 0.6390	 4.6790
 0.6400	 4.6450
 0.6410	 4.6070
 0.6420	 4.5700
 0.6430	 4.5350
 0.6440	 4.4990
 0.6450	 4.4610
 0.6460	 4.4260
 0.6470	 4.3940
 0.6480	 4.3630
 0.6490	 4.3360
 0.6500	 4.3120
 0.6510	 4.2880
 0.6520	 4.2720
 0.6530	 4.2570
 0.6540	 4.2360
 0.6550	 4.2120
 0.6560	 4.1890
 0.6570	 4.1670
 0.6580	 4.1450
 0.6590	 4.1160
 0.6600	 4.0850
 0.6610	 4.0560
 0.6620	 4.0270
 0.6630	 4.0000
 0.6640	 3.9740
 0.6650	 3.9490
 0.6660	 3.9320
 0.6670	 3.9160
 0.6680	 3.9030
 0.6690	 3.8990
 0.6700	 3.8980
 0.6710	 3.8980
 0.6720	 3.9010
 0.6730	 3.9040
 0.6740	 3.9120
 0.6750	 3.9260
 0.6760	 3.9450
 0.6770	 3.9640
 0.6780	 3.9850
 0.6790	 4.0090
 0.6800	 4.0390
 0.6810	 4.0740
 0.6820	 4.1140
 0.6830	 4.1580
 0.6840	 4.2090
 0.6850	 4.2660
 0.6860	 4.3320
 0.6870	 4.4080
 0.6880	 4.4940
 0.6890	 4.6010
 0.6900	 4.7310
 0.6910	 4.8870
 0.6920	 5.0790
 0.6930	 5.3080
 0.6940	 5.5750
 0.6950	 5.8810
 0.6960	 6.2350
 0.6970	 6.6380
 0.6980	 7.0870
 0.6990	 7.5750
 0.7000	 8.1060
 0.7010	 8.6760
 0.7020	 9.2710
 0.7030	 9.8920
 0.7040	10.5340
 0.7050	11.1900
 0.7060	11.8670
 0.7070	12.5490
 0.7080	13.2370
 0.7090	13.9440
 0.7100	14.6560
 0.7110	15.3800
 0.7120	16.1150
 0.7130	16.8500
 0.7140	17.5920
 0.7150	18.3420
 0.7160	19.0960
 0.7170	19.8530
 0.7180	20.6140
 0.7190	21.3760
 0.7200	22.1310
 0.7210	22.8810
 0.7220	23.6300
 0.7230	24.3750
 0.7240	25.1070
 0.7250	25.8270
 0.7260	26.5250
 0.7270	27.1970
 0.7280	27.8680
 0.7290	28.5130
 0.7300	29.1350
 0.7310	29.7370
 0.7320	30.3060
 0.7330	30.8540
 0.7340	31.3830
 0.7350	31.8870
 0.7360	32.3670
 0.7370	32.8200
 0.7380	33.2460
 0.7390	33.6510
 0.7400	34.0310
 0.7410	34.3890
 0.7420	34.7310
 0.7430	35.0440
 0.7440	35.3380
 0.7450	35.6130
 0.7460	35.8630
 0.7470	36.0930
 0.7480	36.3060
 0.7490	36.5030
 0.7500	36.6830
 0.7510	36.8520
 0.7520	37.0070
 0.7530	37.1460
 0.7540	37.2740
 0.7550	37.3870
 0.7560	37.4900
 0.7570	37.5910
 0.7580	37.6860
 0.7590	37.7690
 0.7600	37.8420
 0.7610	37.9120
 0.7620	37.9700
 0.7630	38.0220
 0.7640	38.0760
 0.7650	38.1240
 0.7660	38.1680
 0.7670	38.2060
 0.7680	38.2420
 0.7690	38.2770
 0.7700	38.3100
 0.7710	38.3390
 0.7720	38.3620
 0.7730	38.3820
 0.7740	38.4060
 0.7750	38.4350
 0.7760	38.4540
 0.7770	38.4770
 0.7780	38.5010
 0.7790	38.5190
 0.7800	38.5330
 0.7810	38.5510
 0.7820	38.5740
 0.7830	38.5920
 0.7840	38.6070
 0.7850	38.6250
 0.7860	38.6470
 0.7870	38.6600
 0.7880	38.6730
 0.7890	38.6890
 0.7900	38.7080
 0.7910	38.7230
 0.7920	38.7370
 0.7930	38.7510
 0.7940	38.7660
 0.7950	38.7770
 0.7960	38.7900
 0.7970	38.8080
 0.7980	38.8200
 0.7990	38.8310
 0.8000	38.8420
 0.8010	38.8520
 0.8020	38.8600
 0.8030	38.8690
 0.8040	38.8800
 0.8050	38.8950
 0.8060	38.9070
 0.8070	38.9140
 0.8080	38.9210
 0.8090	38.9400
 0.8100	38.9460
 0.8110	38.9520
 0.8120	38.9640
 0.8130	38.9710
 0.8140	38.9780
 0.8150	38.9870
 0.8160	38.9990
 0.8170	39.0080
 0.8180	39.0180
 0.8190	39.0270
 0.8200	39.0370
 0.8210	39.0450
 0.8220	39.0600
 0.8230	39.0750
 0.8240	39.0710
 0.8250	39.0790
 0.8260	39.0900
 0.8270	39.0990
 0.8280	39.1050
 0.8290	39.1090
 0.8300	39.1160
 0.8310	39.1270
 0.8320	39.1360
 0.8330	39.1490
 0.8340	39.1600
 0.8350	39.1610
 0.8360	39.1700
 0.8370	39.1790
 0.8380	39.1860
 0.8390	39.1940
 0.8400	39.2060
 0.8410	39.2180
 0.8420	39.2290
 0.8430	39.2430
 0.8440	39.2510
 0.8450	39.2620
 0.8460	39.2820
 0.8470	39.2950
 0.8480	39.3050
 0.8490	39.3170
 0.8500	39.3340
 0.8510	39.3440
 0.8520	39.3560
 0.8530	39.3710
 0.8540	39.3850
 0.8550	39.3900
 0.8560	39.3990
 0.8570	39.4140
 0.8580	39.4280
 0.8590	39.4440
 0.8600	39.4580
 0.8610	39.4650
 0.8620	39.4700
 0.8630	39.4710
 0.8640	39.4780
 0.8650	39.4970
 0.8660	39.5160
 0.8670	39.5280
 0.8680	39.5380
 0.8690	39.5520
 0.8700	39.5690
 0.8710	39.5760
 0.8720	39.5760
 0.8730	39.5850
 0.8740	39.5980
 0.8750	39.6100
 0.8760	39.6190
 0.8770	39.6300
 0.8780	39.6430
 0.8790	39.6560
 0.8800	39.6660
 0.8810	39.6720
 0.8820	39.6790
 0.8830	39.6860
 0.8840	39.6920
 0.8850	39.7010
 0.8860	39.7050
 0.8870	39.7110
 0.8880	39.7260
 0.8890	39.7430
 0.8900	39.7490
 0.8910	39.7460
 0.8920	39.7440
 0.8930	39.7490
 0.8940	39.7550
 0.8950	39.7630
 0.8960	39.7770
 0.8970	39.7820
 0.8980	39.7890
 0.8990	39.7950
 0.9000	39.7820
 0.9010	39.7870
 0.9020	39.7970
 0.9030	39.8070
 0.9040	39.8260
 0.9050	39.8350
 0.9060	39.8440
 0.9070	39.8540
 0.9080	39.8480
 0.9090	39.8480
 0.9100	39.8530
 0.9110	39.8550
 0.9120	39.8570
 0.9130	39.8650
 0.9140	39.8780
 0.9150	39.8890
 0.9160	39.8910
 0.9170	39.8840
 0.9180	39.8800
 0.9190	39.8900
 0.9200	39.8880
 0.9210	39.8890
 0.9220	39.8930
 0.9230	39.8940
 0.9240	39.8930
 0.9250	39.8890
 0.9260	39.8820
 0.9270	39.8730
 0.9280	39.8800
 0.9290	39.8840
 0.9300	39.8770
 0.9310	39.8600
 0.9320	39.8450
 0.9330	39.8410
 0.9340	39.8400
 0.9350	39.8210
 0.9360	39.8140
 0.9370	39.8070
 0.9380	39.7950
 0.9390	39.7900
 0.9400	39.7670
 0.9410	39.7500
 0.9420	39.7510
 0.9430	39.7340
 0.9440	39.7090
 0.9450	39.6870
 0.9460	39.6680
 0.9470	39.6350
 0.9480	39.6180
 0.9490	39.6000
 0.9500	39.5640
 0.9510	39.5230
 0.9520	39.4960
 0.9530	39.4700
 0.9540	39.4310
 0.9550	39.3900
 0.9560	39.3540
 0.9570	39.3210
 0.9580	39.2820
 0.9590	39.2310
 0.9600	39.1980
 0.9610	39.1760
 0.9620	39.1440
 0.9630	39.1110
 0.9640	39.0780
 0.9650	39.0560
 0.9660	39.0540
 0.9670	39.0370
 0.9680	39.0240
 0.9690	39.0210
 0.9700	39.0260
 0.9710	39.0200
 0.9720	39.0150
 0.9730	39.0060
 0.9740	38.9900
 0.9750	38.9910
 0.9760	39.0010
 0.9770	39.0140
 0.9780	39.0240
 0.9790	38.9980
 0.9800	38.9860
 0.9810	38.9980
 0.9820	39.0170
 0.9830	39.0310
 0.9840	39.0400
 0.9850	39.0440
 0.9860	39.0480
 0.9870	39.0640
 0.9880	39.0920
 0.9890	39.1080
 0.9900	39.1010
 0.9910	39.1320
 0.9920	39.1410
 0.9930	39.1500
 0.9940	39.1590
 0.9950	39.1680
 0.9960	39.1770
 0.9970	39.1860
 0.9980	39.1950
 0.9990	39.2040
 1.0000	39.2120
 1.0010	39.2210
 1.0020	39.2300
 1.0030	39.2390
 1.0040	39.2480
 1.0050	39.2570
 1.0060	39.2660
 1.0070	39.2750
 1.0080	39.2840
 1.0090	39.2930
 1.0100	39.2930
 1.0110	39.3060
 1.0120	39.3270
 1.0130	39.3580
 1.0140	39.3820
 1.0150	39.4060
 1.0160	39.4290
 1.0170	39.4520
 1.0180	39.4670
 1.0190	39.4860
 1.0200	39.5080
 1.0210	39.5260
 1.0220	39.5470
 1.0230	39.5670
 1.0240	39.5870
 1.0250	39.6060
 1.0260	39.6230
 1.0270	39.6420
 1.0280	39.6580
 1.0290	39.6770
 1.0300	39.6970
 1.0310	39.7170
 1.0320	39.7400
 1.0330	39.7580
 1.0340	39.7730
 1.0350	39.7940
 1.0360	39.8090
 1.0370	39.8220
 1.0380	39.8350
 1.0390	39.8470
 1.0400	39.8620
 1.0410	39.8790
 1.0420	39.8940
 1.0430	39.9100
 1.0440	39.9260
 1.0450	39.9410
 1.0460	39.9560
 1.0470	39.9730
 1.0480	39.9870
 1.0490	39.9970
 1.0500	40.0100
 1.0510	40.0250
 1.0520	40.0410
 1.0530	40.0550
 1.0540	40.0710
 1.0550	40.0830
 1.0560	40.0900
 1.0570	40.1010
 1.0580	40.1120
 1.0590	40.1230
 1.0600	40.1360
 1.0610	40.1460
 1.0620	40.1500
 1.0630	40.1600
 1.0640	40.1720
 1.0650	40.1810
 1.0660	40.1910
 1.0670	40.2010
 1.0680	40.2090
 1.0690	40.2130
 1.0700	40.2190
 1.0710	40.2250
 1.0720	40.2300
 1.0730	40.2330
 1.0740	40.2390
 1.0750	40.2490
 1.0760	40.2560
 1.0770	40.2640
 1.0780	40.2690
 1.0790	40.2720
 1.0800	40.2750
 1.0810	40.2770
 1.0820	40.2810
 1.0830	40.2860
 1.0840	40.2890
 1.0850	40.2940
 1.0860	40.2980
 1.0870	40.2990
 1.0880	40.2960
 1.0890	40.2980
 1.0900	40.3000
 1.0910	40.3000
 1.0920	40.3030
 1.0930	40.3010
 1.0940	40.2960
 1.0950	40.2920
 1.0960	40.2850
 1.0970	40.2830
 1.0980	40.2860
 1.0990	40.2840
 1.1000	40.2860
 1.1010	40.2830
 1.1020	40.2760
 1.1030	40.2670
 1.1040	40.2610
 1.1050	40.2550
 1.1060	40.2490
 1.1070	40.2460
 1.1080	40.2400
 1.1090	40.2340
 1.1100	40.2260
 1.1110	40.2160
 1.1120	40.2050
 1.1130	40.1900
 1.1140	40.1780
 1.1150	40.1650
 1.1160	40.1510
 1.1170	40.1410
 1.1180	40.1250
 1.1190	40.1060
 1.1200	40.0860
 1.1210	40.0630
 1.1220	40.0370
 1.1230	40.0100
 1.1240	39.9820
 1.1250	39.9490
 1.1260	39.9150
 1.1270	39.8730
 1.1280	39.8280
 1.1290	39.7760
 1.1300	39.7180
 1.1310	39.6560
 1.1320	39.5900
 1.1330	39.5190
 1.1340	39.4430
 1.1350	39.3630
 1.1360	39.2790
 1.1370	39.1900
 1.1380	39.0950
 1.1390	38.9970
 1.1400	38.8910
 1.1410	38.7840
 1.1420	38.6750
 1.1430	38.5630
 1.1440	38.4500
 1.1450	38.3340
 1.1460	38.2220
 1.1470	38.1080
 1.1480	37.9990
 1.1490	37.8920
 1.1500	37.7900
 1.1510	37.6900
 1.1520	37.5960
 1.1530	37.5040
 1.1540	37.4200
 1.1550	37.3420
 1.1560	37.2710
 1.1570	37.2080
 1.1580	37.1510
 1.1590	37.0970
 1.1600	37.0470
 1.1610	37.0000
 1.1620	36.9570
 1.1630	36.9210
 1.1640	36.8870
 1.1650	36.8550
 1.1660	36.8270
 1.1670	36.8020
 1.1680	36.7810
 1.1690	36.7610
 1.1700	36.7470
 1.1710	36.7310
 1.1720	36.7160
 1.1730	36.7020
 1.1740	36.6890
 1.1750	36.6740
 1.1760	36.6570
 1.1770	36.6390
 1.1780	36.6190
 1.1790	36.5990
 1.1800	36.5800
 1.1810	36.5600
 1.1820	36.5400
 1.1830	36.5210
 1.1840	36.5020
 1.1850	36.4840
 1.1860	36.4670
 1.1870	36.4510
 1.1880	36.4350
 1.1890	36.4200
 1.1900	36.4070
 1.1910	36.3960
 1.1920	36.3850
 1.1930	36.3740
 1.1940	36.3660
 1.1950	36.3590
 1.1960	36.3530
 1.1970	36.3500
 1.1980	36.3480
 1.1990	36.3440
 1.2000	36.3440
 1.2010	36.3470
 1.2020	36.3540
 1.2030	36.3600
 1.2040	36.3680
 1.2050	36.3780
 1.2060	36.3880
 1.2070	36.4020
 1.2080	36.4180
 1.2090	36.4340
 1.2100	36.4510
 1.2110	36.4710
 1.2120	36.4930
 1.2130	36.5190
 1.2140	36.5490
 1.2150	36.5820
 1.2160	36.6180
 1.2170	36.6570
 1.2180	36.6960
 1.2190	36.7360
 1.2200	36.7790
 1.2210	36.8230
 1.2220	36.8700
 1.2230	36.9170
 1.2240	36.9630
 1.2250	37.0090
 1.2260	37.0510
 1.2270	37.0930
 1.2280	37.1350
 1.2290	37.1750
 1.2300	37.2160
 1.2310	37.2570
 1.2320	37.2950
 1.2330	37.3300
 1.2340	37.3630
 1.2350	37.3910
 1.2360	37.4220
 1.2370	37.4530
 1.2380	37.4830
 1.2390	37.5160
 1.2400	37.5470
 1.2410	37.5760
 1.2420	37.6020
 1.2430	37.6280
 1.2440	37.6520
 1.2450	37.6760
 1.2460	37.7030
 1.2470	37.7260
 1.2480	37.7460
 1.2490	37.7680
 1.2500	37.7880
 1.2510	37.8080
 1.2520	37.8300
 1.2530	37.8490
 1.2540	37.8680
 1.2550	37.8850
 1.2560	37.9010
 1.2570	37.9180
 1.2580	37.9320
 1.2590	37.9460
 1.2600	37.9600
 1.2610	37.9730
 1.2620	37.9850
 1.2630	37.9970
 1.2640	38.0070
 1.2650	38.0130
 1.2660	38.0180
 1.2670	38.0220
 1.2680	38.0250
 1.2690	38.0300
 1.2700	38.0340
 1.2710	38.0370
 1.2720	38.0370
 1.2730	38.0370
 1.2740	38.0370
 1.2750	38.0350
 1.2760	38.0310
 1.2770	38.0280
 1.2780	38.0240
 1.2790	38.0180
 1.2800	38.0130
 1.2810	38.0080
 1.2820	38.0000
 1.2830	37.9910
 1.2840	37.9810
 1.2850	37.9690
 1.2860	37.9560
 1.2870	37.9420
 1.2880	37.9290
 1.2890	37.9150
 1.2900	37.8990
 1.2910	37.8840
 1.2920	37.8680
 1.2930	37.8500
 1.2940	37.8320
 1.2950	37.8090
 1.2960	37.7850
 1.2970	37.7600
 1.2980	37.7320
 1.2990	37.7030
 1.3000	37.6720
 1.3010	37.6380
 1.3020	37.6020
 1.3030	37.5650
 1.3040	37.5210
 1.3050	37.4770
 1.3060	37.4320
 1.3070	37.3850
 1.3080	37.3360
 1.3090	37.2840
 1.3100	37.2280
 1.3110	37.1680
 1.3120	37.1060
 1.3130	37.0400
 1.3140	36.9730
 1.3150	36.9020
 1.3160	36.8290
 1.3170	36.7540
 1.3180	36.6760
 1.3190	36.5930
 1.3200	36.5050
 1.3210	36.4120
 1.3220	36.3190
 1.3230	36.2210
 1.3240	36.1190
 1.3250	36.0170
 1.3260	35.9120
 1.3270	35.8040
 1.3280	35.6970
 1.3290	35.5850
 1.3300	35.4710
 1.3310	35.3540
 1.3320	35.2350
 1.3330	35.1170
 1.3340	34.9950
 1.3350	34.8700
 1.3360	34.7450
 1.3370	34.6180
 1.3380	34.4900
 1.3390	34.3620
 1.3400	34.2350
 1.3410	34.1080
 1.3420	33.9820
 1.3430	33.8570
 1.3440	33.7360
 1.3450	33.6140
 1.3460	33.4930
 1.3470	33.3740
 1.3480	33.2550
 1.3490	33.1380
 1.3500	33.0230
 1.3510	32.9080
 1.3520	32.7940
 1.3530	32.6810
 1.3540	32.5680
 1.3550	32.4540
 1.3560	32.3400
 1.3570	32.2260
 1.3580	32.1110
 1.3590	31.9940
 1.3600	31.8750
 1.3610	31.7510
 1.3620	31.6240
 1.3630	31.4940
 1.3640	31.3570
 1.3650	31.2140
 1.3660	31.0660
 1.3670	30.9100
 1.3680	30.7470
 1.3690	30.5760
 1.3700	30.3910
 1.3710	30.1970
 1.3720	29.9890
 1.3730	29.7670
 1.3740	29.5340
 1.3750	29.2850
 1.3760	29.0150
 1.3770	28.7280
 1.3780	28.4180
 1.3790	28.0880
 1.3800	27.7380
 1.3810	27.3640
 1.3820	26.9730
 1.3830	26.5630
 1.3840	26.1350
 1.3850	25.6890
 1.3860	25.2290
 1.3870	24.7470
 1.3880	24.2630
 1.3890	23.7660
 1.3900	23.2590
 1.3910	22.7520
 1.3920	22.2400
 1.3930	21.7220
 1.3940	21.2070
 1.3950	20.6920
 1.3960	20.1840
 1.3970	19.6860
 1.3980	19.1970
 1.3990	18.7240
 1.4000	18.2640
 1.4010	17.8160
 1.4020	17.3860
 1.4030	16.9690
 1.4040	16.5700
 1.4050	16.1900
 1.4060	15.8270
 1.4070	15.4860
 1.4080	15.1630
 1.4090	14.8590
 1.4100	14.5730
 1.4110	14.3030
 1.4120	14.0510
 1.4130	13.8160
 1.4140	13.5970
 1.4150	13.3980
 1.4160	13.2120
 1.4170	13.0400
 1.4180	12.8810
 1.4190	12.7320
 1.4200	12.5960
 1.4210	12.4700
 1.4220	12.3530
 1.4230	12.2480
 1.4240	12.1520
 1.4250	12.0620
 1.4260	11.9830
 1.4270	11.9090
 1.4280	11.8420
 1.4290	11.7810
 1.4300	11.7280
 1.4310	11.6790
 1.4320	11.6370
 1.4330	11.5980
 1.4340	11.5640
 1.4350	11.5340
 1.4360	11.5090
 1.4370	11.4870
 1.4380	11.4700
 1.4390	11.4560
 1.4400	11.4460
 1.4410	11.4390
 1.4420	11.4350
 1.4430	11.4330
 1.4440	11.4320
 1.4450	11.4330
 1.4460	11.4350
 1.4470	11.4400
 1.4480	11.4470
 1.4490	11.4550
 1.4500	11.4650
 1.4510	11.4750
 1.4520	11.4870
 1.4530	11.5000
 1.4540	11.5150
 1.4550	11.5310
 1.4560	11.5490
 1.4570	11.5690
 1.4580	11.5920
 1.4590	11.6170
 1.4600	11.6460
 1.4610	11.6780
 1.4620	11.7130
 1.4630	11.7520
 1.4640	11.7940
 1.4650	11.8390
 1.4660	11.8890
 1.4670	11.9420
 1.4680	12.0000
 1.4690	12.0620
 1.4700	12.1280
