Name: Brachychiton discolor
Type: vegetation
Class: Tree
Genus: Brachychiton
Species: discolor
Sample No.: JPL102
Owner: JPL
Wavelength Range: VSWIR
Origin: 34.12615; - 118.11507; WGS84
Collection Date: 2/2/2016
Description: Samples were collected at the Huntington Garden in San Marino California as part of a JPL Subcontract studying HyTES imagery. Samples were taken to JPL and processed within 48 hours of collection. The same leaves were processed in the Nicolet and then measured using the ASD.
Measurement: Bidirectional reflectance
First Column: X
Second Column: Y
X Units: Wavelength (micrometer)
Y Units: Reflectance (percentage)
First X Value: 0.35
Last X Value: 2.5
Number of X Values: 2151
Additional Information: 

 0.3500	14.8430
 0.3510	12.9720
 0.3520	13.5370
 0.3530	14.9970
 0.3540	15.4610
 0.3550	15.2920
 0.3560	14.6510
 0.3570	13.7040
 0.3580	12.7520
 0.3590	13.4980
 0.3600	13.6930
 0.3610	12.9640
 0.3620	14.0450
 0.3630	14.1780
 0.3640	13.9850
 0.3650	14.3540
 0.3660	13.8170
 0.3670	13.5180
 0.3680	13.7350
 0.3690	14.0510
 0.3700	13.8660
 0.3710	13.9870
 0.3720	14.5870
 0.3730	14.3480
 0.3740	13.9600
 0.3750	13.8990
 0.3760	14.3150
 0.3770	14.3130
 0.3780	14.1290
 0.3790	13.8270
 0.3800	13.2990
 0.3810	13.4780
 0.3820	13.7750
 0.3830	13.7110
 0.3840	13.6340
 0.3850	13.4330
 0.3860	13.2210
 0.3870	13.1980
 0.3880	13.6550
 0.3890	13.8900
 0.3900	13.6180
 0.3910	13.0830
 0.3920	13.1880
 0.3930	13.4550
 0.3940	13.4140
 0.3950	13.4150
 0.3960	13.5120
 0.3970	13.6500
 0.3980	13.6960
 0.3990	13.3620
 0.4000	13.0620
 0.4010	13.0650
 0.4020	13.3830
 0.4030	13.3300
 0.4040	13.1900
 0.4050	13.3310
 0.4060	13.5950
 0.4070	13.3710
 0.4080	12.9020
 0.4090	12.9170
 0.4100	13.0730
 0.4110	13.2030
 0.4120	13.2330
 0.4130	13.1810
 0.4140	13.3080
 0.4150	13.4480
 0.4160	13.3600
 0.4170	13.1010
 0.4180	13.0160
 0.4190	13.1760
 0.4200	13.3810
 0.4210	13.3770
 0.4220	13.2990
 0.4230	13.2780
 0.4240	13.2180
 0.4250	13.1500
 0.4260	13.1310
 0.4270	13.1960
 0.4280	13.1720
 0.4290	13.0720
 0.4300	12.9650
 0.4310	12.9700
 0.4320	12.9640
 0.4330	12.9300
 0.4340	12.8820
 0.4350	12.8570
 0.4360	12.7760
 0.4370	12.7250
 0.4380	12.8910
 0.4390	12.9630
 0.4400	13.0150
 0.4410	13.1030
 0.4420	13.1000
 0.4430	13.0660
 0.4440	13.0550
 0.4450	13.0980
 0.4460	13.1020
 0.4470	13.1460
 0.4480	13.1840
 0.4490	13.0170
 0.4500	13.0050
 0.4510	13.0940
 0.4520	13.1440
 0.4530	13.0820
 0.4540	13.0400
 0.4550	13.0550
 0.4560	13.0950
 0.4570	13.0520
 0.4580	13.0120
 0.4590	13.0330
 0.4600	13.0900
 0.4610	13.0370
 0.4620	12.9760
 0.4630	13.0440
 0.4640	13.0850
 0.4650	13.0600
 0.4660	13.0230
 0.4670	13.1050
 0.4680	13.1700
 0.4690	13.1300
 0.4700	13.0020
 0.4710	13.0560
 0.4720	13.1540
 0.4730	13.1770
 0.4740	13.0540
 0.4750	13.0160
 0.4760	13.0220
 0.4770	13.0390
 0.4780	13.0920
 0.4790	13.1300
 0.4800	13.1370
 0.4810	13.1050
 0.4820	13.0160
 0.4830	12.9630
 0.4840	12.9720
 0.4850	13.0060
 0.4860	13.0200
 0.4870	13.0320
 0.4880	13.0480
 0.4890	13.0060
 0.4900	12.9560
 0.4910	12.9440
 0.4920	12.9980
 0.4930	13.0390
 0.4940	13.0390
 0.4950	13.0340
 0.4960	13.1400
 0.4970	13.1730
 0.4980	13.1440
 0.4990	13.1130
 0.5000	13.1020
 0.5010	13.1420
 0.5020	13.2020
 0.5030	13.2120
 0.5040	13.2500
 0.5050	13.3000
 0.5060	13.3320
 0.5070	13.3310
 0.5080	13.3310
 0.5090	13.3560
 0.5100	13.4170
 0.5110	13.4490
 0.5120	13.5070
 0.5130	13.5970
 0.5140	13.6540
 0.5150	13.7080
 0.5160	13.7590
 0.5170	13.8140
 0.5180	13.9120
 0.5190	14.0020
 0.5200	14.0780
 0.5210	14.1640
 0.5220	14.2320
 0.5230	14.3170
 0.5240	14.4370
 0.5250	14.5480
 0.5260	14.6660
 0.5270	14.7760
 0.5280	14.8580
 0.5290	14.9630
 0.5300	15.0330
 0.5310	15.0570
 0.5320	15.0920
 0.5330	15.1900
 0.5340	15.2980
 0.5350	15.3540
 0.5360	15.3850
 0.5370	15.4010
 0.5380	15.4030
 0.5390	15.3800
 0.5400	15.3570
 0.5410	15.2880
 0.5420	15.1740
 0.5430	15.1200
 0.5440	15.1030
 0.5450	15.1380
 0.5460	15.2370
 0.5470	15.3420
 0.5480	15.4240
 0.5490	15.4720
 0.5500	15.4960
 0.5510	15.5270
 0.5520	15.5590
 0.5530	15.5760
 0.5540	15.5450
 0.5550	15.5230
 0.5560	15.5170
 0.5570	15.4930
 0.5580	15.4410
 0.5590	15.3900
 0.5600	15.3540
 0.5610	15.2950
 0.5620	15.2450
 0.5630	15.1940
 0.5640	15.1240
 0.5650	15.0670
 0.5660	15.0120
 0.5670	14.9490
 0.5680	14.8750
 0.5690	14.8030
 0.5700	14.7360
 0.5710	14.6710
 0.5720	14.5940
 0.5730	14.5290
 0.5740	14.4740
 0.5750	14.4090
 0.5760	14.3810
 0.5770	14.3590
 0.5780	14.3180
 0.5790	14.2540
 0.5800	14.1910
 0.5810	14.1420
 0.5820	14.1140
 0.5830	14.1060
 0.5840	14.0900
 0.5850	14.0590
 0.5860	14.0290
 0.5870	13.9950
 0.5880	13.9780
 0.5890	13.9850
 0.5900	13.9830
 0.5910	13.9630
 0.5920	13.9440
 0.5930	13.9570
 0.5940	13.9750
 0.5950	13.9800
 0.5960	13.9700
 0.5970	13.9610
 0.5980	13.9310
 0.5990	13.9070
 0.6000	13.9150
 0.6010	13.9060
 0.6020	13.8980
 0.6030	13.8970
 0.6040	13.8910
 0.6050	13.8550
 0.6060	13.8240
 0.6070	13.8180
 0.6080	13.7880
 0.6090	13.7140
 0.6100	13.5820
 0.6110	13.4120
 0.6120	13.3950
 0.6130	13.4640
 0.6140	13.5390
 0.6150	13.5530
 0.6160	13.5710
 0.6170	13.5750
 0.6180	13.5430
 0.6190	13.5340
 0.6200	13.5130
 0.6210	13.4880
 0.6220	13.4960
 0.6230	13.4980
 0.6240	13.5010
 0.6250	13.5040
 0.6260	13.4700
 0.6270	13.4680
 0.6280	13.4880
 0.6290	13.4890
 0.6300	13.4690
 0.6310	13.4700
 0.6320	13.4960
 0.6330	13.5060
 0.6340	13.5060
 0.6350	13.5050
 0.6360	13.5100
 0.6370	13.5100
 0.6380	13.4930
 0.6390	13.4770
 0.6400	13.4840
 0.6410	13.4460
 0.6420	13.4250
 0.6430	13.4440
 0.6440	13.4400
 0.6450	13.4440
 0.6460	13.4400
 0.6470	13.4130
 0.6480	13.4000
 0.6490	13.4050
 0.6500	13.4190
 0.6510	13.4240
 0.6520	13.4270
 0.6530	13.4270
 0.6540	13.4250
 0.6550	13.4180
 0.6560	13.4300
 0.6570	13.4410
 0.6580	13.4300
 0.6590	13.4680
 0.6600	13.4880
 0.6610	13.4680
 0.6620	13.4440
 0.6630	13.4620
 0.6640	13.4890
 0.6650	13.4880
 0.6660	13.4700
 0.6670	13.5000
 0.6680	13.5500
 0.6690	13.5540
 0.6700	13.5580
 0.6710	13.5730
 0.6720	13.5950
 0.6730	13.6090
 0.6740	13.6440
 0.6750	13.6870
 0.6760	13.7220
 0.6770	13.7510
 0.6780	13.7800
 0.6790	13.8170
 0.6800	13.8700
 0.6810	13.8920
 0.6820	13.9310
 0.6830	14.0010
 0.6840	14.0370
 0.6850	14.0660
 0.6860	14.1000
 0.6870	14.1420
 0.6880	14.1760
 0.6890	14.2110
 0.6900	14.2570
 0.6910	14.3230
 0.6920	14.4000
 0.6930	14.4890
 0.6940	14.6060
 0.6950	14.7830
 0.6960	14.9910
 0.6970	15.2240
 0.6980	15.4990
 0.6990	15.8700
 0.7000	16.2590
 0.7010	16.6650
 0.7020	17.1570
 0.7030	17.6900
 0.7040	18.2580
 0.7050	18.8630
 0.7060	19.5220
 0.7070	20.1910
 0.7080	20.8890
 0.7090	21.6530
 0.7100	22.4390
 0.7110	23.2490
 0.7120	24.0940
 0.7130	24.9930
 0.7140	25.9150
 0.7150	26.8580
 0.7160	27.8310
 0.7170	28.8480
 0.7180	29.8620
 0.7190	30.8900
 0.7200	31.9700
 0.7210	33.0430
 0.7220	34.1160
 0.7230	35.2010
 0.7240	36.3100
 0.7250	37.3680
 0.7260	38.4190
 0.7270	39.4990
 0.7280	40.5610
 0.7290	41.5950
 0.7300	42.5840
 0.7310	43.5260
 0.7320	44.4630
 0.7330	45.3820
 0.7340	46.2650
 0.7350	47.1030
 0.7360	47.9130
 0.7370	48.6800
 0.7380	49.3910
 0.7390	50.0640
 0.7400	50.7140
 0.7410	51.3270
 0.7420	51.8840
 0.7430	52.4260
 0.7440	52.9230
 0.7450	53.3690
 0.7460	53.7890
 0.7470	54.1820
 0.7480	54.5440
 0.7490	54.8720
 0.7500	55.1740
 0.7510	55.4310
 0.7520	55.6720
 0.7530	55.9220
 0.7540	56.1350
 0.7550	56.3150
 0.7560	56.4760
 0.7570	56.6280
 0.7580	56.7660
 0.7590	56.8870
 0.7600	56.9950
 0.7610	57.1020
 0.7620	57.2030
 0.7630	57.2870
 0.7640	57.3470
 0.7650	57.3880
 0.7660	57.4280
 0.7670	57.4730
 0.7680	57.5200
 0.7690	57.5410
 0.7700	57.5710
 0.7710	57.6170
 0.7720	57.6420
 0.7730	57.6390
 0.7740	57.6620
 0.7750	57.7290
 0.7760	57.7110
 0.7770	57.7190
 0.7780	57.7410
 0.7790	57.7230
 0.7800	57.7180
 0.7810	57.7290
 0.7820	57.7410
 0.7830	57.7310
 0.7840	57.7420
 0.7850	57.7470
 0.7860	57.7310
 0.7870	57.7360
 0.7880	57.7400
 0.7890	57.7430
 0.7900	57.7460
 0.7910	57.7350
 0.7920	57.7310
 0.7930	57.7340
 0.7940	57.7310
 0.7950	57.7000
 0.7960	57.6670
 0.7970	57.6550
 0.7980	57.6730
 0.7990	57.6780
 0.8000	57.6590
 0.8010	57.6300
 0.8020	57.6470
 0.8030	57.6360
 0.8040	57.5980
 0.8050	57.5660
 0.8060	57.5390
 0.8070	57.5130
 0.8080	57.4990
 0.8090	57.5140
 0.8100	57.5010
 0.8110	57.4800
 0.8120	57.4770
 0.8130	57.4970
 0.8140	57.4700
 0.8150	57.4350
 0.8160	57.4320
 0.8170	57.4120
 0.8180	57.4070
 0.8190	57.4060
 0.8200	57.3850
 0.8210	57.3560
 0.8220	57.3540
 0.8230	57.3670
 0.8240	57.3450
 0.8250	57.3200
 0.8260	57.3070
 0.8270	57.3070
 0.8280	57.3060
 0.8290	57.3130
 0.8300	57.3340
 0.8310	57.3600
 0.8320	57.3480
 0.8330	57.3090
 0.8340	57.2720
 0.8350	57.2700
 0.8360	57.3010
 0.8370	57.3200
 0.8380	57.3150
 0.8390	57.3070
 0.8400	57.3190
 0.8410	57.3390
 0.8420	57.3500
 0.8430	57.3430
 0.8440	57.3540
 0.8450	57.3660
 0.8460	57.3630
 0.8470	57.3760
 0.8480	57.3990
 0.8490	57.4230
 0.8500	57.4420
 0.8510	57.4440
 0.8520	57.4330
 0.8530	57.4380
 0.8540	57.4870
 0.8550	57.5170
 0.8560	57.5420
 0.8570	57.5600
 0.8580	57.5540
 0.8590	57.5770
 0.8600	57.5990
 0.8610	57.6010
 0.8620	57.5970
 0.8630	57.6460
 0.8640	57.6860
 0.8650	57.6680
 0.8660	57.6790
 0.8670	57.7210
 0.8680	57.7520
 0.8690	57.7390
 0.8700	57.7540
 0.8710	57.7720
 0.8720	57.7830
 0.8730	57.7950
 0.8740	57.8240
 0.8750	57.8730
 0.8760	57.9050
 0.8770	57.8600
 0.8780	57.8610
 0.8790	57.9050
 0.8800	57.9620
 0.8810	57.9840
 0.8820	57.9920
 0.8830	58.0020
 0.8840	58.0200
 0.8850	58.0310
 0.8860	58.0290
 0.8870	58.0430
 0.8880	58.0930
 0.8890	58.1340
 0.8900	58.1510
 0.8910	58.1440
 0.8920	58.1290
 0.8930	58.1400
 0.8940	58.1810
 0.8950	58.2260
 0.8960	58.2420
 0.8970	58.2570
 0.8980	58.2430
 0.8990	58.2320
 0.9000	58.2980
 0.9010	58.2890
 0.9020	58.2820
 0.9030	58.3090
 0.9040	58.3110
 0.9050	58.2870
 0.9060	58.2920
 0.9070	58.3350
 0.9080	58.3230
 0.9090	58.3450
 0.9100	58.3760
 0.9110	58.3760
 0.9120	58.3420
 0.9130	58.3780
 0.9140	58.4210
 0.9150	58.3930
 0.9160	58.3590
 0.9170	58.3660
 0.9180	58.3840
 0.9190	58.3710
 0.9200	58.3950
 0.9210	58.3720
 0.9220	58.3430
 0.9230	58.3840
 0.9240	58.3550
 0.9250	58.3240
 0.9260	58.3220
 0.9270	58.3400
 0.9280	58.3470
 0.9290	58.3330
 0.9300	58.3050
 0.9310	58.2810
 0.9320	58.2460
 0.9330	58.2130
 0.9340	58.1910
 0.9350	58.1850
 0.9360	58.2040
 0.9370	58.2010
 0.9380	58.1620
 0.9390	58.1310
 0.9400	58.0640
 0.9410	58.0330
 0.9420	58.0630
 0.9430	58.0690
 0.9440	58.0730
 0.9450	58.0750
 0.9460	58.0570
 0.9470	57.9680
 0.9480	57.9080
 0.9490	57.8940
 0.9500	57.8960
 0.9510	57.8470
 0.9520	57.7660
 0.9530	57.7130
 0.9540	57.7050
 0.9550	57.5720
 0.9560	57.5690
 0.9570	57.6130
 0.9580	57.5590
 0.9590	57.4740
 0.9600	57.4850
 0.9610	57.5070
 0.9620	57.4380
 0.9630	57.4260
 0.9640	57.4370
 0.9650	57.4170
 0.9660	57.3470
 0.9670	57.3810
 0.9680	57.3540
 0.9690	57.2710
 0.9700	57.2210
 0.9710	57.2950
 0.9720	57.3260
 0.9730	57.3160
 0.9740	57.3340
 0.9750	57.2990
 0.9760	57.2710
 0.9770	57.2500
 0.9780	57.2210
 0.9790	57.2350
 0.9800	57.2380
 0.9810	57.2220
 0.9820	57.2100
 0.9830	57.2140
 0.9840	57.2950
 0.9850	57.3560
 0.9860	57.2850
 0.9870	57.2850
 0.9880	57.2330
 0.9890	57.2020
 0.9900	57.2960
 0.9910	57.2420
 0.9920	57.3160
 0.9930	57.3980
 0.9940	57.2850
 0.9950	57.3780
 0.9960	57.4250
 0.9970	57.3730
 0.9980	57.3000
 0.9990	57.3640
 1.0000	57.3220
 1.0010	57.3500
 1.0020	57.3940
 1.0030	57.5000
 1.0040	57.5540
 1.0050	57.5800
 1.0060	57.5520
 1.0070	57.5030
 1.0080	57.4960
 1.0090	57.4860
 1.0100	57.5140
 1.0110	57.6110
 1.0120	57.6490
 1.0130	57.6780
 1.0140	57.6990
 1.0150	57.6980
 1.0160	57.6700
 1.0170	57.6880
 1.0180	57.7580
 1.0190	57.7680
 1.0200	57.7890
 1.0210	57.8300
 1.0220	57.8030
 1.0230	57.8200
 1.0240	57.8840
 1.0250	57.9020
 1.0260	57.9070
 1.0270	57.9020
 1.0280	57.8670
 1.0290	57.8530
 1.0300	57.8010
 1.0310	57.8160
 1.0320	57.8890
 1.0330	57.9560
 1.0340	57.9950
 1.0350	58.0230
 1.0360	58.0040
 1.0370	57.9840
 1.0380	58.0060
 1.0390	58.0860
 1.0400	58.1060
 1.0410	58.1170
 1.0420	58.1230
 1.0430	58.0910
 1.0440	58.0900
 1.0450	58.1150
 1.0460	58.1190
 1.0470	58.1020
 1.0480	58.1040
 1.0490	58.0860
 1.0500	58.1050
 1.0510	58.1540
 1.0520	58.2370
 1.0530	58.2690
 1.0540	58.3020
 1.0550	58.3300
 1.0560	58.3260
 1.0570	58.3360
 1.0580	58.3670
 1.0590	58.3760
 1.0600	58.3710
 1.0610	58.3620
 1.0620	58.3420
 1.0630	58.3310
 1.0640	58.3080
 1.0650	58.3010
 1.0660	58.3080
 1.0670	58.3180
 1.0680	58.3340
 1.0690	58.3590
 1.0700	58.3770
 1.0710	58.4150
 1.0720	58.4070
 1.0730	58.3730
 1.0740	58.3560
 1.0750	58.3080
 1.0760	58.2980
 1.0770	58.3100
 1.0780	58.3280
 1.0790	58.3670
 1.0800	58.3960
 1.0810	58.4410
 1.0820	58.4700
 1.0830	58.4910
 1.0840	58.5060
 1.0850	58.5030
 1.0860	58.5120
 1.0870	58.5220
 1.0880	58.5300
 1.0890	58.5380
 1.0900	58.5540
 1.0910	58.5560
 1.0920	58.5480
 1.0930	58.5460
 1.0940	58.5470
 1.0950	58.5390
 1.0960	58.5260
 1.0970	58.5140
 1.0980	58.4880
 1.0990	58.4750
 1.1000	58.4710
 1.1010	58.4660
 1.1020	58.4650
 1.1030	58.4670
 1.1040	58.4770
 1.1050	58.4820
 1.1060	58.4720
 1.1070	58.4530
 1.1080	58.4390
 1.1090	58.4160
 1.1100	58.3950
 1.1110	58.3750
 1.1120	58.3650
 1.1130	58.3520
 1.1140	58.3380
 1.1150	58.3370
 1.1160	58.3290
 1.1170	58.3100
 1.1180	58.3020
 1.1190	58.2950
 1.1200	58.3010
 1.1210	58.3030
 1.1220	58.2800
 1.1230	58.2570
 1.1240	58.2180
 1.1250	58.1810
 1.1260	58.1370
 1.1270	58.0990
 1.1280	58.0620
 1.1290	58.0230
 1.1300	57.9850
 1.1310	57.9430
 1.1320	57.8990
 1.1330	57.8540
 1.1340	57.8300
 1.1350	57.7690
 1.1360	57.6930
 1.1370	57.6010
 1.1380	57.4960
 1.1390	57.3680
 1.1400	57.2510
 1.1410	57.1370
 1.1420	57.0320
 1.1430	56.9430
 1.1440	56.8540
 1.1450	56.7850
 1.1460	56.7000
 1.1470	56.6080
 1.1480	56.5130
 1.1490	56.3980
 1.1500	56.3070
 1.1510	56.2180
 1.1520	56.1470
 1.1530	56.1080
 1.1540	56.0520
 1.1550	56.0000
 1.1560	55.9350
 1.1570	55.8670
 1.1580	55.8100
 1.1590	55.7670
 1.1600	55.7430
 1.1610	55.7360
 1.1620	55.7220
 1.1630	55.7030
 1.1640	55.6820
 1.1650	55.6560
 1.1660	55.6170
 1.1670	55.5900
 1.1680	55.5620
 1.1690	55.5500
 1.1700	55.5600
 1.1710	55.5520
 1.1720	55.5460
 1.1730	55.5340
 1.1740	55.5110
 1.1750	55.4770
 1.1760	55.4730
 1.1770	55.4880
 1.1780	55.4890
 1.1790	55.4830
 1.1800	55.4700
 1.1810	55.4560
 1.1820	55.4450
 1.1830	55.4390
 1.1840	55.4380
 1.1850	55.4290
 1.1860	55.4130
 1.1870	55.4030
 1.1880	55.3890
 1.1890	55.3570
 1.1900	55.3550
 1.1910	55.3770
 1.1920	55.3810
 1.1930	55.3940
 1.1940	55.3890
 1.1950	55.3610
 1.1960	55.3430
 1.1970	55.3270
 1.1980	55.3370
 1.1990	55.3500
 1.2000	55.3510
 1.2010	55.3630
 1.2020	55.3660
 1.2030	55.3710
 1.2040	55.3840
 1.2050	55.3820
 1.2060	55.3940
 1.2070	55.4210
 1.2080	55.4410
 1.2090	55.4630
 1.2100	55.4850
 1.2110	55.5040
 1.2120	55.5160
 1.2130	55.5330
 1.2140	55.5550
 1.2150	55.5710
 1.2160	55.5860
 1.2170	55.6010
 1.2180	55.6160
 1.2190	55.6340
 1.2200	55.6510
 1.2210	55.6630
 1.2220	55.6810
 1.2230	55.6930
 1.2240	55.7100
 1.2250	55.7310
 1.2260	55.7350
 1.2270	55.7510
 1.2280	55.7690
 1.2290	55.7880
 1.2300	55.8200
 1.2310	55.8410
 1.2320	55.8740
 1.2330	55.9090
 1.2340	55.9310
 1.2350	55.9530
 1.2360	55.9700
 1.2370	55.9770
 1.2380	55.9700
 1.2390	55.9740
 1.2400	55.9810
 1.2410	55.9840
 1.2420	55.9990
 1.2430	56.0300
 1.2440	56.0470
 1.2450	56.0690
 1.2460	56.0970
 1.2470	56.1070
 1.2480	56.1130
 1.2490	56.1280
 1.2500	56.1380
 1.2510	56.1450
 1.2520	56.1560
 1.2530	56.1510
 1.2540	56.1430
 1.2550	56.1370
 1.2560	56.1290
 1.2570	56.1320
 1.2580	56.1310
 1.2590	56.1350
 1.2600	56.1450
 1.2610	56.1560
 1.2620	56.1680
 1.2630	56.1890
 1.2640	56.2050
 1.2650	56.1980
 1.2660	56.1850
 1.2670	56.1710
 1.2680	56.1500
 1.2690	56.1480
 1.2700	56.1630
 1.2710	56.1720
 1.2720	56.1840
 1.2730	56.1890
 1.2740	56.1820
 1.2750	56.1630
 1.2760	56.1410
 1.2770	56.1260
 1.2780	56.1060
 1.2790	56.0900
 1.2800	56.0620
 1.2810	56.0220
 1.2820	55.9970
 1.2830	55.9780
 1.2840	55.9600
 1.2850	55.9470
 1.2860	55.9430
 1.2870	55.9370
 1.2880	55.9260
 1.2890	55.9250
 1.2900	55.9400
 1.2910	55.9180
 1.2920	55.8850
 1.2930	55.8610
 1.2940	55.8160
 1.2950	55.7900
 1.2960	55.7790
 1.2970	55.7510
 1.2980	55.7260
 1.2990	55.6940
 1.3000	55.6550
 1.3010	55.6160
 1.3020	55.5810
 1.3030	55.5310
 1.3040	55.4680
 1.3050	55.4070
 1.3060	55.3470
 1.3070	55.3070
 1.3080	55.2680
 1.3090	55.2170
 1.3100	55.1700
 1.3110	55.1150
 1.3120	55.0550
 1.3130	55.0080
 1.3140	54.9580
 1.3150	54.9080
 1.3160	54.8490
 1.3170	54.7900
 1.3180	54.7210
 1.3190	54.6490
 1.3200	54.5700
 1.3210	54.4750
 1.3220	54.3980
 1.3230	54.3090
 1.3240	54.2050
 1.3250	54.1280
 1.3260	54.0400
 1.3270	53.9390
 1.3280	53.8490
 1.3290	53.7520
 1.3300	53.6540
 1.3310	53.5710
 1.3320	53.4920
 1.3330	53.3980
 1.3340	53.2900
 1.3350	53.1720
 1.3360	53.0420
 1.3370	52.9340
 1.3380	52.8330
 1.3390	52.7290
 1.3400	52.6300
 1.3410	52.5250
 1.3420	52.4180
 1.3430	52.3130
 1.3440	52.2170
 1.3450	52.1170
 1.3460	52.0150
 1.3470	51.9190
 1.3480	51.8200
 1.3490	51.7280
 1.3500	51.6460
 1.3510	51.5590
 1.3520	51.4740
 1.3530	51.3930
 1.3540	51.3000
 1.3550	51.2070
 1.3560	51.1220
 1.3570	51.0260
 1.3580	50.9310
 1.3590	50.8350
 1.3600	50.7190
 1.3610	50.5990
 1.3620	50.4700
 1.3630	50.3410
 1.3640	50.2050
 1.3650	50.0630
 1.3660	49.9270
 1.3670	49.7770
 1.3680	49.6240
 1.3690	49.4580
 1.3700	49.2700
 1.3710	49.0750
 1.3720	48.8590
 1.3730	48.6230
 1.3740	48.3750
 1.3750	48.1160
 1.3760	47.8360
 1.3770	47.5430
 1.3780	47.2340
 1.3790	46.9000
 1.3800	46.5480
 1.3810	46.1770
 1.3820	45.7730
 1.3830	45.3370
 1.3840	44.8830
 1.3850	44.4010
 1.3860	43.9060
 1.3870	43.3940
 1.3880	42.8670
 1.3890	42.3180
 1.3900	41.7600
 1.3910	41.2030
 1.3920	40.6340
 1.3930	40.0740
 1.3940	39.5070
 1.3950	38.9280
 1.3960	38.3650
 1.3970	37.8010
 1.3980	37.2420
 1.3990	36.7080
 1.4000	36.1800
 1.4010	35.6590
 1.4020	35.1670
 1.4030	34.6840
 1.4040	34.2180
 1.4050	33.7920
 1.4060	33.3840
 1.4070	32.9990
 1.4080	32.6360
 1.4090	32.2940
 1.4100	31.9630
 1.4110	31.6470
 1.4120	31.3560
 1.4130	31.0790
 1.4140	30.8240
 1.4150	30.5980
 1.4160	30.3810
 1.4170	30.1750
 1.4180	29.9830
 1.4190	29.8050
 1.4200	29.6390
 1.4210	29.4820
 1.4220	29.3450
 1.4230	29.2200
 1.4240	29.1040
 1.4250	28.9980
 1.4260	28.9090
 1.4270	28.8170
 1.4280	28.7270
 1.4290	28.6470
 1.4300	28.5720
 1.4310	28.5090
 1.4320	28.4550
 1.4330	28.4070
 1.4340	28.3690
 1.4350	28.3330
 1.4360	28.3010
 1.4370	28.2710
 1.4380	28.2410
 1.4390	28.2120
 1.4400	28.1860
 1.4410	28.1650
 1.4420	28.1480
 1.4430	28.1360
 1.4440	28.1270
 1.4450	28.1240
 1.4460	28.1230
 1.4470	28.1250
 1.4480	28.1340
 1.4490	28.1430
 1.4500	28.1550
 1.4510	28.1700
 1.4520	28.1850
 1.4530	28.2050
 1.4540	28.2280
 1.4550	28.2530
 1.4560	28.2790
 1.4570	28.3060
 1.4580	28.3420
 1.4590	28.3790
 1.4600	28.4230
 1.4610	28.4720
 1.4620	28.5220
 1.4630	28.5850
 1.4640	28.6470
 1.4650	28.7130
 1.4660	28.7870
 1.4670	28.8590
 1.4680	28.9370
 1.4690	29.0230
 1.4700	29.1100
 1.4710	29.2060
 1.4720	29.3070
 1.4730	29.4120
 1.4740	29.5210
 1.4750	29.6350
 1.4760	29.7610
 1.4770	29.8840
 1.4780	30.0100
 1.4790	30.1400
 1.4800	30.2630
 1.4810	30.3960
