Name: Arctostaphylos glandulosa 2
Type: vegetation
Class: Shrub
Genus: Arctostaphylos
Species: glandulosa
Sample No.: VH151
Owner: UCSB
Wavelength Range: VSWIR
Origin: 37.0441; -119.3033; WGS84
Collection Date: 6/8/2013
Description: Samples were collected as part of the HyspIRI Airborne Campaign. 48 individual plants were sampled in three times in 2013 - spring  summer  and fall. The name of the sample includes a 1  2  or 3 which references a different individual of the species. Samples were taken to JPL and processed within 48 hours of collection. The same leaves were processed in the Nicolet and then measured using the ASD.
Measurement: Bidirectional reflectance
First Column: X
Second Column: Y
X Units: Wavelength (micrometers)
Y Units: Reflectance (percentage)
First X Value: 0.35
Last X Value: 2.5
Number of X Values: 2151
Additional Information: vegetation.shrub.arctostaphylos.glandulosa.vswir.vh151.ucsb.asd.ancillary.txt

 0.3500	 5.6130
 0.3510	 5.7960
 0.3520	 5.8630
 0.3530	 5.8450
 0.3540	 5.8490
 0.3550	 5.8580
 0.3560	 5.7950
 0.3570	 5.6480
 0.3580	 5.4800
 0.3590	 5.6800
 0.3600	 5.7680
 0.3610	 5.6030
 0.3620	 5.6050
 0.3630	 5.7190
 0.3640	 5.7710
 0.3650	 5.6540
 0.3660	 5.6130
 0.3670	 5.6190
 0.3680	 5.6430
 0.3690	 5.6520
 0.3700	 5.6590
 0.3710	 5.6400
 0.3720	 5.5940
 0.3730	 5.5580
 0.3740	 5.6120
 0.3750	 5.6660
 0.3760	 5.6220
 0.3770	 5.5930
 0.3780	 5.5290
 0.3790	 5.4890
 0.3800	 5.6170
 0.3810	 5.6260
 0.3820	 5.5980
 0.3830	 5.6040
 0.3840	 5.5540
 0.3850	 5.5370
 0.3860	 5.5540
 0.3870	 5.5620
 0.3880	 5.5870
 0.3890	 5.6330
 0.3900	 5.6610
 0.3910	 5.5910
 0.3920	 5.6110
 0.3930	 5.6620
 0.3940	 5.6640
 0.3950	 5.6330
 0.3960	 5.6360
 0.3970	 5.6760
 0.3980	 5.7250
 0.3990	 5.7290
 0.4000	 5.7130
 0.4010	 5.7140
 0.4020	 5.7810
 0.4030	 5.8290
 0.4040	 5.8540
 0.4050	 5.8830
 0.4060	 5.9450
 0.4070	 5.9950
 0.4080	 6.0310
 0.4090	 6.0790
 0.4100	 6.1210
 0.4110	 6.1700
 0.4120	 6.2250
 0.4130	 6.2500
 0.4140	 6.2810
 0.4150	 6.3250
 0.4160	 6.3760
 0.4170	 6.4380
 0.4180	 6.4760
 0.4190	 6.5040
 0.4200	 6.5710
 0.4210	 6.6120
 0.4220	 6.6450
 0.4230	 6.6930
 0.4240	 6.7450
 0.4250	 6.7830
 0.4260	 6.8110
 0.4270	 6.8530
 0.4280	 6.8960
 0.4290	 6.9280
 0.4300	 6.9450
 0.4310	 6.9570
 0.4320	 6.9900
 0.4330	 7.0190
 0.4340	 7.0230
 0.4350	 7.0520
 0.4360	 7.0770
 0.4370	 7.0880
 0.4380	 7.1170
 0.4390	 7.1550
 0.4400	 7.1830
 0.4410	 7.1990
 0.4420	 7.2320
 0.4430	 7.2600
 0.4440	 7.2850
 0.4450	 7.3120
 0.4460	 7.3370
 0.4470	 7.3710
 0.4480	 7.4180
 0.4490	 7.4510
 0.4500	 7.4790
 0.4510	 7.5080
 0.4520	 7.5350
 0.4530	 7.5440
 0.4540	 7.5780
 0.4550	 7.6210
 0.4560	 7.6280
 0.4570	 7.6520
 0.4580	 7.6730
 0.4590	 7.6760
 0.4600	 7.6940
 0.4610	 7.7080
 0.4620	 7.7150
 0.4630	 7.7210
 0.4640	 7.7360
 0.4650	 7.7480
 0.4660	 7.7510
 0.4670	 7.7570
 0.4680	 7.7660
 0.4690	 7.7780
 0.4700	 7.7810
 0.4710	 7.7840
 0.4720	 7.7960
 0.4730	 7.8150
 0.4740	 7.8230
 0.4750	 7.8270
 0.4760	 7.8370
 0.4770	 7.8550
 0.4780	 7.8600
 0.4790	 7.8670
 0.4800	 7.8800
 0.4810	 7.8930
 0.4820	 7.9130
 0.4830	 7.9340
 0.4840	 7.9420
 0.4850	 7.9430
 0.4860	 7.9550
 0.4870	 7.9760
 0.4880	 8.0030
 0.4890	 8.0400
 0.4900	 8.0770
 0.4910	 8.1140
 0.4920	 8.1510
 0.4930	 8.2050
 0.4940	 8.2610
 0.4950	 8.3160
 0.4960	 8.3820
 0.4970	 8.4550
 0.4980	 8.5440
 0.4990	 8.6440
 0.5000	 8.7480
 0.5010	 8.8660
 0.5020	 9.0000
 0.5030	 9.1400
 0.5040	 9.2910
 0.5050	 9.4600
 0.5060	 9.6500
 0.5070	 9.8490
 0.5080	10.0670
 0.5090	10.3000
 0.5100	10.5400
 0.5110	10.8000
 0.5120	11.0760
 0.5130	11.3640
 0.5140	11.6570
 0.5150	11.9650
 0.5160	12.2840
 0.5170	12.6100
 0.5180	12.9380
 0.5190	13.2670
 0.5200	13.5950
 0.5210	13.9180
 0.5220	14.2250
 0.5230	14.5210
 0.5240	14.8100
 0.5250	15.0820
 0.5260	15.3410
 0.5270	15.5800
 0.5280	15.7920
 0.5290	15.9890
 0.5300	16.1700
 0.5310	16.3320
 0.5320	16.4750
 0.5330	16.6060
 0.5340	16.7240
 0.5350	16.8250
 0.5360	16.9210
 0.5370	17.0040
 0.5380	17.0710
 0.5390	17.1280
 0.5400	17.1820
 0.5410	17.2320
 0.5420	17.2740
 0.5430	17.3200
 0.5440	17.3700
 0.5450	17.4210
 0.5460	17.4730
 0.5470	17.5270
 0.5480	17.5790
 0.5490	17.6240
 0.5500	17.6630
 0.5510	17.6950
 0.5520	17.7140
 0.5530	17.7140
 0.5540	17.7050
 0.5550	17.6800
 0.5560	17.6350
 0.5570	17.5760
 0.5580	17.4990
 0.5590	17.4070
 0.5600	17.3030
 0.5610	17.1920
 0.5620	17.0710
 0.5630	16.9390
 0.5640	16.7950
 0.5650	16.6400
 0.5660	16.4770
 0.5670	16.3060
 0.5680	16.1270
 0.5690	15.9390
 0.5700	15.7500
 0.5710	15.5620
 0.5720	15.3820
 0.5730	15.2060
 0.5740	15.0360
 0.5750	14.8780
 0.5760	14.7270
 0.5770	14.5860
 0.5780	14.4560
 0.5790	14.3340
 0.5800	14.2180
 0.5810	14.1080
 0.5820	14.0060
 0.5830	13.9030
 0.5840	13.8080
 0.5850	13.7210
 0.5860	13.6340
 0.5870	13.5510
 0.5880	13.4730
 0.5890	13.4000
 0.5900	13.3310
 0.5910	13.2720
 0.5920	13.2220
 0.5930	13.1800
 0.5940	13.1410
 0.5950	13.1050
 0.5960	13.0700
 0.5970	13.0370
 0.5980	13.0030
 0.5990	12.9680
 0.6000	12.9340
 0.6010	12.8940
 0.6020	12.8510
 0.6030	12.8040
 0.6040	12.7480
 0.6050	12.6810
 0.6060	12.6080
 0.6070	12.5300
 0.6080	12.4460
 0.6090	12.3550
 0.6100	12.2570
 0.6110	12.1510
 0.6120	12.0570
 0.6130	11.9660
 0.6140	11.8760
 0.6150	11.7890
 0.6160	11.7000
 0.6170	11.6140
 0.6180	11.5340
 0.6190	11.4630
 0.6200	11.3980
 0.6210	11.3410
 0.6220	11.2940
 0.6230	11.2520
 0.6240	11.2180
 0.6250	11.1940
 0.6260	11.1730
 0.6270	11.1560
 0.6280	11.1440
 0.6290	11.1350
 0.6300	11.1200
 0.6310	11.1030
 0.6320	11.0860
 0.6330	11.0650
 0.6340	11.0290
 0.6350	10.9760
 0.6360	10.9100
 0.6370	10.8330
 0.6380	10.7450
 0.6390	10.6440
 0.6400	10.5330
 0.6410	10.4160
 0.6420	10.2900
 0.6430	10.1580
 0.6440	10.0350
 0.6450	 9.9100
 0.6460	 9.7920
 0.6470	 9.6830
 0.6480	 9.5760
 0.6490	 9.4860
 0.6500	 9.4130
 0.6510	 9.3520
 0.6520	 9.3000
 0.6530	 9.2530
 0.6540	 9.2040
 0.6550	 9.1570
 0.6560	 9.1030
 0.6570	 9.0400
 0.6580	 8.9700
 0.6590	 8.8920
 0.6600	 8.8100
 0.6610	 8.7240
 0.6620	 8.6390
 0.6630	 8.5560
 0.6640	 8.4790
 0.6650	 8.4130
 0.6660	 8.3530
 0.6670	 8.3020
 0.6680	 8.2630
 0.6690	 8.2380
 0.6700	 8.2170
 0.6710	 8.2030
 0.6720	 8.2010
 0.6730	 8.2120
 0.6740	 8.2310
 0.6750	 8.2540
 0.6760	 8.2770
 0.6770	 8.3100
 0.6780	 8.3530
 0.6790	 8.4060
 0.6800	 8.4700
 0.6810	 8.5480
 0.6820	 8.6370
 0.6830	 8.7390
 0.6840	 8.8700
 0.6850	 9.0250
 0.6860	 9.2120
 0.6870	 9.4480
 0.6880	 9.7320
 0.6890	10.0860
 0.6900	10.5150
 0.6910	11.0230
 0.6920	11.6160
 0.6930	12.2920
 0.6940	13.0540
 0.6950	13.8950
 0.6960	14.8030
 0.6970	15.7670
 0.6980	16.7790
 0.6990	17.8380
 0.7000	18.9290
 0.7010	20.0420
 0.7020	21.1690
 0.7030	22.3050
 0.7040	23.4390
 0.7050	24.5660
 0.7060	25.6900
 0.7070	26.8060
 0.7080	27.9130
 0.7090	29.0140
 0.7100	30.1090
 0.7110	31.1970
 0.7120	32.2770
 0.7130	33.3440
 0.7140	34.4070
 0.7150	35.4590
 0.7160	36.4950
 0.7170	37.5270
 0.7180	38.5420
 0.7190	39.5400
 0.7200	40.5240
 0.7210	41.4810
 0.7220	42.4190
 0.7230	43.3360
 0.7240	44.2230
 0.7250	45.0780
 0.7260	45.9030
 0.7270	46.7030
 0.7280	47.4690
 0.7290	48.2000
 0.7300	48.8970
 0.7310	49.5630
 0.7320	50.1940
 0.7330	50.7940
 0.7340	51.3620
 0.7350	51.8990
 0.7360	52.4020
 0.7370	52.8750
 0.7380	53.3220
 0.7390	53.7410
 0.7400	54.1300
 0.7410	54.4920
 0.7420	54.8300
 0.7430	55.1390
 0.7440	55.4260
 0.7450	55.6920
 0.7460	55.9320
 0.7470	56.1520
 0.7480	56.3520
 0.7490	56.5360
 0.7500	56.7050
 0.7510	56.8540
 0.7520	56.9860
 0.7530	57.1130
 0.7540	57.2270
 0.7550	57.3300
 0.7560	57.4230
 0.7570	57.5070
 0.7580	57.5900
 0.7590	57.6640
 0.7600	57.7250
 0.7610	57.7850
 0.7620	57.8400
 0.7630	57.8890
 0.7640	57.9350
 0.7650	57.9770
 0.7660	58.0130
 0.7670	58.0440
 0.7680	58.0710
 0.7690	58.1030
 0.7700	58.1310
 0.7710	58.1540
 0.7720	58.1810
 0.7730	58.2060
 0.7740	58.2290
 0.7750	58.2530
 0.7760	58.2720
 0.7770	58.2970
 0.7780	58.3250
 0.7790	58.3460
 0.7800	58.3710
 0.7810	58.3950
 0.7820	58.4160
 0.7830	58.4400
 0.7840	58.4640
 0.7850	58.4860
 0.7860	58.5080
 0.7870	58.5330
 0.7880	58.5540
 0.7890	58.5720
 0.7900	58.5910
 0.7910	58.6150
 0.7920	58.6410
 0.7930	58.6640
 0.7940	58.6840
 0.7950	58.7050
 0.7960	58.7270
 0.7970	58.7480
 0.7980	58.7640
 0.7990	58.7790
 0.8000	58.7960
 0.8010	58.8160
 0.8020	58.8350
 0.8030	58.8560
 0.8040	58.8740
 0.8050	58.8880
 0.8060	58.9020
 0.8070	58.9180
 0.8080	58.9350
 0.8090	58.9500
 0.8100	58.9620
 0.8110	58.9750
 0.8120	58.9920
 0.8130	59.0050
 0.8140	59.0180
 0.8150	59.0330
 0.8160	59.0490
 0.8170	59.0660
 0.8180	59.0750
 0.8190	59.0850
 0.8200	59.1070
 0.8210	59.1220
 0.8220	59.1320
 0.8230	59.1420
 0.8240	59.1560
 0.8250	59.1680
 0.8260	59.1770
 0.8270	59.1860
 0.8280	59.2010
 0.8290	59.2140
 0.8300	59.2240
 0.8310	59.2340
 0.8320	59.2430
 0.8330	59.2530
 0.8340	59.2660
 0.8350	59.2800
 0.8360	59.2950
 0.8370	59.3020
 0.8380	59.3090
 0.8390	59.3320
 0.8400	59.3570
 0.8410	59.3750
 0.8420	59.3880
 0.8430	59.4010
 0.8440	59.4190
 0.8450	59.4340
 0.8460	59.4440
 0.8470	59.4660
 0.8480	59.4910
 0.8490	59.5090
 0.8500	59.5190
 0.8510	59.5410
 0.8520	59.5630
 0.8530	59.5800
 0.8540	59.5940
 0.8550	59.6040
 0.8560	59.6200
 0.8570	59.6410
 0.8580	59.6630
 0.8590	59.6750
 0.8600	59.6870
 0.8610	59.7030
 0.8620	59.7200
 0.8630	59.7350
 0.8640	59.7500
 0.8650	59.7660
 0.8660	59.7780
 0.8670	59.7920
 0.8680	59.8060
 0.8690	59.8200
 0.8700	59.8370
 0.8710	59.8480
 0.8720	59.8580
 0.8730	59.8780
 0.8740	59.8950
 0.8750	59.9040
 0.8760	59.9100
 0.8770	59.9300
 0.8780	59.9470
 0.8790	59.9590
 0.8800	59.9700
 0.8810	59.9830
 0.8820	59.9890
 0.8830	59.9980
 0.8840	60.0130
 0.8850	60.0180
 0.8860	60.0260
 0.8870	60.0360
 0.8880	60.0430
 0.8890	60.0550
 0.8900	60.0710
 0.8910	60.0810
 0.8920	60.0810
 0.8930	60.0870
 0.8940	60.0930
 0.8950	60.0970
 0.8960	60.1000
 0.8970	60.1080
 0.8980	60.1160
 0.8990	60.1240
 0.9000	60.1320
 0.9010	60.1350
 0.9020	60.1360
 0.9030	60.1400
 0.9040	60.1550
 0.9050	60.1640
 0.9060	60.1660
 0.9070	60.1640
 0.9080	60.1690
 0.9090	60.1710
 0.9100	60.1700
 0.9110	60.1710
 0.9120	60.1820
 0.9130	60.1880
 0.9140	60.1880
 0.9150	60.1910
 0.9160	60.1950
 0.9170	60.1900
 0.9180	60.1830
 0.9190	60.1850
 0.9200	60.1830
 0.9210	60.1770
 0.9220	60.1770
 0.9230	60.1900
 0.9240	60.1820
 0.9250	60.1790
 0.9260	60.1790
 0.9270	60.1570
 0.9280	60.1430
 0.9290	60.1350
 0.9300	60.1260
 0.9310	60.1070
 0.9320	60.0920
 0.9330	60.0840
 0.9340	60.0750
 0.9350	60.0510
 0.9360	60.0250
 0.9370	60.0010
 0.9380	59.9790
 0.9390	59.9550
 0.9400	59.9230
 0.9410	59.8900
 0.9420	59.8590
 0.9430	59.8320
 0.9440	59.7970
 0.9450	59.7530
 0.9460	59.7040
 0.9470	59.6550
 0.9480	59.5880
 0.9490	59.5200
 0.9500	59.4580
 0.9510	59.3690
 0.9520	59.2900
 0.9530	59.2130
 0.9540	59.1230
 0.9550	59.0350
 0.9560	58.9420
 0.9570	58.8620
 0.9580	58.8050
 0.9590	58.7300
 0.9600	58.6550
 0.9610	58.5940
 0.9620	58.5510
 0.9630	58.4990
 0.9640	58.4440
 0.9650	58.4030
 0.9660	58.3830
 0.9670	58.3500
 0.9680	58.3320
 0.9690	58.3230
 0.9700	58.3040
 0.9710	58.2820
 0.9720	58.2790
 0.9730	58.2810
 0.9740	58.2630
 0.9750	58.2480
 0.9760	58.2510
 0.9770	58.2640
 0.9780	58.2690
 0.9790	58.2690
 0.9800	58.2710
 0.9810	58.2790
 0.9820	58.2940
 0.9830	58.3160
 0.9840	58.3380
 0.9850	58.3550
 0.9860	58.3700
 0.9870	58.3980
 0.9880	58.4190
 0.9890	58.4360
 0.9900	58.4680
 0.9910	58.5160
 0.9920	58.5550
 0.9930	58.5860
 0.9940	58.6220
 0.9950	58.6900
 0.9960	58.7270
 0.9970	58.7530
 0.9980	58.8110
 0.9990	58.8770
 1.0000	59.0240
 1.0010	59.2760
 1.0020	59.4430
 1.0030	59.4880
 1.0040	59.5370
 1.0050	59.5890
 1.0060	59.6370
 1.0070	59.6800
 1.0080	59.7260
 1.0090	59.7700
 1.0100	59.8190
 1.0110	59.8750
 1.0120	59.9260
 1.0130	59.9780
 1.0140	60.0280
 1.0150	60.0750
 1.0160	60.1250
 1.0170	60.1730
 1.0180	60.2200
 1.0190	60.2690
 1.0200	60.3160
 1.0210	60.3620
 1.0220	60.4120
 1.0230	60.4610
 1.0240	60.5080
 1.0250	60.5550
 1.0260	60.6030
 1.0270	60.6480
 1.0280	60.6910
 1.0290	60.7350
 1.0300	60.7790
 1.0310	60.8240
 1.0320	60.8720
 1.0330	60.9170
 1.0340	60.9580
 1.0350	60.9990
 1.0360	61.0400
 1.0370	61.0810
 1.0380	61.1220
 1.0390	61.1670
 1.0400	61.2060
 1.0410	61.2380
 1.0420	61.2760
 1.0430	61.3120
 1.0440	61.3500
 1.0450	61.3950
 1.0460	61.4320
 1.0470	61.4640
 1.0480	61.4980
 1.0490	61.5280
 1.0500	61.5600
 1.0510	61.5950
 1.0520	61.6290
 1.0530	61.6640
 1.0540	61.6990
 1.0550	61.7320
 1.0560	61.7660
 1.0570	61.7970
 1.0580	61.8240
 1.0590	61.8510
 1.0600	61.8760
 1.0610	61.9010
 1.0620	61.9260
 1.0630	61.9490
 1.0640	61.9690
 1.0650	61.9910
 1.0660	62.0090
 1.0670	62.0300
 1.0680	62.0530
 1.0690	62.0780
 1.0700	62.0980
 1.0710	62.1180
 1.0720	62.1340
 1.0730	62.1430
 1.0740	62.1570
 1.0750	62.1740
 1.0760	62.1850
 1.0770	62.1930
 1.0780	62.2040
 1.0790	62.2110
 1.0800	62.2220
 1.0810	62.2430
 1.0820	62.2540
 1.0830	62.2640
 1.0840	62.2700
 1.0850	62.2690
 1.0860	62.2680
 1.0870	62.2700
 1.0880	62.2730
 1.0890	62.2730
 1.0900	62.2730
 1.0910	62.2730
 1.0920	62.2710
 1.0930	62.2700
 1.0940	62.2740
 1.0950	62.2720
 1.0960	62.2670
 1.0970	62.2610
 1.0980	62.2520
 1.0990	62.2440
 1.1000	62.2350
 1.1010	62.2260
 1.1020	62.2190
 1.1030	62.2060
 1.1040	62.1940
 1.1050	62.1820
 1.1060	62.1690
 1.1070	62.1570
 1.1080	62.1410
 1.1090	62.1250
 1.1100	62.1080
 1.1110	62.0900
 1.1120	62.0700
 1.1130	62.0520
 1.1140	62.0300
 1.1150	62.0080
 1.1160	61.9800
 1.1170	61.9520
 1.1180	61.9160
 1.1190	61.8750
 1.1200	61.8320
 1.1210	61.7850
 1.1220	61.7310
 1.1230	61.6700
 1.1240	61.6040
 1.1250	61.5300
 1.1260	61.4520
 1.1270	61.3610
 1.1280	61.2660
 1.1290	61.1530
 1.1300	61.0270
 1.1310	60.8900
 1.1320	60.7400
 1.1330	60.5810
 1.1340	60.4140
 1.1350	60.2350
 1.1360	60.0440
 1.1370	59.8430
 1.1380	59.6310
 1.1390	59.4110
 1.1400	59.1840
 1.1410	58.9560
 1.1420	58.7260
 1.1430	58.4940
 1.1440	58.2640
 1.1450	58.0320
 1.1460	57.8040
 1.1470	57.5740
 1.1480	57.3570
 1.1490	57.1430
 1.1500	56.9440
 1.1510	56.7580
 1.1520	56.5810
 1.1530	56.4120
 1.1540	56.2550
 1.1550	56.1090
 1.1560	55.9730
 1.1570	55.8470
 1.1580	55.7350
 1.1590	55.6310
 1.1600	55.5330
 1.1610	55.4450
 1.1620	55.3650
 1.1630	55.2920
 1.1640	55.2280
 1.1650	55.1680
 1.1660	55.1160
 1.1670	55.0650
 1.1680	55.0190
 1.1690	54.9730
 1.1700	54.9290
 1.1710	54.8870
 1.1720	54.8490
 1.1730	54.8090
 1.1740	54.7700
 1.1750	54.7330
 1.1760	54.6900
 1.1770	54.6450
 1.1780	54.6020
 1.1790	54.5560
 1.1800	54.5130
 1.1810	54.4700
 1.1820	54.4220
 1.1830	54.3730
 1.1840	54.3240
 1.1850	54.2760
 1.1860	54.2320
 1.1870	54.1910
 1.1880	54.1490
 1.1890	54.1080
 1.1900	54.0680
 1.1910	54.0270
 1.1920	53.9910
 1.1930	53.9580
 1.1940	53.9280
 1.1950	53.9010
 1.1960	53.8750
 1.1970	53.8570
 1.1980	53.8430
 1.1990	53.8320
 1.2000	53.8290
 1.2010	53.8300
 1.2020	53.8330
 1.2030	53.8480
 1.2040	53.8720
 1.2050	53.9010
 1.2060	53.9370
 1.2070	53.9760
 1.2080	54.0180
 1.2090	54.0650
 1.2100	54.1190
 1.2110	54.1780
 1.2120	54.2430
 1.2130	54.3100
 1.2140	54.3830
 1.2150	54.4580
 1.2160	54.5380
 1.2170	54.6200
 1.2180	54.7060
 1.2190	54.7960
 1.2200	54.8890
 1.2210	54.9850
 1.2220	55.0790
 1.2230	55.1700
 1.2240	55.2600
 1.2250	55.3460
 1.2260	55.4340
 1.2270	55.5210
 1.2280	55.6060
 1.2290	55.6910
 1.2300	55.7710
 1.2310	55.8490
 1.2320	55.9250
 1.2330	55.9980
 1.2340	56.0700
 1.2350	56.1420
 1.2360	56.2100
 1.2370	56.2750
 1.2380	56.3380
 1.2390	56.3990
 1.2400	56.4600
 1.2410	56.5210
 1.2420	56.5800
 1.2430	56.6360
 1.2440	56.6900
 1.2450	56.7400
 1.2460	56.7890
 1.2470	56.8380
 1.2480	56.8830
 1.2490	56.9270
 1.2500	56.9720
 1.2510	57.0160
 1.2520	57.0600
 1.2530	57.1010
 1.2540	57.1370
 1.2550	57.1700
 1.2560	57.2000
 1.2570	57.2310
 1.2580	57.2610
 1.2590	57.2910
 1.2600	57.3200
 1.2610	57.3470
 1.2620	57.3700
 1.2630	57.3920
 1.2640	57.4130
 1.2650	57.4310
 1.2660	57.4500
 1.2670	57.4660
 1.2680	57.4790
 1.2690	57.4890
 1.2700	57.4960
 1.2710	57.5030
 1.2720	57.5090
 1.2730	57.5130
 1.2740	57.5190
 1.2750	57.5220
 1.2760	57.5230
 1.2770	57.5220
 1.2780	57.5160
 1.2790	57.5090
 1.2800	57.4980
 1.2810	57.4870
 1.2820	57.4740
 1.2830	57.4580
 1.2840	57.4410
 1.2850	57.4210
 1.2860	57.4000
 1.2870	57.3750
 1.2880	57.3460
 1.2890	57.3130
 1.2900	57.2780
 1.2910	57.2380
 1.2920	57.1970
 1.2930	57.1530
 1.2940	57.1060
 1.2950	57.0520
 1.2960	56.9940
 1.2970	56.9340
 1.2980	56.8690
 1.2990	56.8030
 1.3000	56.7340
 1.3010	56.6570
 1.3020	56.5760
 1.3030	56.4900
 1.3040	56.3980
 1.3050	56.3030
 1.3060	56.2030
 1.3070	56.0970
 1.3080	55.9880
 1.3090	55.8760
 1.3100	55.7610
 1.3110	55.6370
 1.3120	55.5060
 1.3130	55.3730
 1.3140	55.2350
 1.3150	55.0940
 1.3160	54.9470
 1.3170	54.7990
 1.3180	54.6390
 1.3190	54.4730
 1.3200	54.3050
 1.3210	54.1320
 1.3220	53.9560
 1.3230	53.7780
 1.3240	53.5930
 1.3250	53.4040
 1.3260	53.2090
 1.3270	53.0120
 1.3280	52.8160
 1.3290	52.6140
 1.3300	52.4140
 1.3310	52.2120
 1.3320	52.0050
 1.3330	51.7980
 1.3340	51.5880
 1.3350	51.3750
 1.3360	51.1640
 1.3370	50.9520
 1.3380	50.7430
 1.3390	50.5360
 1.3400	50.3280
 1.3410	50.1250
 1.3420	49.9240
 1.3430	49.7230
 1.3440	49.5250
 1.3450	49.3290
 1.3460	49.1300
 1.3470	48.9390
 1.3480	48.7540
 1.3490	48.5690
 1.3500	48.3880
 1.3510	48.2100
 1.3520	48.0320
 1.3530	47.8530
 1.3540	47.6750
 1.3550	47.4970
 1.3560	47.3180
 1.3570	47.1380
 1.3580	46.9590
 1.3590	46.7760
 1.3600	46.5890
 1.3610	46.3970
 1.3620	46.1980
 1.3630	45.9930
 1.3640	45.7830
 1.3650	45.5640
 1.3660	45.3370
 1.3670	45.1010
 1.3680	44.8540
 1.3690	44.5950
 1.3700	44.3200
 1.3710	44.0330
 1.3720	43.7290
 1.3730	43.4050
 1.3740	43.0660
 1.3750	42.7040
 1.3760	42.3180
 1.3770	41.9120
 1.3780	41.4770
 1.3790	41.0180
 1.3800	40.5380
 1.3810	40.0290
 1.3820	39.5040
 1.3830	38.9590
 1.3840	38.3940
 1.3850	37.8080
 1.3860	37.2110
 1.3870	36.5900
 1.3880	35.9700
 1.3890	35.3390
 1.3900	34.7010
 1.3910	34.0670
 1.3920	33.4300
 1.3930	32.7900
 1.3940	32.1570
 1.3950	31.5240
 1.3960	30.9020
 1.3970	30.2940
 1.3980	29.6980
 1.3990	29.1240
 1.4000	28.5670
 1.4010	28.0240
 1.4020	27.5040
 1.4030	27.0000
 1.4040	26.5160
 1.4050	26.0560
 1.4060	25.6150
 1.4070	25.2020
 1.4080	24.8100
 1.4090	24.4390
 1.4100	24.0910
 1.4110	23.7600
 1.4120	23.4490
 1.4130	23.1590
 1.4140	22.8870
 1.4150	22.6370
 1.4160	22.4040
 1.4170	22.1870
 1.4180	21.9850
 1.4190	21.7930
 1.4200	21.6150
 1.4210	21.4510
 1.4220	21.2980
 1.4230	21.1590
 1.4240	21.0310
 1.4250	20.9110
 1.4260	20.8020
 1.4270	20.7000
 1.4280	20.6070
 1.4290	20.5220
 1.4300	20.4460
 1.4310	20.3770
 1.4320	20.3150
 1.4330	20.2580
 1.4340	20.2090
 1.4350	20.1640
 1.4360	20.1260
 1.4370	20.0930
 1.4380	20.0650
 1.4390	20.0420
 1.4400	20.0230
 1.4410	20.0090
 1.4420	20.0000
 1.4430	19.9940
 1.4440	19.9900
 1.4450	19.9890
 1.4460	19.9910
 1.4470	19.9960
 1.4480	20.0040
 1.4490	20.0140
 1.4500	20.0260
 1.4510	20.0380
 1.4520	20.0520
 1.4530	20.0690
 1.4540	20.0890
 1.4550	20.1130
 1.4560	20.1390
 1.4570	20.1670
 1.4580	20.1980
 1.4590	20.2320
 1.4600	20.2700
 1.4610	20.3110
 1.4620	20.3570
 1.4630	20.4080
 1.4640	20.4630
 1.4650	20.5220
 1.4660	20.5870
 1.4670	20.6570
 1.4680	20.7320
