Name: Quercus rubra
Type: Vegetation
Class: Tree
Genus: Quercus
Species: rubra
Sample No.: QURU-1-3
Owner: UCSB
Wavelength Range: TIR
Origin: USA; Massachusetts; Harvard Forest
Collection Date: 7/8/2013
Description: Samples were collected as part of NSF Macrosystem Biology proposal titled: Collaborative Research: Thermal controls on ecosystem metabolism and function: scaling from leaves to canopies to regions. Samples were collected and overnighted to JPL facilities for processing. The same leaves were processed in the Nicolet and then measured using the ASD.
Measurement: Hemispherical reflectance
First Column: X
Second Column: Y
X Units: Wavelength (micrometers)
Y Units: Reflectance (percentage)
First X Value: 2.501
Last X Value: 15.387
Number of X Values: 1737
Additional Information: vegetation.tree.quercus.rubra.tir.quru-1-3.ucsb.nicolet.ancillary.txt

 2.5010	 8.4150
 2.5030	 8.4470
 2.5040	 8.4020
 2.5050	 8.3470
 2.5060	 8.0580
 2.5070	 8.0000
 2.5090	 8.7000
 2.5100	 8.8570
 2.5110	 8.3860
 2.5120	 8.1960
 2.5140	 8.3480
 2.5150	 8.2310
 2.5160	 8.1870
 2.5170	 7.9370
 2.5180	 7.6610
 2.5200	 7.6820
 2.5210	 7.8480
 2.5220	 7.8990
 2.5230	 7.9800
 2.5250	 8.1140
 2.5260	 8.1120
 2.5270	 7.9180
 2.5280	 7.9740
 2.5290	 8.1480
 2.5310	 8.0880
 2.5320	 7.8240
 2.5330	 7.7490
 2.5340	 7.8050
 2.5360	 8.2030
 2.5370	 8.2980
 2.5380	 8.0570
 2.5390	 7.8900
 2.5410	 8.0160
 2.5420	 8.0060
 2.5430	 7.9250
 2.5440	 7.9650
 2.5460	 8.0300
 2.5470	 7.9890
 2.5480	 7.9770
 2.5490	 7.9540
 2.5510	 8.1840
 2.5520	 8.2690
 2.5530	 8.1080
 2.5540	 7.9790
 2.5560	 8.2100
 2.5570	 8.1370
 2.5580	 8.2100
 2.5590	 8.2360
 2.5610	 8.2100
 2.5620	 8.1520
 2.5630	 8.1010
 2.5640	 7.9650
 2.5660	 7.9220
 2.5670	 8.0910
 2.5680	 8.1790
 2.5700	 7.8720
 2.5710	 7.7960
 2.5720	 7.8930
 2.5730	 8.0040
 2.5750	 7.8550
 2.5760	 7.8720
 2.5770	 7.9140
 2.5790	 7.9820
 2.5800	 7.9870
 2.5810	 7.6700
 2.5820	 7.5940
 2.5840	 7.8250
 2.5850	 7.7350
 2.5860	 7.9100
 2.5880	 7.9330
 2.5890	 7.6340
 2.5900	 7.7040
 2.5910	 7.8040
 2.5930	 8.0290
 2.5940	 7.8990
 2.5950	 7.5210
 2.5970	 7.5490
 2.5980	 7.6810
 2.5990	 7.9310
 2.6000	 7.8520
 2.6020	 7.7490
 2.6030	 7.5710
 2.6040	 7.4860
 2.6060	 7.4470
 2.6070	 7.4790
 2.6080	 7.2830
 2.6100	 7.0760
 2.6110	 6.8770
 2.6120	 6.9670
 2.6140	 7.0010
 2.6150	 6.9040
 2.6160	 6.7720
 2.6180	 6.9740
 2.6190	 6.9570
 2.6200	 6.7780
 2.6220	 6.4980
 2.6230	 6.3620
 2.6240	 6.4030
 2.6260	 6.5770
 2.6270	 6.3720
 2.6280	 6.1970
 2.6300	 6.2520
 2.6310	 6.2780
 2.6320	 6.1230
 2.6340	 6.1520
 2.6350	 6.0810
 2.6360	 5.9980
 2.6380	 5.8800
 2.6390	 5.7880
 2.6400	 5.6610
 2.6420	 5.5410
 2.6430	 5.4380
 2.6440	 5.5490
 2.6460	 5.5060
 2.6470	 5.3930
 2.6480	 5.2980
 2.6500	 5.2770
 2.6510	 5.1520
 2.6520	 5.3030
 2.6540	 5.2290
 2.6550	 5.1520
 2.6560	 5.1770
 2.6580	 5.2980
 2.6590	 5.0770
 2.6610	 5.0490
 2.6620	 4.9660
 2.6630	 4.9580
 2.6650	 4.9730
 2.6660	 4.9930
 2.6670	 4.8930
 2.6690	 4.5840
 2.6700	 4.4310
 2.6720	 4.5560
 2.6730	 4.4500
 2.6740	 4.3370
 2.6760	 4.5330
 2.6770	 4.4760
 2.6780	 4.3260
 2.6800	 4.5180
 2.6810	 4.3980
 2.6830	 4.4950
 2.6840	 4.4100
 2.6850	 4.2480
 2.6870	 4.0920
 2.6880	 4.0270
 2.6900	 4.1930
 2.6910	 4.2550
 2.6920	 4.0280
 2.6940	 3.9420
 2.6950	 3.9890
 2.6970	 4.0960
 2.6980	 4.2410
 2.6990	 4.2140
 2.7010	 4.0820
 2.7020	 4.1770
 2.7040	 4.3090
 2.7050	 4.3810
 2.7060	 4.2100
 2.7080	 4.2020
 2.7090	 4.0200
 2.7110	 3.9550
 2.7120	 3.8690
 2.7130	 3.8330
 2.7150	 3.9220
 2.7160	 4.0850
 2.7180	 4.2400
 2.7190	 4.4360
 2.7210	 4.9000
 2.7220	 4.6100
 2.7230	 4.0370
 2.7250	 4.1920
 2.7260	 4.3850
 2.7280	 4.4050
 2.7290	 4.1800
 2.7310	 4.1860
 2.7320	 4.2540
 2.7330	 3.8890
 2.7350	 3.8190
 2.7360	 3.9830
 2.7380	 3.7570
 2.7390	 3.6360
 2.7410	 3.9310
 2.7420	 4.0380
 2.7440	 3.9900
 2.7450	 4.2110
 2.7470	 3.7860
 2.7480	 3.7330
 2.7490	 3.6960
 2.7510	 3.9000
 2.7520	 4.1820
 2.7540	 4.0000
 2.7550	 4.0710
 2.7570	 4.1240
 2.7580	 4.0730
 2.7600	 4.2180
 2.7610	 4.4690
 2.7630	 4.2230
 2.7640	 4.2730
 2.7660	 4.2700
 2.7670	 3.9540
 2.7680	 4.1800
 2.7700	 3.9210
 2.7710	 3.7070
 2.7730	 4.0310
 2.7740	 4.2010
 2.7760	 4.3020
 2.7770	 4.4600
 2.7790	 4.3240
 2.7800	 4.0790
 2.7820	 3.9860
 2.7830	 4.0120
 2.7850	 4.2600
 2.7860	 4.4680
 2.7880	 4.2720
 2.7890	 3.8990
 2.7910	 3.8910
 2.7920	 4.1510
 2.7940	 4.0480
 2.7950	 3.9620
 2.7970	 3.9980
 2.7980	 3.9790
 2.8000	 4.1500
 2.8010	 4.2620
 2.8030	 3.9760
 2.8040	 3.7930
 2.8060	 3.6570
 2.8070	 3.7400
 2.8090	 3.8630
 2.8110	 3.9450
 2.8120	 4.0250
 2.8140	 4.0720
 2.8150	 4.0580
 2.8170	 3.9410
 2.8180	 3.8820
 2.8200	 4.0550
 2.8210	 4.2190
 2.8230	 4.2160
 2.8240	 4.2320
 2.8260	 4.3800
 2.8270	 4.1900
 2.8290	 4.0360
 2.8300	 3.9750
 2.8320	 3.8320
 2.8340	 3.5300
 2.8350	 3.5310
 2.8370	 3.3980
 2.8380	 3.6240
 2.8400	 3.7920
 2.8410	 3.8670
 2.8430	 3.9320
 2.8440	 4.0190
 2.8460	 4.1490
 2.8480	 4.2020
 2.8490	 4.1190
 2.8510	 4.1320
 2.8520	 4.0330
 2.8540	 3.9190
 2.8550	 3.9550
 2.8570	 3.9270
 2.8590	 3.7970
 2.8600	 4.0220
 2.8620	 4.1600
 2.8630	 4.0400
 2.8650	 4.1330
 2.8660	 4.3050
 2.8680	 4.3400
 2.8700	 4.0820
 2.8710	 3.8980
 2.8730	 3.9900
 2.8740	 4.0650
 2.8760	 4.1290
 2.8780	 3.8450
 2.8790	 3.9160
 2.8810	 4.1300
 2.8820	 4.0550
 2.8840	 3.5690
 2.8860	 3.6260
 2.8870	 3.5790
 2.8890	 3.5240
 2.8900	 3.8990
 2.8920	 4.3760
 2.8940	 4.2500
 2.8950	 4.2790
 2.8970	 4.2250
 2.8980	 4.0170
 2.9000	 3.8910
 2.9020	 4.0040
 2.9030	 4.0370
 2.9050	 3.8650
 2.9070	 3.8690
 2.9080	 4.0620
 2.9100	 4.0160
 2.9120	 3.9610
 2.9130	 3.7120
 2.9150	 3.4940
 2.9160	 3.7550
 2.9180	 4.0130
 2.9200	 3.8960
 2.9210	 3.8410
 2.9230	 3.9090
 2.9250	 3.9570
 2.9260	 3.8740
 2.9280	 3.9300
 2.9300	 3.8040
 2.9310	 3.8410
 2.9330	 3.8640
 2.9350	 3.8940
 2.9360	 3.8200
 2.9380	 3.8750
 2.9400	 3.8630
 2.9410	 3.7220
 2.9430	 3.5100
 2.9450	 3.5450
 2.9460	 3.6150
 2.9480	 3.7370
 2.9500	 3.7940
 2.9510	 3.5670
 2.9530	 3.8320
 2.9550	 3.7220
 2.9560	 3.2700
 2.9580	 3.1930
 2.9600	 3.7550
 2.9610	 4.7860
 2.9630	 4.4980
 2.9650	 4.7060
 2.9660	 5.0230
 2.9680	 5.3710
 2.9700	 5.8580
 2.9720	 6.7590
 2.9730	 6.9420
 2.9750	 5.7270
 2.9770	 6.1800
 2.9780	 6.8990
 2.9800	 5.2940
 2.9820	 2.5990
 2.9840	 3.1390
 2.9850	 3.9770
 2.9870	 4.1580
 2.9890	 3.3650
 2.9900	 1.2850
 2.9920	 1.9990
 2.9940	 3.4840
 2.9960	 1.8110
 2.9970	 4.1470
 2.9990	 5.3860
 3.0010	 3.1560
 3.0030	 3.8180
 3.0040	 4.8160
 3.0060	 5.1060
 3.0080	 5.3120
 3.0100	 4.4090
 3.0110	 2.8430
 3.0130	 3.1130
 3.0150	 4.2840
 3.0170	 4.9290
 3.0180	 3.9980
 3.0200	 3.7360
 3.0220	 3.9110
 3.0240	 4.0170
 3.0250	 3.6930
 3.0270	 3.8470
 3.0290	 3.7810
 3.0310	 3.6340
 3.0320	 3.1360
 3.0340	 3.4200
 3.0360	 3.3250
 3.0380	 3.9720
 3.0400	 4.3720
 3.0410	 2.9890
 3.0430	 1.9830
 3.0450	 4.4540
 3.0470	 4.7260
 3.0480	 2.9760
 3.0500	 4.2340
 3.0520	 3.9340
 3.0540	 3.1870
 3.0560	 3.6040
 3.0570	 3.9660
 3.0590	 4.1130
 3.0610	 4.3360
 3.0630	 3.2850
 3.0650	 2.1290
 3.0660	 2.5870
 3.0680	 3.9730
 3.0700	 4.4720
 3.0720	 3.8380
 3.0740	 3.8880
 3.0760	 3.8170
 3.0770	 3.8730
 3.0790	 3.8370
 3.0810	 3.8630
 3.0830	 3.9540
 3.0850	 4.1220
 3.0870	 3.9370
 3.0880	 3.8120
 3.0900	 3.6640
 3.0920	 3.3890
 3.0940	 3.7750
 3.0960	 4.2420
 3.0980	 3.9390
 3.0990	 3.7750
 3.1010	 3.9940
 3.1030	 3.9200
 3.1050	 3.3310
 3.1070	 3.0230
 3.1090	 3.3300
 3.1110	 3.5720
 3.1120	 3.8570
 3.1140	 4.1040
 3.1160	 3.7500
 3.1180	 3.5300
 3.1200	 2.9670
 3.1220	 2.8860
 3.1240	 3.2850
 3.1260	 4.0400
 3.1270	 3.9310
 3.1290	 3.3080
 3.1310	 3.4250
 3.1330	 3.8610
 3.1350	 4.3870
 3.1370	 4.6250
 3.1390	 4.3180
 3.1410	 3.7410
 3.1430	 3.0840
 3.1450	 3.0870
 3.1460	 3.2200
 3.1480	 3.4410
 3.1500	 4.3660
 3.1520	 4.5170
 3.1540	 3.8090
 3.1560	 4.8130
 3.1580	 4.7130
 3.1600	 4.4920
 3.1620	 5.1930
 3.1640	 1.5980
 3.1660	 0.9370
 3.1680	 4.2450
 3.1700	 4.5610
 3.1710	 3.8300
 3.1730	 3.1460
 3.1750	 5.8290
 3.1770	 8.7110
 3.1790	 7.1450
 3.1810	 7.4180
 3.1830	 8.7750
 3.1850	 6.2390
 3.1870	 3.4070
 3.1890	 3.5670
 3.1910	 3.8790
 3.1930	 3.6050
 3.1950	 3.8370
 3.1970	 4.0150
 3.1990	 3.8490
 3.2010	 3.8080
 3.2030	 3.9170
 3.2050	 3.7830
 3.2070	 3.7530
 3.2090	 3.7660
 3.2110	 3.7160
 3.2130	 3.7860
 3.2150	 3.8240
 3.2170	 3.7000
 3.2190	 3.8820
 3.2210	 3.7820
 3.2230	 3.5150
 3.2250	 3.6180
 3.2270	 3.8540
 3.2290	 3.8300
 3.2310	 3.7840
 3.2330	 3.3640
 3.2350	 3.4740
 3.2370	 3.5520
 3.2390	 3.4160
 3.2410	 3.4750
 3.2430	 3.7070
 3.2450	 3.5480
 3.2470	 3.6160
 3.2490	 3.8700
 3.2510	 3.9850
 3.2530	 3.7050
 3.2550	 3.7690
 3.2570	 3.8520
 3.2590	 3.7570
 3.2610	 3.4820
 3.2630	 3.5340
 3.2650	 3.6410
 3.2670	 3.9910
 3.2690	 4.1020
 3.2720	 3.9240
 3.2740	 3.7140
 3.2760	 3.6670
 3.2780	 3.7220
 3.2800	 3.8000
 3.2820	 3.7860
 3.2840	 3.7580
 3.2860	 3.8580
 3.2880	 3.8020
 3.2900	 3.6620
 3.2920	 3.8630
 3.2940	 3.7430
 3.2960	 3.6740
 3.2990	 4.0280
 3.3010	 4.0340
 3.3030	 3.7970
 3.3050	 3.9350
 3.3070	 3.7720
 3.3090	 3.1780
 3.3110	 3.2820
 3.3130	 3.7270
 3.3150	 3.5510
 3.3180	 3.5740
 3.3200	 3.5620
 3.3220	 3.2070
 3.3240	 3.1060
 3.3260	 3.6390
 3.3280	 3.8080
 3.3300	 3.8190
 3.3330	 3.8930
 3.3350	 3.6380
 3.3370	 3.4450
 3.3390	 3.6330
 3.3410	 3.5880
 3.3430	 3.5180
 3.3450	 3.6380
 3.3480	 3.6630
 3.3500	 3.5250
 3.3520	 3.4790
 3.3540	 3.4530
 3.3560	 3.4350
 3.3580	 3.2420
 3.3610	 3.3630
 3.3630	 3.2710
 3.3650	 3.2070
 3.3670	 3.2190
 3.3690	 3.1690
 3.3720	 3.0540
 3.3740	 3.0950
 3.3760	 2.9710
 3.3780	 3.0380
 3.3800	 3.2460
 3.3830	 3.3620
 3.3850	 3.1940
 3.3870	 3.1670
 3.3890	 3.2880
 3.3910	 3.2280
 3.3940	 2.9700
 3.3960	 2.7530
 3.3980	 2.6370
 3.4000	 2.6800
 3.4020	 2.8160
 3.4050	 2.8660
 3.4070	 2.6710
 3.4090	 2.7550
 3.4110	 2.8810
 3.4140	 3.0350
 3.4160	 3.1560
 3.4180	 3.3160
 3.4200	 3.7020
 3.4230	 4.3980
 3.4250	 5.0990
 3.4270	 6.0200
 3.4290	 6.6970
 3.4320	 6.7890
 3.4340	 6.4350
 3.4360	 5.9930
 3.4390	 5.4000
 3.4410	 5.0730
 3.4430	 5.0210
 3.4450	 5.0680
 3.4480	 4.6860
 3.4500	 4.2050
 3.4520	 4.1280
 3.4550	 4.1590
 3.4570	 4.3810
 3.4590	 4.4560
 3.4620	 4.4660
 3.4640	 4.6630
 3.4660	 4.7830
 3.4680	 4.4100
 3.4710	 4.1770
 3.4730	 4.3630
 3.4750	 4.2630
 3.4780	 3.9950
 3.4800	 3.9700
 3.4820	 4.0250
 3.4850	 4.0220
 3.4870	 4.0540
 3.4890	 3.8880
 3.4920	 3.7150
 3.4940	 3.7090
 3.4970	 3.7470
 3.4990	 3.7510
 3.5010	 3.6740
 3.5040	 3.8760
 3.5060	 4.3600
 3.5080	 5.1670
 3.5110	 6.1640
 3.5130	 6.3430
 3.5160	 5.9330
 3.5180	 5.7630
 3.5200	 5.7460
 3.5230	 5.5600
 3.5250	 5.4560
 3.5270	 5.1860
 3.5300	 4.8910
 3.5320	 4.9090
 3.5350	 4.9210
 3.5370	 4.7060
 3.5400	 4.6810
 3.5420	 4.6130
 3.5440	 4.5660
 3.5470	 4.5590
 3.5490	 4.6370
 3.5520	 4.7030
 3.5540	 4.8070
 3.5570	 4.8140
 3.5590	 4.6150
 3.5610	 4.4900
 3.5640	 4.4250
 3.5660	 4.3310
 3.5690	 4.3310
 3.5710	 4.2410
 3.5740	 4.2330
 3.5760	 4.3980
 3.5790	 4.5720
 3.5810	 4.4920
 3.5840	 4.4430
 3.5860	 4.5330
 3.5890	 4.5840
 3.5910	 4.5990
 3.5930	 4.2940
 3.5960	 4.2350
 3.5980	 4.1810
 3.6010	 4.1220
 3.6030	 4.4520
 3.6060	 4.3530
 3.6080	 4.1240
 3.6110	 4.2350
 3.6140	 4.2660
 3.6160	 4.1830
 3.6190	 4.2340
 3.6210	 4.2790
 3.6240	 4.3370
 3.6260	 4.2490
 3.6290	 4.1580
 3.6310	 4.2510
 3.6340	 4.2320
 3.6360	 4.0590
 3.6390	 4.2200
 3.6410	 4.3120
 3.6440	 4.2270
 3.6470	 4.2070
 3.6490	 4.3560
 3.6520	 4.3080
 3.6540	 4.2160
 3.6570	 4.2510
 3.6590	 4.2760
 3.6620	 4.1620
 3.6650	 4.2500
 3.6670	 4.3400
 3.6700	 4.2700
 3.6720	 4.1960
 3.6750	 4.2210
 3.6780	 4.2230
 3.6800	 4.2420
 3.6830	 4.2180
 3.6850	 4.1960
 3.6880	 4.2150
 3.6910	 4.2870
 3.6930	 4.3300
 3.6960	 4.3370
 3.6990	 4.3080
 3.7010	 4.1760
 3.7040	 4.1350
 3.7060	 4.2700
 3.7090	 4.2520
 3.7120	 4.1670
 3.7140	 4.1450
 3.7170	 4.1660
 3.7200	 4.0730
 3.7220	 4.0240
 3.7250	 4.1560
 3.7280	 4.4100
 3.7300	 4.3950
 3.7330	 4.3910
 3.7360	 4.4900
 3.7390	 4.4630
 3.7410	 4.3380
 3.7440	 4.3460
 3.7470	 4.2970
 3.7490	 4.5270
 3.7520	 4.5980
 3.7550	 4.4600
 3.7580	 4.2240
 3.7600	 4.0920
 3.7630	 4.0960
 3.7660	 4.1190
 3.7680	 4.1470
 3.7710	 4.2600
 3.7740	 4.3310
 3.7770	 4.3920
 3.7790	 4.4180
 3.7820	 4.3110
 3.7850	 4.1890
 3.7880	 4.2960
 3.7900	 4.2580
 3.7930	 4.2430
 3.7960	 4.1990
 3.7990	 4.2100
 3.8020	 4.3320
 3.8040	 4.2430
 3.8070	 4.0720
 3.8100	 4.1060
 3.8130	 4.1480
 3.8160	 4.1240
 3.8180	 4.1430
 3.8210	 4.4220
 3.8240	 4.4550
 3.8270	 4.3460
 3.8300	 4.1840
 3.8330	 4.1770
 3.8350	 4.3950
 3.8380	 4.4520
 3.8410	 4.2700
 3.8440	 4.1910
 3.8470	 4.3600
 3.8500	 4.5410
 3.8520	 4.3280
 3.8550	 4.3900
 3.8580	 4.4770
 3.8610	 4.4300
 3.8640	 4.3630
 3.8670	 4.3440
 3.8700	 4.3280
 3.8730	 4.3920
 3.8750	 4.3420
 3.8780	 4.3910
 3.8810	 4.3760
 3.8840	 4.3910
 3.8870	 4.2710
 3.8900	 4.1650
 3.8930	 4.1940
 3.8960	 4.2440
 3.8990	 4.3060
 3.9020	 4.2990
 3.9050	 4.1780
 3.9080	 4.1570
 3.9110	 4.2020
 3.9140	 4.3480
 3.9160	 4.2880
 3.9190	 4.2870
 3.9220	 4.3550
 3.9250	 4.4240
 3.9280	 4.4580
 3.9310	 4.4580
 3.9340	 4.3630
 3.9370	 4.3340
 3.9400	 4.3220
 3.9430	 4.3960
 3.9460	 4.4490
 3.9490	 4.4130
 3.9520	 4.3420
 3.9550	 4.2440
 3.9580	 4.2280
 3.9610	 4.3180
 3.9640	 4.4080
 3.9670	 4.5480
 3.9700	 4.5490
 3.9730	 4.5170
 3.9770	 4.5450
 3.9800	 4.5430
 3.9830	 4.4490
 3.9860	 4.4300
 3.9890	 4.4050
 3.9920	 4.4570
 3.9950	 4.4940
 3.9980	 4.4740
 4.0010	 4.4120
 4.0040	 4.3840
 4.0070	 4.4050
 4.0100	 4.4070
 4.0130	 4.3970
 4.0170	 4.4030
 4.0200	 4.3460
 4.0230	 4.3750
 4.0260	 4.4420
 4.0290	 4.5020
 4.0320	 4.5550
 4.0350	 4.5250
 4.0380	 4.4640
 4.0420	 4.4780
 4.0450	 4.4200
 4.0480	 4.3740
 4.0510	 4.3120
 4.0540	 4.2890
 4.0570	 4.2930
 4.0610	 4.3120
 4.0640	 4.3530
 4.0670	 4.3650
 4.0700	 4.2850
 4.0730	 4.3830
 4.0770	 4.4120
 4.0800	 4.2810
 4.0830	 4.3250
 4.0860	 4.4420
 4.0890	 4.4440
 4.0930	 4.4650
 4.0960	 4.4200
 4.0990	 4.3890
 4.1020	 4.3210
 4.1060	 4.4520
 4.1090	 4.4250
 4.1120	 4.2790
 4.1150	 4.2910
 4.1190	 4.7030
 4.1220	 4.7470
 4.1250	 4.5290
 4.1280	 4.4570
 4.1320	 4.4550
 4.1350	 4.4240
 4.1380	 4.4470
 4.1420	 4.4420
 4.1450	 4.3990
 4.1480	 4.3620
 4.1520	 4.4050
 4.1550	 4.3520
 4.1580	 4.3730
 4.1620	 4.3640
 4.1650	 4.3630
 4.1680	 4.2520
 4.1720	 4.2030
 4.1750	 4.2710
 4.1780	 4.3710
 4.1820	 4.3540
 4.1850	 4.4030
 4.1890	 4.4370
 4.1920	 4.4270
 4.1950	 4.3980
 4.1990	 4.3500
 4.2020	 4.2880
 4.2060	 4.2460
 4.2090	 4.1230
 4.2120	 4.2020
 4.2160	 4.4380
 4.2190	 4.3620
 4.2230	 4.3130
 4.2260	 4.4730
 4.2300	 4.4650
 4.2330	 4.3120
 4.2360	 4.1210
 4.2400	 3.9910
 4.2430	 4.0490
 4.2470	 4.0280
 4.2500	 4.1130
 4.2540	 4.1320
 4.2570	 4.0510
 4.2610	 4.2540
 4.2640	 4.4850
 4.2680	 4.3110
 4.2710	 3.9760
 4.2750	 3.9610
 4.2780	 4.1550
 4.2820	 4.2430
 4.2850	 4.2660
 4.2890	 4.0010
 4.2930	 3.8410
 4.2960	 4.0410
 4.3000	 4.1850
 4.3030	 4.1840
 4.3070	 4.0610
 4.3100	 3.9880
 4.3140	 3.9330
 4.3180	 3.9760
 4.3210	 4.0290
 4.3250	 4.0800
 4.3280	 4.1150
 4.3320	 4.1120
 4.3360	 4.0360
 4.3390	 4.0520
 4.3430	 4.1820
 4.3470	 4.3180
 4.3500	 4.1770
 4.3540	 3.9950
 4.3570	 4.0000
 4.3610	 4.1880
 4.3650	 4.2270
 4.3680	 4.2390
 4.3720	 4.1970
 4.3760	 4.0950
 4.3800	 4.0750
 4.3830	 4.0720
 4.3870	 4.0510
 4.3910	 4.0890
 4.3940	 4.0800
 4.3980	 4.0200
 4.4020	 4.0510
 4.4060	 4.1050
 4.4090	 4.2150
 4.4130	 4.2240
 4.4170	 4.0750
 4.4210	 4.0160
 4.4240	 4.0300
 4.4280	 4.0390
 4.4320	 4.0410
 4.4360	 3.9590
 4.4400	 3.9220
 4.4430	 4.0150
 4.4470	 4.0520
 4.4510	 4.0410
 4.4550	 4.1370
 4.4590	 4.2070
 4.4620	 4.1950
 4.4660	 4.1890
 4.4700	 4.2440
 4.4740	 4.2210
 4.4780	 4.0710
 4.4820	 4.0750
 4.4860	 4.0730
 4.4900	 4.0230
 4.4930	 3.9870
 4.4970	 3.9230
 4.5010	 3.9620
 4.5050	 4.0650
 4.5090	 4.1760
 4.5130	 4.1150
 4.5170	 3.9730
 4.5210	 3.9490
 4.5250	 4.1050
 4.5290	 4.1440
 4.5330	 4.1490
 4.5370	 4.1010
 4.5410	 4.0510
 4.5450	 4.0950
 4.5490	 4.1230
 4.5530	 4.1100
 4.5570	 3.9780
 4.5610	 3.9690
 4.5650	 3.9870
 4.5690	 4.0300
 4.5730	 4.1420
 4.5770	 4.1380
 4.5810	 4.1210
 4.5850	 4.1880
 4.5890	 4.2150
 4.5930	 4.1760
 4.5970	 4.0630
 4.6010	 3.9670
 4.6050	 4.0260
 4.6090	 3.9890
 4.6130	 3.9940
 4.6170	 4.0610
 4.6220	 4.0650
 4.6260	 4.1390
 4.6300	 4.2490
 4.6340	 4.3060
 4.6380	 4.3030
 4.6420	 4.1460
 4.6460	 4.0550
 4.6510	 4.0130
 4.6550	 4.0310
 4.6590	 4.1790
 4.6630	 4.2620
 4.6670	 4.2330
 4.6720	 4.1910
 4.6760	 4.0190
 4.6800	 3.9440
 4.6840	 3.9930
 4.6880	 4.0480
 4.6930	 4.1670
 4.6970	 4.2250
 4.7010	 4.1820
 4.7050	 4.0930
 4.7100	 4.1430
 4.7140	 4.2100
 4.7180	 4.2140
 4.7230	 4.2680
 4.7270	 4.2780
 4.7310	 4.1580
 4.7360	 4.1140
 4.7400	 4.1330
 4.7440	 4.0520
 4.7490	 4.0310
 4.7530	 4.1070
 4.7570	 4.1060
 4.7620	 4.2170
 4.7660	 4.4340
 4.7700	 4.3200
 4.7750	 4.1310
 4.7790	 4.1570
 4.7840	 4.1220
 4.7880	 4.0670
 4.7920	 3.8120
 4.7970	 3.9620
 4.8010	 4.3110
 4.8060	 4.3080
 4.8100	 4.2890
 4.8150	 4.2480
 4.8190	 4.1890
 4.8240	 4.1920
 4.8280	 4.1610
 4.8330	 4.0990
 4.8370	 4.1470
 4.8420	 4.1290
 4.8460	 4.0660
 4.8510	 4.1270
 4.8550	 4.1870
 4.8600	 4.1450
 4.8640	 4.2040
 4.8690	 4.2950
 4.8730	 4.1870
 4.8780	 4.0420
 4.8830	 4.1390
 4.8870	 4.2140
 4.8920	 4.2630
 4.8960	 4.2970
 4.9010	 4.2580
 4.9060	 4.1670
 4.9100	 4.1640
 4.9150	 4.1910
 4.9200	 4.2810
 4.9240	 4.3140
 4.9290	 4.3050
 4.9340	 4.1940
 4.9380	 4.1440
 4.9430	 4.2010
 4.9480	 4.2060
 4.9530	 4.1770
 4.9570	 4.2340
 4.9620	 4.2410
 4.9670	 4.2070
 4.9720	 4.3380
 4.9760	 4.3830
 4.9810	 4.2800
 4.9860	 4.2280
 4.9910	 4.2460
 4.9960	 4.3060
 5.0000	 4.3010
 5.0050	 4.3400
 5.0100	 4.2840
 5.0150	 4.2970
 5.0200	 4.3050
 5.0250	 4.3530
 5.0290	 4.3730
 5.0340	 4.4330
 5.0390	 4.3680
 5.0440	 4.3130
 5.0490	 4.3410
 5.0540	 4.4210
 5.0590	 4.4760
 5.0640	 4.4240
 5.0690	 4.3930
 5.0740	 4.4410
 5.0790	 4.5120
 5.0840	 4.5250
 5.0890	 4.4690
 5.0940	 4.4400
 5.0990	 4.3910
 5.1040	 4.4010
 5.1090	 4.4370
 5.1140	 4.3180
 5.1190	 4.3610
 5.1240	 4.5430
 5.1290	 4.5970
 5.1340	 4.5640
 5.1390	 4.4790
 5.1440	 4.4700
 5.1490	 4.5320
 5.1540	 4.5140
 5.1600	 4.5020
 5.1650	 4.5120
 5.1700	 4.4660
 5.1750	 4.4530
 5.1800	 4.4050
 5.1850	 4.3580
 5.1910	 4.3990
 5.1960	 4.5460
 5.2010	 4.5140
 5.2060	 4.4790
 5.2110	 4.5180
 5.2170	 4.5470
 5.2220	 4.5270
 5.2270	 4.5300
 5.2320	 4.5520
 5.2380	 4.6150
 5.2430	 4.5870
 5.2480	 4.5200
 5.2540	 4.5220
 5.2590	 4.5860
 5.2640	 4.6080
 5.2700	 4.6190
 5.2750	 4.5320
 5.2800	 4.5760
 5.2860	 4.6580
 5.2910	 4.7250
 5.2970	 4.7470
 5.3020	 4.7170
 5.3070	 4.5610
 5.3130	 4.5960
 5.3180	 4.6410
 5.3240	 4.6340
 5.3290	 4.6610
 5.3350	 4.6720
 5.3400	 4.5890
 5.3460	 4.5440
 5.3510	 4.5580
 5.3570	 4.6250
 5.3620	 4.6850
 5.3680	 4.6770
 5.3730	 4.6210
 5.3790	 4.5880
 5.3850	 4.6380
 5.3900	 4.6650
 5.3960	 4.5740
 5.4010	 4.4810
 5.4070	 4.4450
 5.4130	 4.5100
 5.4180	 4.4280
 5.4240	 4.4310
 5.4300	 4.4240
 5.4350	 4.4670
 5.4410	 4.5680
 5.4470	 4.5590
 5.4530	 4.4820
 5.4580	 4.4630
