Name: Uvularia sessifolia
Type: Vegetation
Class: Tree
Genus: Uvularia
Species: sessifolia
Sample No.: UVSE-1-75
Owner: UCSB
Wavelength Range: VSWIR
Origin: USA; Massachusetts; Harvard Forest
Collection Date: 7/8/2013
Description: Samples were collected as part of NSF Macrosystem Biology proposal titled: Collaborative Research: Thermal controls on ecosystem metabolism and function: scaling from leaves to canopies to regions. Samples were collected and overnighted to JPL facilities for processing. The same leaves were processed in the Nicolet and then measured using the ASD.
Measurement: Bidirectional reflectance
First Column: X
Second Column: Y
X Units: Wavelength (micrometers)
Y Units: Reflectance (percentage)
First X Value: 0.35
Last X Value: 2.5
Number of X Values: 2151
Additional Information: vegetation.tree.uvularia.sessifolia.vswir.uvse-1-75.ucsb.asd.ancillary.txt

 0.3500	 2.2170
 0.3510	 2.2980
 0.3520	 2.2040
 0.3530	 1.9790
 0.3540	 1.8250
 0.3550	 2.0520
 0.3560	 2.1870
 0.3570	 2.1890
 0.3580	 2.2140
 0.3590	 1.9080
 0.3600	 1.8820
 0.3610	 2.1560
 0.3620	 1.8100
 0.3630	 1.8170
 0.3640	 2.0030
 0.3650	 2.0220
 0.3660	 2.0810
 0.3670	 2.0420
 0.3680	 1.9420
 0.3690	 1.9330
 0.3700	 1.8930
 0.3710	 1.8910
 0.3720	 1.9510
 0.3730	 1.9710
 0.3740	 1.9770
 0.3750	 1.9400
 0.3760	 1.8500
 0.3770	 1.8330
 0.3780	 1.9100
 0.3790	 2.0020
 0.3800	 1.9700
 0.3810	 1.8660
 0.3820	 1.8460
 0.3830	 1.9610
 0.3840	 2.0190
 0.3850	 2.0050
 0.3860	 2.0040
 0.3870	 2.0870
 0.3880	 1.9740
 0.3890	 1.9400
 0.3900	 2.0240
 0.3910	 1.9930
 0.3920	 2.0710
 0.3930	 2.1530
 0.3940	 2.1280
 0.3950	 2.0060
 0.3960	 2.0390
 0.3970	 2.1560
 0.3980	 2.1520
 0.3990	 2.1380
 0.4000	 2.1870
 0.4010	 2.2640
 0.4020	 2.2040
 0.4030	 2.2050
 0.4040	 2.2490
 0.4050	 2.2790
 0.4060	 2.3040
 0.4070	 2.3090
 0.4080	 2.3190
 0.4090	 2.3720
 0.4100	 2.3770
 0.4110	 2.3720
 0.4120	 2.3830
 0.4130	 2.3890
 0.4140	 2.4240
 0.4150	 2.4670
 0.4160	 2.4820
 0.4170	 2.4790
 0.4180	 2.4590
 0.4190	 2.4460
 0.4200	 2.4770
 0.4210	 2.4550
 0.4220	 2.4550
 0.4230	 2.5160
 0.4240	 2.5120
 0.4250	 2.5090
 0.4260	 2.5200
 0.4270	 2.5310
 0.4280	 2.5460
 0.4290	 2.5390
 0.4300	 2.5160
 0.4310	 2.5380
 0.4320	 2.5550
 0.4330	 2.5670
 0.4340	 2.5790
 0.4350	 2.5770
 0.4360	 2.5810
 0.4370	 2.5870
 0.4380	 2.5780
 0.4390	 2.5700
 0.4400	 2.5600
 0.4410	 2.5460
 0.4420	 2.5330
 0.4430	 2.5440
 0.4440	 2.5640
 0.4450	 2.5650
 0.4460	 2.5670
 0.4470	 2.5750
 0.4480	 2.5890
 0.4490	 2.6060
 0.4500	 2.6100
 0.4510	 2.6050
 0.4520	 2.6020
 0.4530	 2.6220
 0.4540	 2.6380
 0.4550	 2.6370
 0.4560	 2.6260
 0.4570	 2.6340
 0.4580	 2.6500
 0.4590	 2.6640
 0.4600	 2.6760
 0.4610	 2.6660
 0.4620	 2.6470
 0.4630	 2.6390
 0.4640	 2.6460
 0.4650	 2.6510
 0.4660	 2.6480
 0.4670	 2.6390
 0.4680	 2.6420
 0.4690	 2.6430
 0.4700	 2.6340
 0.4710	 2.6410
 0.4720	 2.6370
 0.4730	 2.6300
 0.4740	 2.6420
 0.4750	 2.6440
 0.4760	 2.6490
 0.4770	 2.6620
 0.4780	 2.6610
 0.4790	 2.6530
 0.4800	 2.6490
 0.4810	 2.6570
 0.4820	 2.6470
 0.4830	 2.6520
 0.4840	 2.6740
 0.4850	 2.6870
 0.4860	 2.7050
 0.4870	 2.7200
 0.4880	 2.7240
 0.4890	 2.7250
 0.4900	 2.7360
 0.4910	 2.7560
 0.4920	 2.7820
 0.4930	 2.8100
 0.4940	 2.8350
 0.4950	 2.8590
 0.4960	 2.8950
 0.4970	 2.9340
 0.4980	 2.9730
 0.4990	 3.0150
 0.5000	 3.0770
 0.5010	 3.1440
 0.5020	 3.2070
 0.5030	 3.2750
 0.5040	 3.3630
 0.5050	 3.4630
 0.5060	 3.5670
 0.5070	 3.6880
 0.5080	 3.8180
 0.5090	 3.9520
 0.5100	 4.0910
 0.5110	 4.2530
 0.5120	 4.4290
 0.5130	 4.6130
 0.5140	 4.8070
 0.5150	 5.0160
 0.5160	 5.2370
 0.5170	 5.4650
 0.5180	 5.7030
 0.5190	 5.9460
 0.5200	 6.1920
 0.5210	 6.4400
 0.5220	 6.6860
 0.5230	 6.9230
 0.5240	 7.1480
 0.5250	 7.3680
 0.5260	 7.5790
 0.5270	 7.7800
 0.5280	 7.9740
 0.5290	 8.1370
 0.5300	 8.2860
 0.5310	 8.4290
 0.5320	 8.5660
 0.5330	 8.6790
 0.5340	 8.7740
 0.5350	 8.8610
 0.5360	 8.9500
 0.5370	 9.0170
 0.5380	 9.0710
 0.5390	 9.1390
 0.5400	 9.2010
 0.5410	 9.2660
 0.5420	 9.3390
 0.5430	 9.4090
 0.5440	 9.4600
 0.5450	 9.4900
 0.5460	 9.5020
 0.5470	 9.4790
 0.5480	 9.4480
 0.5490	 9.4310
 0.5500	 9.4420
 0.5510	 9.4470
 0.5520	 9.4380
 0.5530	 9.4130
 0.5540	 9.3820
 0.5550	 9.3390
 0.5560	 9.2850
 0.5570	 9.2280
 0.5580	 9.1540
 0.5590	 9.0690
 0.5600	 8.9790
 0.5610	 8.8790
 0.5620	 8.7740
 0.5630	 8.6570
 0.5640	 8.5230
 0.5650	 8.3950
 0.5660	 8.2590
 0.5670	 8.1070
 0.5680	 7.9480
 0.5690	 7.7970
 0.5700	 7.6500
 0.5710	 7.5000
 0.5720	 7.3510
 0.5730	 7.2120
 0.5740	 7.0840
 0.5750	 6.9660
 0.5760	 6.8600
 0.5770	 6.7580
 0.5780	 6.6600
 0.5790	 6.5730
 0.5800	 6.4870
 0.5810	 6.3980
 0.5820	 6.3080
 0.5830	 6.2290
 0.5840	 6.1550
 0.5850	 6.0820
 0.5860	 6.0100
 0.5870	 5.9480
 0.5880	 5.8880
 0.5890	 5.8250
 0.5900	 5.7690
 0.5910	 5.7230
 0.5920	 5.6790
 0.5930	 5.6280
 0.5940	 5.5910
 0.5950	 5.5560
 0.5960	 5.5180
 0.5970	 5.4880
 0.5980	 5.4500
 0.5990	 5.4110
 0.6000	 5.3820
 0.6010	 5.3440
 0.6020	 5.3040
 0.6030	 5.2630
 0.6040	 5.2180
 0.6050	 5.1770
 0.6060	 5.1340
 0.6070	 5.0860
 0.6080	 5.0400
 0.6090	 4.9980
 0.6100	 4.9660
 0.6110	 4.9450
 0.6120	 4.8820
 0.6130	 4.8010
 0.6140	 4.7220
 0.6150	 4.6530
 0.6160	 4.5860
 0.6170	 4.5230
 0.6180	 4.4690
 0.6190	 4.4220
 0.6200	 4.3830
 0.6210	 4.3490
 0.6220	 4.3160
 0.6230	 4.2850
 0.6240	 4.2600
 0.6250	 4.2420
 0.6260	 4.2200
 0.6270	 4.2090
 0.6280	 4.2030
 0.6290	 4.1900
 0.6300	 4.1780
 0.6310	 4.1640
 0.6320	 4.1420
 0.6330	 4.1090
 0.6340	 4.0760
 0.6350	 4.0350
 0.6360	 3.9790
 0.6370	 3.9210
 0.6380	 3.8470
 0.6390	 3.7630
 0.6400	 3.6840
 0.6410	 3.6020
 0.6420	 3.5150
 0.6430	 3.4250
 0.6440	 3.3460
 0.6450	 3.2660
 0.6460	 3.1930
 0.6470	 3.1350
 0.6480	 3.0770
 0.6490	 3.0280
 0.6500	 2.9890
 0.6510	 2.9550
 0.6520	 2.9340
 0.6530	 2.9160
 0.6540	 2.8950
 0.6550	 2.8710
 0.6560	 2.8460
 0.6570	 2.8190
 0.6580	 2.7890
 0.6590	 2.7560
 0.6600	 2.7210
 0.6610	 2.6830
 0.6620	 2.6460
 0.6630	 2.6130
 0.6640	 2.5830
 0.6650	 2.5530
 0.6660	 2.5280
 0.6670	 2.5100
 0.6680	 2.4980
 0.6690	 2.4920
 0.6700	 2.4860
 0.6710	 2.4870
 0.6720	 2.4970
 0.6730	 2.5010
 0.6740	 2.5120
 0.6750	 2.5320
 0.6760	 2.5540
 0.6770	 2.5730
 0.6780	 2.6020
 0.6790	 2.6400
 0.6800	 2.6770
 0.6810	 2.7230
 0.6820	 2.7710
 0.6830	 2.8230
 0.6840	 2.8910
 0.6850	 2.9780
 0.6860	 3.0820
 0.6870	 3.2050
 0.6880	 3.3610
 0.6890	 3.5590
 0.6900	 3.8040
 0.6910	 4.1030
 0.6920	 4.4590
 0.6930	 4.8710
 0.6940	 5.3410
 0.6950	 5.8730
 0.6960	 6.4550
 0.6970	 7.0790
 0.6980	 7.7410
 0.6990	 8.4420
 0.7000	 9.1660
 0.7010	 9.9010
 0.7020	10.6440
 0.7030	11.3810
 0.7040	12.1080
 0.7050	12.8240
 0.7060	13.5260
 0.7070	14.2180
 0.7080	14.8980
 0.7090	15.5620
 0.7100	16.2170
 0.7110	16.8650
 0.7120	17.5080
 0.7130	18.1470
 0.7140	18.7720
 0.7150	19.3910
 0.7160	20.0110
 0.7170	20.6280
 0.7180	21.2410
 0.7190	21.8440
 0.7200	22.4340
 0.7210	23.0180
 0.7220	23.6020
 0.7230	24.1750
 0.7240	24.7160
 0.7250	25.2470
 0.7260	25.7710
 0.7270	26.2850
 0.7280	26.7860
 0.7290	27.2480
 0.7300	27.6870
 0.7310	28.1270
 0.7320	28.5430
 0.7330	28.9350
 0.7340	29.3100
 0.7350	29.6690
 0.7360	30.0090
 0.7370	30.3260
 0.7380	30.6180
 0.7390	30.8940
 0.7400	31.1540
 0.7410	31.3980
 0.7420	31.6270
 0.7430	31.8360
 0.7440	32.0260
 0.7450	32.2000
 0.7460	32.3550
 0.7470	32.5000
 0.7480	32.6340
 0.7490	32.7510
 0.7500	32.8470
 0.7510	32.9430
 0.7520	33.0370
 0.7530	33.1160
 0.7540	33.1740
 0.7550	33.2300
 0.7560	33.2900
 0.7570	33.3420
 0.7580	33.3780
 0.7590	33.4060
 0.7600	33.4370
 0.7610	33.4750
 0.7620	33.4970
 0.7630	33.5100
 0.7640	33.5270
 0.7650	33.5480
 0.7660	33.5550
 0.7670	33.5550
 0.7680	33.5640
 0.7690	33.5660
 0.7700	33.5630
 0.7710	33.5620
 0.7720	33.5720
 0.7730	33.5710
 0.7740	33.5700
 0.7750	33.5770
 0.7760	33.5630
 0.7770	33.5550
 0.7780	33.5560
 0.7790	33.5560
 0.7800	33.5520
 0.7810	33.5540
 0.7820	33.5580
 0.7830	33.5390
 0.7840	33.5380
 0.7850	33.5420
 0.7860	33.5380
 0.7870	33.5370
 0.7880	33.5360
 0.7890	33.5310
 0.7900	33.5220
 0.7910	33.5240
 0.7920	33.5220
 0.7930	33.5150
 0.7940	33.5160
 0.7950	33.5220
 0.7960	33.5170
 0.7970	33.5030
 0.7980	33.5040
 0.7990	33.4980
 0.8000	33.4910
 0.8010	33.4930
 0.8020	33.5060
 0.8030	33.4950
 0.8040	33.4760
 0.8050	33.4780
 0.8060	33.4850
 0.8070	33.4770
 0.8080	33.4640
 0.8090	33.4800
 0.8100	33.4800
 0.8110	33.4750
 0.8120	33.4740
 0.8130	33.4600
 0.8140	33.4560
 0.8150	33.4640
 0.8160	33.4750
 0.8170	33.4580
 0.8180	33.4540
 0.8190	33.4640
 0.8200	33.4700
 0.8210	33.4610
 0.8220	33.4550
 0.8230	33.4610
 0.8240	33.4680
 0.8250	33.4700
 0.8260	33.4640
 0.8270	33.4580
 0.8280	33.4700
 0.8290	33.4660
 0.8300	33.4550
 0.8310	33.4540
 0.8320	33.4600
 0.8330	33.4700
 0.8340	33.4700
 0.8350	33.4540
 0.8360	33.4790
 0.8370	33.4840
 0.8380	33.4670
 0.8390	33.4720
 0.8400	33.4800
 0.8410	33.4890
 0.8420	33.4990
 0.8430	33.5070
 0.8440	33.5100
 0.8450	33.5150
 0.8460	33.5230
 0.8470	33.5040
 0.8480	33.5030
 0.8490	33.5180
 0.8500	33.5300
 0.8510	33.5400
 0.8520	33.5430
 0.8530	33.5440
 0.8540	33.5510
 0.8550	33.5540
 0.8560	33.5570
 0.8570	33.5620
 0.8580	33.5710
 0.8590	33.5730
 0.8600	33.5730
 0.8610	33.5740
 0.8620	33.5750
 0.8630	33.5830
 0.8640	33.5890
 0.8650	33.5850
 0.8660	33.6000
 0.8670	33.6110
 0.8680	33.6160
 0.8690	33.6140
 0.8700	33.6080
 0.8710	33.6170
 0.8720	33.6240
 0.8730	33.6030
 0.8740	33.6200
 0.8750	33.6350
 0.8760	33.6370
 0.8770	33.6430
 0.8780	33.6460
 0.8790	33.6460
 0.8800	33.6450
 0.8810	33.6440
 0.8820	33.6550
 0.8830	33.6630
 0.8840	33.6580
 0.8850	33.6500
 0.8860	33.6500
 0.8870	33.6610
 0.8880	33.6760
 0.8890	33.6790
 0.8900	33.6730
 0.8910	33.6650
 0.8920	33.6640
 0.8930	33.6660
 0.8940	33.6620
 0.8950	33.6590
 0.8960	33.6650
 0.8970	33.6550
 0.8980	33.6510
 0.8990	33.6600
 0.9000	33.6730
 0.9010	33.6690
 0.9020	33.6690
 0.9030	33.6810
 0.9040	33.6830
 0.9050	33.6820
 0.9060	33.6850
 0.9070	33.6920
 0.9080	33.6890
 0.9090	33.6850
 0.9100	33.6780
 0.9110	33.6690
 0.9120	33.6760
 0.9130	33.6780
 0.9140	33.6730
 0.9150	33.6700
 0.9160	33.6800
 0.9170	33.6740
 0.9180	33.6620
 0.9190	33.6650
 0.9200	33.6660
 0.9210	33.6630
 0.9220	33.6590
 0.9230	33.6600
 0.9240	33.6530
 0.9250	33.6410
 0.9260	33.6320
 0.9270	33.6370
 0.9280	33.6250
 0.9290	33.6110
 0.9300	33.6010
 0.9310	33.5930
 0.9320	33.5700
 0.9330	33.5610
 0.9340	33.5690
 0.9350	33.5590
 0.9360	33.5420
 0.9370	33.5290
 0.9380	33.5210
 0.9390	33.5080
 0.9400	33.4890
 0.9410	33.4850
 0.9420	33.4950
 0.9430	33.4680
 0.9440	33.4370
 0.9450	33.4100
 0.9460	33.3940
 0.9470	33.4080
 0.9480	33.4000
 0.9490	33.3700
 0.9500	33.3290
 0.9510	33.2820
 0.9520	33.2370
 0.9530	33.2180
 0.9540	33.2310
 0.9550	33.2090
 0.9560	33.1760
 0.9570	33.1470
 0.9580	33.1300
 0.9590	33.1220
 0.9600	33.0910
 0.9610	33.0600
 0.9620	33.0560
 0.9630	33.0320
 0.9640	33.0230
 0.9650	33.0250
 0.9660	33.0240
 0.9670	33.0180
 0.9680	33.0070
 0.9690	32.9960
 0.9700	33.0000
 0.9710	33.0360
 0.9720	33.0440
 0.9730	33.0110
 0.9740	32.9680
 0.9750	32.9950
 0.9760	32.9910
 0.9770	32.9710
 0.9780	32.9970
 0.9790	33.0250
 0.9800	33.0290
 0.9810	33.0250
 0.9820	33.0390
 0.9830	33.0450
 0.9840	33.0440
 0.9850	33.0510
 0.9860	33.0760
 0.9870	33.0650
 0.9880	33.0800
 0.9890	33.1040
 0.9900	33.0940
 0.9910	33.1170
 0.9920	33.1560
 0.9930	33.1960
 0.9940	33.2360
 0.9950	33.2750
 0.9960	33.3150
 0.9970	33.3550
 0.9980	33.3940
 0.9990	33.4340
 1.0000	33.4740
 1.0010	33.5130
 1.0020	33.5530
 1.0030	33.5930
 1.0040	33.6320
 1.0050	33.6720
 1.0060	33.7120
 1.0070	33.7510
 1.0080	33.7910
 1.0090	33.8310
 1.0100	33.8310
 1.0110	33.8200
 1.0120	33.8290
 1.0130	33.8470
 1.0140	33.8620
 1.0150	33.8840
 1.0160	33.9040
 1.0170	33.9240
 1.0180	33.9270
 1.0190	33.9310
 1.0200	33.9390
 1.0210	33.9420
 1.0220	33.9560
 1.0230	33.9650
 1.0240	33.9770
 1.0250	33.9870
 1.0260	33.9900
 1.0270	34.0000
 1.0280	34.0160
 1.0290	34.0260
 1.0300	34.0370
 1.0310	34.0440
 1.0320	34.0430
 1.0330	34.0420
 1.0340	34.0500
 1.0350	34.0540
 1.0360	34.0680
 1.0370	34.0840
 1.0380	34.0920
 1.0390	34.0930
 1.0400	34.1020
 1.0410	34.1130
 1.0420	34.1200
 1.0430	34.1330
 1.0440	34.1390
 1.0450	34.1340
 1.0460	34.1360
 1.0470	34.1410
 1.0480	34.1440
 1.0490	34.1410
 1.0500	34.1450
 1.0510	34.1550
 1.0520	34.1640
 1.0530	34.1680
 1.0540	34.1750
 1.0550	34.1750
 1.0560	34.1630
 1.0570	34.1630
 1.0580	34.1710
 1.0590	34.1730
 1.0600	34.1780
 1.0610	34.1820
 1.0620	34.1840
 1.0630	34.1870
 1.0640	34.1910
 1.0650	34.1970
 1.0660	34.2080
 1.0670	34.2110
 1.0680	34.2120
 1.0690	34.2140
 1.0700	34.2120
 1.0710	34.2000
 1.0720	34.1980
 1.0730	34.2030
 1.0740	34.1990
 1.0750	34.1930
 1.0760	34.1880
 1.0770	34.1760
 1.0780	34.1690
 1.0790	34.1640
 1.0800	34.1630
 1.0810	34.1670
 1.0820	34.1670
 1.0830	34.1710
 1.0840	34.1690
 1.0850	34.1590
 1.0860	34.1490
 1.0870	34.1440
 1.0880	34.1370
 1.0890	34.1350
 1.0900	34.1410
 1.0910	34.1360
 1.0920	34.1270
 1.0930	34.1230
 1.0940	34.1200
 1.0950	34.1150
 1.0960	34.1150
 1.0970	34.1110
 1.0980	34.0990
 1.0990	34.0910
 1.1000	34.0840
 1.1010	34.0780
 1.1020	34.0740
 1.1030	34.0700
 1.1040	34.0650
 1.1050	34.0580
 1.1060	34.0490
 1.1070	34.0370
 1.1080	34.0300
 1.1090	34.0260
 1.1100	34.0170
 1.1110	34.0060
 1.1120	33.9980
 1.1130	33.9880
 1.1140	33.9800
 1.1150	33.9780
 1.1160	33.9710
 1.1170	33.9600
 1.1180	33.9500
 1.1190	33.9410
 1.1200	33.9290
 1.1210	33.9150
 1.1220	33.9010
 1.1230	33.8850
 1.1240	33.8670
 1.1250	33.8490
 1.1260	33.8330
 1.1270	33.8110
 1.1280	33.7860
 1.1290	33.7560
 1.1300	33.7210
 1.1310	33.6830
 1.1320	33.6400
 1.1330	33.5950
 1.1340	33.5460
 1.1350	33.4950
 1.1360	33.4420
 1.1370	33.3840
 1.1380	33.3230
 1.1390	33.2600
 1.1400	33.1930
 1.1410	33.1260
 1.1420	33.0590
 1.1430	32.9900
 1.1440	32.9220
 1.1450	32.8540
 1.1460	32.7890
 1.1470	32.7250
 1.1480	32.6650
 1.1490	32.6060
 1.1500	32.5540
 1.1510	32.5090
 1.1520	32.4640
 1.1530	32.4230
 1.1540	32.3860
 1.1550	32.3510
 1.1560	32.3180
 1.1570	32.2920
 1.1580	32.2740
 1.1590	32.2570
 1.1600	32.2390
 1.1610	32.2250
 1.1620	32.2150
 1.1630	32.2060
 1.1640	32.2010
 1.1650	32.1930
 1.1660	32.1850
 1.1670	32.1780
 1.1680	32.1700
 1.1690	32.1660
 1.1700	32.1660
 1.1710	32.1630
 1.1720	32.1610
 1.1730	32.1580
 1.1740	32.1540
 1.1750	32.1490
 1.1760	32.1440
 1.1770	32.1380
 1.1780	32.1330
 1.1790	32.1300
 1.1800	32.1270
 1.1810	32.1230
 1.1820	32.1200
 1.1830	32.1140
 1.1840	32.1130
 1.1850	32.1110
 1.1860	32.1050
 1.1870	32.1020
 1.1880	32.0980
 1.1890	32.0910
 1.1900	32.0890
 1.1910	32.0910
 1.1920	32.0920
 1.1930	32.0930
 1.1940	32.0950
 1.1950	32.0980
 1.1960	32.0970
 1.1970	32.0990
 1.1980	32.1000
 1.1990	32.1000
 1.2000	32.1040
 1.2010	32.1070
 1.2020	32.1090
 1.2030	32.1140
 1.2040	32.1210
 1.2050	32.1270
 1.2060	32.1340
 1.2070	32.1390
 1.2080	32.1400
 1.2090	32.1440
 1.2100	32.1510
 1.2110	32.1570
 1.2120	32.1630
 1.2130	32.1720
 1.2140	32.1800
 1.2150	32.1910
 1.2160	32.2060
 1.2170	32.2220
 1.2180	32.2350
 1.2190	32.2480
 1.2200	32.2600
 1.2210	32.2700
 1.2220	32.2810
 1.2230	32.2920
 1.2240	32.3070
 1.2250	32.3200
 1.2260	32.3310
 1.2270	32.3420
 1.2280	32.3500
 1.2290	32.3540
 1.2300	32.3600
 1.2310	32.3670
 1.2320	32.3780
 1.2330	32.3880
 1.2340	32.3980
 1.2350	32.4080
 1.2360	32.4170
 1.2370	32.4240
 1.2380	32.4350
 1.2390	32.4460
 1.2400	32.4540
 1.2410	32.4620
 1.2420	32.4680
 1.2430	32.4740
 1.2440	32.4820
 1.2450	32.4900
 1.2460	32.4980
 1.2470	32.5050
 1.2480	32.5090
 1.2490	32.5150
 1.2500	32.5180
 1.2510	32.5190
 1.2520	32.5230
 1.2530	32.5280
 1.2540	32.5320
 1.2550	32.5350
 1.2560	32.5380
 1.2570	32.5400
 1.2580	32.5390
 1.2590	32.5410
 1.2600	32.5440
 1.2610	32.5460
 1.2620	32.5490
 1.2630	32.5540
 1.2640	32.5570
 1.2650	32.5590
 1.2660	32.5600
 1.2670	32.5600
 1.2680	32.5570
 1.2690	32.5530
 1.2700	32.5470
 1.2710	32.5400
 1.2720	32.5340
 1.2730	32.5270
 1.2740	32.5200
 1.2750	32.5140
 1.2760	32.5090
 1.2770	32.5020
 1.2780	32.4940
 1.2790	32.4860
 1.2800	32.4760
 1.2810	32.4680
 1.2820	32.4550
 1.2830	32.4400
 1.2840	32.4240
 1.2850	32.4080
 1.2860	32.3930
 1.2870	32.3770
 1.2880	32.3630
 1.2890	32.3450
 1.2900	32.3240
 1.2910	32.3030
 1.2920	32.2850
 1.2930	32.2670
 1.2940	32.2520
 1.2950	32.2330
 1.2960	32.2100
 1.2970	32.1850
 1.2980	32.1540
 1.2990	32.1250
 1.3000	32.0980
 1.3010	32.0710
 1.3020	32.0460
 1.3030	32.0170
 1.3040	31.9850
 1.3050	31.9500
 1.3060	31.9130
 1.3070	31.8740
 1.3080	31.8340
 1.3090	31.7920
 1.3100	31.7520
 1.3110	31.7120
 1.3120	31.6700
 1.3130	31.6210
 1.3140	31.5730
 1.3150	31.5210
 1.3160	31.4690
 1.3170	31.4160
 1.3180	31.3670
 1.3190	31.3150
 1.3200	31.2570
 1.3210	31.1990
 1.3220	31.1390
 1.3230	31.0750
 1.3240	31.0100
 1.3250	30.9460
 1.3260	30.8800
 1.3270	30.8150
 1.3280	30.7500
 1.3290	30.6800
 1.3300	30.6100
 1.3310	30.5370
 1.3320	30.4640
 1.3330	30.3920
 1.3340	30.3180
 1.3350	30.2450
 1.3360	30.1720
 1.3370	30.0980
 1.3380	30.0260
 1.3390	29.9530
 1.3400	29.8790
 1.3410	29.8050
 1.3420	29.7330
 1.3430	29.6600
 1.3440	29.5890
 1.3450	29.5210
 1.3460	29.4530
 1.3470	29.3870
 1.3480	29.3230
 1.3490	29.2580
 1.3500	29.1910
 1.3510	29.1280
 1.3520	29.0640
 1.3530	28.9990
 1.3540	28.9340
 1.3550	28.8680
 1.3560	28.7980
 1.3570	28.7300
 1.3580	28.6620
 1.3590	28.5920
 1.3600	28.5170
 1.3610	28.4390
 1.3620	28.3510
 1.3630	28.2590
 1.3640	28.1610
 1.3650	28.0550
 1.3660	27.9460
 1.3670	27.8300
 1.3680	27.7070
 1.3690	27.5800
 1.3700	27.4400
 1.3710	27.2890
 1.3720	27.1290
 1.3730	26.9550
 1.3740	26.7720
 1.3750	26.5780
 1.3760	26.3670
 1.3770	26.1390
 1.3780	25.8920
 1.3790	25.6280
 1.3800	25.3470
 1.3810	25.0470
 1.3820	24.7310
 1.3830	24.3980
 1.3840	24.0500
 1.3850	23.6850
 1.3860	23.3090
 1.3870	22.9150
 1.3880	22.5160
 1.3890	22.1070
 1.3900	21.6890
 1.3910	21.2690
 1.3920	20.8470
 1.3930	20.4210
 1.3940	19.9950
 1.3950	19.5660
 1.3960	19.1400
 1.3970	18.7240
 1.3980	18.3140
 1.3990	17.9200
 1.4000	17.5410
 1.4010	17.1720
 1.4020	16.8170
 1.4030	16.4760
 1.4040	16.1510
 1.4050	15.8440
 1.4060	15.5520
 1.4070	15.2790
 1.4080	15.0200
 1.4090	14.7750
 1.4100	14.5480
 1.4110	14.3370
 1.4120	14.1410
 1.4130	13.9620
 1.4140	13.7950
 1.4150	13.6400
 1.4160	13.4970
 1.4170	13.3650
 1.4180	13.2430
 1.4190	13.1310
 1.4200	13.0280
 1.4210	12.9340
 1.4220	12.8480
 1.4230	12.7700
 1.4240	12.7000
 1.4250	12.6350
 1.4260	12.5760
 1.4270	12.5220
 1.4280	12.4730
 1.4290	12.4290
 1.4300	12.3890
 1.4310	12.3540
 1.4320	12.3250
 1.4330	12.2980
 1.4340	12.2760
 1.4350	12.2560
 1.4360	12.2390
 1.4370	12.2260
 1.4380	12.2150
 1.4390	12.2090
 1.4400	12.2060
 1.4410	12.2040
 1.4420	12.2040
 1.4430	12.2060
 1.4440	12.2090
 1.4450	12.2120
 1.4460	12.2180
 1.4470	12.2260
 1.4480	12.2350
 1.4490	12.2470
 1.4500	12.2610
 1.4510	12.2750
 1.4520	12.2900
 1.4530	12.3080
 1.4540	12.3280
 1.4550	12.3520
 1.4560	12.3770
 1.4570	12.4040
 1.4580	12.4330
 1.4590	12.4650
 1.4600	12.5020
 1.4610	12.5440
 1.4620	12.5880
 1.4630	12.6380
 1.4640	12.6900
 1.4650	12.7460
 1.4660	12.8070
 1.4670	12.8690
 1.4680	12.9400
 1.4690	13.0150
 1.4700	13.0940
 1.4710	13.1780
 1.4720	13.2620
