Name: Baccharis pilularis 1
Type: vegetation
Class: Shrub
Genus: Baccharis
Species: pilularis
Sample No.: VH001
Owner: UCSB
Wavelength Range: TIR
Origin: 34.418; -119.8455; WGS84
Collection Date: 4/1/2013
Description: Samples were collected as part of the HyspIRI Airborne Campaign. 48 individual plants were sampled in three times in 2013 - spring  summer  and fall. The name of the sample includes a 1  2  or 3 which references a different individual of the species. Samples were taken to JPL and processed within 48 hours of collection. The same leaves were processed in the Nicolet and then measured using the ASD.
Measurement: Hemispherical reflectance
First Column: X
Second Column: Y
X Units: Wavelength (micrometers)
Y Units: Reflectance (percentage)
First X Value: 2.501
Last X Value: 15.387
Number of X Values: 1737
Additional Information: vegetation.shrub.baccharis.pilularis.tir.vh001.ucsb.nicolet.ancillary.txt

 2.5010	 9.2650
 2.5030	 9.2480
 2.5040	 9.1610
 2.5050	 9.1370
 2.5060	 9.2320
 2.5070	 9.1840
 2.5090	 9.2420
 2.5100	 9.3270
 2.5110	 9.2420
 2.5120	 8.9870
 2.5140	 8.9710
 2.5150	 9.1550
 2.5160	 9.3090
 2.5170	 9.2570
 2.5180	 9.1740
 2.5200	 9.1130
 2.5210	 9.1970
 2.5220	 9.1170
 2.5230	 9.0590
 2.5250	 9.0470
 2.5260	 9.1260
 2.5270	 9.1620
 2.5280	 9.1200
 2.5290	 9.1110
 2.5310	 9.1210
 2.5320	 9.0630
 2.5330	 9.1220
 2.5340	 9.0860
 2.5360	 9.0960
 2.5370	 9.1560
 2.5380	 9.1520
 2.5390	 9.0740
 2.5410	 9.3150
 2.5420	 9.3490
 2.5430	 9.0940
 2.5440	 9.0140
 2.5460	 9.1030
 2.5470	 9.1610
 2.5480	 9.0890
 2.5490	 8.9980
 2.5510	 9.0750
 2.5520	 9.0630
 2.5530	 9.0330
 2.5540	 8.9310
 2.5560	 9.0230
 2.5570	 9.0050
 2.5580	 8.9920
 2.5590	 8.9850
 2.5610	 8.9830
 2.5620	 9.0040
 2.5630	 9.0410
 2.5640	 9.0610
 2.5660	 9.1360
 2.5670	 8.9880
 2.5680	 8.9460
 2.5700	 8.9400
 2.5710	 9.0650
 2.5720	 9.0810
 2.5730	 9.1790
 2.5750	 9.1220
 2.5760	 9.1120
 2.5770	 9.0400
 2.5790	 8.9940
 2.5800	 8.9750
 2.5810	 8.9600
 2.5820	 9.0250
 2.5840	 9.0860
 2.5850	 9.1170
 2.5860	 9.0920
 2.5880	 8.9360
 2.5890	 9.0060
 2.5900	 9.0620
 2.5910	 8.9990
 2.5930	 8.8850
 2.5940	 9.0020
 2.5950	 9.0280
 2.5970	 8.9760
 2.5980	 8.8970
 2.5990	 8.8620
 2.6000	 8.8830
 2.6020	 8.8740
 2.6030	 8.8130
 2.6040	 8.9250
 2.6060	 8.9300
 2.6070	 8.9870
 2.6080	 8.9060
 2.6100	 8.8910
 2.6110	 8.7970
 2.6120	 8.8180
 2.6140	 8.7480
 2.6150	 8.6960
 2.6160	 8.6810
 2.6180	 8.6220
 2.6190	 8.5940
 2.6200	 8.6560
 2.6220	 8.6940
 2.6230	 8.7000
 2.6240	 8.6000
 2.6260	 8.5410
 2.6270	 8.4970
 2.6280	 8.5660
 2.6300	 8.6630
 2.6310	 8.6430
 2.6320	 8.4710
 2.6340	 8.5020
 2.6350	 8.4510
 2.6360	 8.4690
 2.6380	 8.3830
 2.6390	 8.4890
 2.6400	 8.5060
 2.6420	 8.4290
 2.6430	 8.1920
 2.6440	 8.2430
 2.6460	 8.2660
 2.6470	 8.1870
 2.6480	 8.1400
 2.6500	 8.2110
 2.6510	 8.2000
 2.6520	 8.1300
 2.6540	 8.0770
 2.6550	 8.0970
 2.6560	 8.0710
 2.6580	 8.0860
 2.6590	 8.1730
 2.6610	 8.1640
 2.6620	 8.0750
 2.6630	 8.1260
 2.6650	 8.1010
 2.6660	 8.1230
 2.6670	 8.1360
 2.6690	 8.1190
 2.6700	 8.1120
 2.6720	 8.0230
 2.6730	 7.8600
 2.6740	 7.8860
 2.6760	 7.8730
 2.6770	 7.8510
 2.6780	 7.9110
 2.6800	 8.0040
 2.6810	 7.8740
 2.6830	 7.8520
 2.6840	 7.8150
 2.6850	 7.7300
 2.6870	 7.7570
 2.6880	 7.9330
 2.6900	 7.9110
 2.6910	 7.8350
 2.6920	 7.7800
 2.6940	 7.8200
 2.6950	 7.8200
 2.6970	 7.7430
 2.6980	 7.6680
 2.6990	 7.6800
 2.7010	 7.6570
 2.7020	 7.6790
 2.7040	 7.6150
 2.7050	 7.6710
 2.7060	 7.5250
 2.7080	 7.4060
 2.7090	 7.4550
 2.7110	 7.5720
 2.7120	 7.3980
 2.7130	 7.4320
 2.7150	 7.5610
 2.7160	 7.6700
 2.7180	 7.6300
 2.7190	 7.5870
 2.7210	 7.4600
 2.7220	 7.4760
 2.7230	 7.3910
 2.7250	 7.5250
 2.7260	 7.5030
 2.7280	 7.4660
 2.7290	 7.4070
 2.7310	 7.2650
 2.7320	 7.1910
 2.7330	 7.3340
 2.7350	 7.2990
 2.7360	 7.3770
 2.7380	 7.3480
 2.7390	 7.1770
 2.7410	 7.1780
 2.7420	 7.2140
 2.7440	 7.1480
 2.7450	 7.2980
 2.7470	 7.2890
 2.7480	 7.2100
 2.7490	 7.0830
 2.7510	 6.9650
 2.7520	 6.9930
 2.7540	 7.2590
 2.7550	 7.1440
 2.7570	 7.0970
 2.7580	 7.1530
 2.7600	 7.4110
 2.7610	 7.4280
 2.7630	 7.3830
 2.7640	 7.1720
 2.7660	 7.0020
 2.7670	 6.9300
 2.7680	 7.1030
 2.7700	 7.0450
 2.7710	 7.0620
 2.7730	 7.2230
 2.7740	 7.2490
 2.7760	 7.2650
 2.7770	 7.1770
 2.7790	 6.9430
 2.7800	 6.9020
 2.7820	 6.7930
 2.7830	 6.9190
 2.7850	 7.0070
 2.7860	 7.0050
 2.7880	 6.9900
 2.7890	 7.1910
 2.7910	 7.1380
 2.7920	 6.9530
 2.7940	 6.8460
 2.7950	 6.9600
 2.7970	 6.9550
 2.7980	 6.9630
 2.8000	 6.9000
 2.8010	 6.8910
 2.8030	 6.7130
 2.8040	 6.6870
 2.8060	 6.8050
 2.8070	 6.9380
 2.8090	 6.7660
 2.8110	 6.6890
 2.8120	 6.8370
 2.8140	 6.8780
 2.8150	 6.7710
 2.8170	 6.8040
 2.8180	 6.7470
 2.8200	 6.6780
 2.8210	 6.6040
 2.8230	 6.7120
 2.8240	 6.8060
 2.8260	 6.8600
 2.8270	 6.9470
 2.8290	 7.0030
 2.8300	 6.8240
 2.8320	 6.7790
 2.8340	 6.8580
 2.8350	 6.8850
 2.8370	 6.7180
 2.8380	 6.6230
 2.8400	 6.6280
 2.8410	 6.6840
 2.8430	 6.6220
 2.8440	 6.6930
 2.8460	 6.6530
 2.8480	 6.6840
 2.8490	 6.5680
 2.8510	 6.5080
 2.8520	 6.5370
 2.8540	 6.6350
 2.8550	 6.6440
 2.8570	 6.5780
 2.8590	 6.5150
 2.8600	 6.5620
 2.8620	 6.4610
 2.8630	 6.5220
 2.8650	 6.6780
 2.8660	 6.7270
 2.8680	 6.7160
 2.8700	 6.6600
 2.8710	 6.5700
 2.8730	 6.6680
 2.8740	 6.6520
 2.8760	 6.7920
 2.8780	 6.7990
 2.8790	 6.7430
 2.8810	 6.6220
 2.8820	 6.6090
 2.8840	 6.6970
 2.8860	 6.9270
 2.8870	 6.8050
 2.8890	 6.7310
 2.8900	 6.7090
 2.8920	 6.7090
 2.8940	 6.5080
 2.8950	 6.6720
 2.8970	 6.6840
 2.8980	 6.7100
 2.9000	 6.6520
 2.9020	 6.7230
 2.9030	 6.8800
 2.9050	 7.0800
 2.9070	 6.9170
 2.9080	 6.8730
 2.9100	 6.8180
 2.9120	 6.8050
 2.9130	 6.8120
 2.9150	 6.8760
 2.9160	 6.7170
 2.9180	 6.7840
 2.9200	 6.8200
 2.9210	 6.7270
 2.9230	 6.7280
 2.9250	 6.7160
 2.9260	 6.6200
 2.9280	 6.8120
 2.9300	 6.8570
 2.9310	 6.8160
 2.9330	 6.7030
 2.9350	 6.6840
 2.9360	 6.6770
 2.9380	 6.8390
 2.9400	 6.6650
 2.9410	 6.7240
 2.9430	 6.7570
 2.9450	 6.5900
 2.9460	 6.8000
 2.9480	 6.9960
 2.9500	 6.8260
 2.9510	 6.6730
 2.9530	 6.6560
 2.9550	 7.0380
 2.9560	 7.0160
 2.9580	 6.7590
 2.9600	 6.8160
 2.9610	 7.0230
 2.9630	 7.1930
 2.9650	 7.0870
 2.9660	 6.8540
 2.9680	 7.1190
 2.9700	 7.1870
 2.9720	 7.0850
 2.9730	 7.0870
 2.9750	 7.2830
 2.9770	 7.1520
 2.9780	 6.8460
 2.9800	 7.0440
 2.9820	 7.3400
 2.9840	 6.7550
 2.9850	 6.2740
 2.9870	 6.3820
 2.9890	 6.9220
 2.9900	 6.9880
 2.9920	 6.5530
 2.9940	 5.9150
 2.9960	 6.4530
 2.9970	 7.2190
 2.9990	 7.4390
 3.0010	 7.5470
 3.0030	 7.2920
 3.0040	 7.0160
 3.0060	 6.6700
 3.0080	 6.4190
 3.0100	 6.8470
 3.0110	 7.6990
 3.0130	 7.5910
 3.0150	 6.8820
 3.0170	 6.7070
 3.0180	 6.5220
 3.0200	 6.1910
 3.0220	 6.3910
 3.0240	 7.0120
 3.0250	 6.9070
 3.0270	 6.8510
 3.0290	 6.8010
 3.0310	 6.9670
 3.0320	 7.2400
 3.0340	 7.6760
 3.0360	 7.6870
 3.0380	 7.2710
 3.0400	 7.4100
 3.0410	 7.2840
 3.0430	 6.4900
 3.0450	 6.3220
 3.0470	 6.6000
 3.0480	 6.7950
 3.0500	 6.7070
 3.0520	 6.8650
 3.0540	 6.9540
 3.0560	 6.8480
 3.0570	 7.0580
 3.0590	 6.6660
 3.0610	 6.6390
 3.0630	 6.7480
 3.0650	 6.5980
 3.0660	 6.7310
 3.0680	 6.6140
 3.0700	 6.7030
 3.0720	 6.9810
 3.0740	 7.0530
 3.0760	 6.9990
 3.0770	 6.6680
 3.0790	 6.7360
 3.0810	 7.1240
 3.0830	 7.1160
 3.0850	 7.0160
 3.0870	 7.1480
 3.0880	 7.0890
 3.0900	 6.8370
 3.0920	 6.5680
 3.0940	 6.6960
 3.0960	 6.7490
 3.0980	 6.7970
 3.0990	 6.8410
 3.1010	 6.7210
 3.1030	 6.7800
 3.1050	 6.7240
 3.1070	 6.8010
 3.1090	 6.6570
 3.1110	 6.5810
 3.1120	 6.6980
 3.1140	 6.8090
 3.1160	 6.7530
 3.1180	 6.7080
 3.1200	 6.6370
 3.1220	 6.8790
 3.1240	 7.0570
 3.1260	 7.0290
 3.1270	 6.8580
 3.1290	 6.8250
 3.1310	 6.5830
 3.1330	 6.2140
 3.1350	 6.4860
 3.1370	 7.1480
 3.1390	 7.0560
 3.1410	 6.4980
 3.1430	 6.6370
 3.1450	 7.0440
 3.1460	 7.0240
 3.1480	 7.1720
 3.1500	 7.2320
 3.1520	 6.8820
 3.1540	 6.5980
 3.1560	 6.5120
 3.1580	 6.5270
 3.1600	 6.4210
 3.1620	 6.4600
 3.1640	 6.5650
 3.1660	 6.4270
 3.1680	 6.5380
 3.1700	 6.5540
 3.1710	 6.2830
 3.1730	 6.4860
 3.1750	 6.9780
 3.1770	 7.2450
 3.1790	 6.5310
 3.1810	 6.7200
 3.1830	 7.1930
 3.1850	 6.7760
 3.1870	 6.9480
 3.1890	 7.0190
 3.1910	 6.8960
 3.1930	 6.6530
 3.1950	 6.6120
 3.1970	 6.3860
 3.1990	 6.3150
 3.2010	 6.4680
 3.2030	 6.7240
 3.2050	 6.7690
 3.2070	 6.6730
 3.2090	 6.6730
 3.2110	 6.8390
 3.2130	 6.8300
 3.2150	 6.7580
 3.2170	 6.7800
 3.2190	 6.9080
 3.2210	 6.7760
 3.2230	 6.6770
 3.2250	 6.6460
 3.2270	 6.7030
 3.2290	 6.6920
 3.2310	 6.6390
 3.2330	 6.5070
 3.2350	 6.5900
 3.2370	 6.7170
 3.2390	 6.7160
 3.2410	 6.7380
 3.2430	 6.7290
 3.2450	 6.5520
 3.2470	 6.5260
 3.2490	 6.4910
 3.2510	 6.5650
 3.2530	 6.7540
 3.2550	 6.8510
 3.2570	 6.6840
 3.2590	 6.6860
 3.2610	 6.6310
 3.2630	 6.5320
 3.2650	 6.5240
 3.2670	 6.6100
 3.2690	 6.6500
 3.2720	 6.7210
 3.2740	 6.7200
 3.2760	 6.6430
 3.2780	 6.6540
 3.2800	 6.6790
 3.2820	 6.5850
 3.2840	 6.6220
 3.2860	 6.7040
 3.2880	 6.7250
 3.2900	 6.7520
 3.2920	 6.7340
 3.2940	 6.6940
 3.2960	 6.7490
 3.2990	 6.6920
 3.3010	 6.7780
 3.3030	 6.7190
 3.3050	 6.6010
 3.3070	 6.5840
 3.3090	 6.6410
 3.3110	 6.6640
 3.3130	 6.6640
 3.3150	 6.4680
 3.3180	 6.3820
 3.3200	 6.4430
 3.3220	 6.5580
 3.3240	 6.5260
 3.3260	 6.5260
 3.3280	 6.4940
 3.3300	 6.5030
 3.3330	 6.4170
 3.3350	 6.4050
 3.3370	 6.3910
 3.3390	 6.3740
 3.3410	 6.3620
 3.3430	 6.3790
 3.3450	 6.2660
 3.3480	 6.2880
 3.3500	 6.3330
 3.3520	 6.3960
 3.3540	 6.2680
 3.3560	 6.1750
 3.3580	 6.2400
 3.3610	 6.1900
 3.3630	 6.1650
 3.3650	 6.2640
 3.3670	 6.1590
 3.3690	 6.1330
 3.3720	 6.1690
 3.3740	 6.2540
 3.3760	 6.2710
 3.3780	 6.3010
 3.3800	 6.3330
 3.3830	 6.3000
 3.3850	 6.1880
 3.3870	 6.2910
 3.3890	 6.3600
 3.3910	 6.4520
 3.3940	 6.3820
 3.3960	 6.2450
 3.3980	 6.2830
 3.4000	 6.4070
 3.4020	 6.4650
 3.4050	 6.4310
 3.4070	 6.4240
 3.4090	 6.5880
 3.4110	 6.6360
 3.4140	 6.6660
 3.4160	 6.6670
 3.4180	 6.7540
 3.4200	 6.9460
 3.4230	 7.0790
 3.4250	 7.2250
 3.4270	 7.5560
 3.4290	 7.7430
 3.4320	 7.8100
 3.4340	 7.6120
 3.4360	 7.3340
 3.4390	 7.1890
 3.4410	 7.1490
 3.4430	 7.0210
 3.4450	 7.0160
 3.4480	 7.0540
 3.4500	 7.0290
 3.4520	 7.1190
 3.4550	 7.1760
 3.4570	 6.9710
 3.4590	 6.8580
 3.4620	 6.8690
 3.4640	 7.0350
 3.4660	 6.9410
 3.4680	 6.8900
 3.4710	 6.8750
 3.4730	 6.9540
 3.4750	 6.9410
 3.4780	 6.8920
 3.4800	 6.8620
 3.4820	 6.8600
 3.4850	 6.8060
 3.4870	 6.7840
 3.4890	 6.7630
 3.4920	 6.7650
 3.4940	 6.8760
 3.4970	 6.9690
 3.4990	 6.9460
 3.5010	 7.0560
 3.5040	 7.0910
 3.5060	 7.2260
 3.5080	 7.4990
 3.5110	 7.7380
 3.5130	 7.6330
 3.5160	 7.4410
 3.5180	 7.3290
 3.5200	 7.3010
 3.5230	 7.2620
 3.5250	 7.3520
 3.5270	 7.3240
 3.5300	 7.1000
 3.5320	 6.9570
 3.5350	 7.0960
 3.5370	 7.2130
 3.5400	 7.2260
 3.5420	 7.1550
 3.5440	 7.2730
 3.5470	 7.3470
 3.5490	 7.2720
 3.5520	 7.2300
 3.5540	 7.2980
 3.5570	 7.3200
 3.5590	 7.2090
 3.5610	 7.1310
 3.5640	 7.1890
 3.5660	 7.2610
 3.5690	 7.2690
 3.5710	 7.1010
 3.5740	 7.0970
 3.5760	 7.1020
 3.5790	 7.2180
 3.5810	 7.2360
 3.5840	 7.1620
 3.5860	 7.0890
 3.5890	 7.1190
 3.5910	 7.1850
 3.5930	 7.1040
 3.5960	 7.1810
 3.5980	 7.4330
 3.6010	 7.2820
 3.6030	 7.1210
 3.6060	 7.1350
 3.6080	 7.2610
 3.6110	 7.1650
 3.6140	 7.1130
 3.6160	 7.1460
 3.6190	 7.2170
 3.6210	 7.1780
 3.6240	 7.1550
 3.6260	 7.1780
 3.6290	 7.3010
 3.6310	 7.3570
 3.6340	 7.2860
 3.6360	 7.1790
 3.6390	 7.2590
 3.6410	 7.2730
 3.6440	 7.2610
 3.6470	 7.1880
 3.6490	 7.1330
 3.6520	 7.1000
 3.6540	 7.2170
 3.6570	 7.2660
 3.6590	 7.2530
 3.6620	 7.2520
 3.6650	 7.3080
 3.6670	 7.2080
 3.6700	 7.1980
 3.6720	 7.2180
 3.6750	 7.2930
 3.6780	 7.2410
 3.6800	 7.2210
 3.6830	 7.1770
 3.6850	 7.1980
 3.6880	 7.2450
 3.6910	 7.3220
 3.6930	 7.3480
 3.6960	 7.3400
 3.6990	 7.2720
 3.7010	 7.2800
 3.7040	 7.2810
 3.7060	 7.3870
 3.7090	 7.3330
 3.7120	 7.2600
 3.7140	 7.2040
 3.7170	 7.2210
 3.7200	 7.2730
 3.7220	 7.2950
 3.7250	 7.2080
 3.7280	 7.1990
 3.7300	 7.1940
 3.7330	 7.2490
 3.7360	 7.3530
 3.7390	 7.4130
 3.7410	 7.3260
 3.7440	 7.2950
 3.7470	 7.3120
 3.7490	 7.4000
 3.7520	 7.3980
 3.7550	 7.3750
 3.7580	 7.3630
 3.7600	 7.4300
 3.7630	 7.4520
 3.7660	 7.3800
 3.7680	 7.2660
 3.7710	 7.2160
 3.7740	 7.2350
 3.7770	 7.3710
 3.7790	 7.2990
 3.7820	 7.3070
 3.7850	 7.3290
 3.7880	 7.2930
 3.7900	 7.2520
 3.7930	 7.3200
 3.7960	 7.4360
 3.7990	 7.5230
 3.8020	 7.4740
 3.8040	 7.4460
 3.8070	 7.4410
 3.8100	 7.5100
 3.8130	 7.5110
 3.8160	 7.4360
 3.8180	 7.4150
 3.8210	 7.4620
 3.8240	 7.4360
 3.8270	 7.3850
 3.8300	 7.3520
 3.8330	 7.3860
 3.8350	 7.3630
 3.8380	 7.3890
 3.8410	 7.3680
 3.8440	 7.4090
 3.8470	 7.4310
 3.8500	 7.5280
 3.8520	 7.4710
 3.8550	 7.3980
 3.8580	 7.4610
 3.8610	 7.5220
 3.8640	 7.4800
 3.8670	 7.5010
 3.8700	 7.4950
 3.8730	 7.4560
 3.8750	 7.3480
 3.8780	 7.2930
 3.8810	 7.3400
 3.8840	 7.4290
 3.8870	 7.5110
 3.8900	 7.4990
 3.8930	 7.3170
 3.8960	 7.3080
 3.8990	 7.3510
 3.9020	 7.4200
 3.9050	 7.5360
 3.9080	 7.5770
 3.9110	 7.5180
 3.9140	 7.4330
 3.9160	 7.3970
 3.9190	 7.4620
 3.9220	 7.4440
 3.9250	 7.4470
 3.9280	 7.4360
 3.9310	 7.4020
 3.9340	 7.3990
 3.9370	 7.4740
 3.9400	 7.4630
 3.9430	 7.5560
 3.9460	 7.5430
 3.9490	 7.4880
 3.9520	 7.4260
 3.9550	 7.5020
 3.9580	 7.5260
 3.9610	 7.5690
 3.9640	 7.5330
 3.9670	 7.5510
 3.9700	 7.5740
 3.9730	 7.5550
 3.9770	 7.4910
 3.9800	 7.4830
 3.9830	 7.4900
 3.9860	 7.4650
 3.9890	 7.4590
 3.9920	 7.4740
 3.9950	 7.4240
 3.9980	 7.4370
 4.0010	 7.4410
 4.0040	 7.4210
 4.0070	 7.4000
 4.0100	 7.4520
 4.0130	 7.4630
 4.0170	 7.4520
 4.0200	 7.4510
 4.0230	 7.4500
 4.0260	 7.4220
 4.0290	 7.4030
 4.0320	 7.4050
 4.0350	 7.4690
 4.0380	 7.4430
 4.0420	 7.3900
 4.0450	 7.4040
 4.0480	 7.3760
 4.0510	 7.3300
 4.0540	 7.3900
 4.0570	 7.3680
 4.0610	 7.4500
 4.0640	 7.4430
 4.0670	 7.3730
 4.0700	 7.3940
 4.0730	 7.4520
 4.0770	 7.4280
 4.0800	 7.4300
 4.0830	 7.4310
 4.0860	 7.5400
 4.0890	 7.5270
 4.0930	 7.4260
 4.0960	 7.3650
 4.0990	 7.3920
 4.1020	 7.3860
 4.1060	 7.3960
 4.1090	 7.4450
 4.1120	 7.4710
 4.1150	 7.3730
 4.1190	 7.3780
 4.1220	 7.3500
 4.1250	 7.3140
 4.1280	 7.3230
 4.1320	 7.3440
 4.1350	 7.3540
 4.1380	 7.4620
 4.1420	 7.4970
 4.1450	 7.4170
 4.1480	 7.3240
 4.1520	 7.3520
 4.1550	 7.3960
 4.1580	 7.3400
 4.1620	 7.3220
 4.1650	 7.3450
 4.1680	 7.3530
 4.1720	 7.4040
 4.1750	 7.4020
 4.1780	 7.3490
 4.1820	 7.2650
 4.1850	 7.3050
 4.1890	 7.3590
 4.1920	 7.3310
 4.1950	 7.3280
 4.1990	 7.4120
 4.2020	 7.4430
 4.2060	 7.4420
 4.2090	 7.3280
 4.2120	 7.3740
 4.2160	 7.4100
 4.2190	 7.5150
 4.2230	 7.6160
 4.2260	 7.4080
 4.2300	 7.3700
 4.2330	 7.6330
 4.2360	 7.6920
 4.2400	 7.4730
 4.2430	 7.0540
 4.2470	 7.0730
 4.2500	 7.1130
 4.2540	 7.1820
 4.2570	 7.3470
 4.2610	 7.4760
 4.2640	 7.4260
 4.2680	 7.4610
 4.2710	 7.4730
 4.2750	 7.5560
 4.2780	 7.5190
 4.2820	 7.4050
 4.2850	 7.2740
 4.2890	 7.3850
 4.2930	 7.5320
 4.2960	 7.4920
 4.3000	 7.3060
 4.3030	 7.1620
 4.3070	 7.2090
 4.3100	 7.2150
 4.3140	 7.1760
 4.3180	 7.2240
 4.3210	 7.2630
 4.3250	 7.3220
 4.3280	 7.2600
 4.3320	 7.1230
 4.3360	 7.1300
 4.3390	 7.1340
 4.3430	 7.0610
 4.3470	 7.1070
 4.3500	 7.1500
 4.3540	 7.1920
 4.3570	 7.2040
 4.3610	 7.1950
 4.3650	 7.0850
 4.3680	 7.1070
 4.3720	 7.1890
 4.3760	 7.1420
 4.3800	 7.1090
 4.3830	 7.1150
 4.3870	 7.1200
 4.3910	 7.1400
 4.3940	 7.0880
 4.3980	 7.1140
 4.4020	 7.1380
 4.4060	 7.1430
 4.4090	 7.2010
 4.4130	 7.1790
 4.4170	 7.0820
 4.4210	 7.0760
 4.4240	 7.1160
 4.4280	 7.0620
 4.4320	 6.9520
 4.4360	 7.0100
 4.4400	 7.1140
 4.4430	 7.1720
 4.4470	 7.1960
 4.4510	 7.1580
 4.4550	 7.0540
 4.4590	 6.9800
 4.4620	 6.9730
 4.4660	 6.9830
 4.4700	 7.0390
 4.4740	 7.0950
 4.4780	 7.0420
 4.4820	 6.9760
 4.4860	 6.9300
 4.4900	 6.9780
 4.4930	 6.9750
 4.4970	 6.9340
 4.5010	 6.8700
 4.5050	 6.8830
 4.5090	 6.9740
 4.5130	 7.0130
 4.5170	 6.9460
 4.5210	 6.9790
 4.5250	 7.0770
 4.5290	 7.0980
 4.5330	 7.0280
 4.5370	 7.0210
 4.5410	 6.9990
 4.5450	 6.9970
 4.5490	 7.0400
 4.5530	 7.1050
 4.5570	 7.0610
 4.5610	 6.9900
 4.5650	 7.0310
 4.5690	 7.0190
 4.5730	 6.9320
 4.5770	 6.9870
 4.5810	 7.0670
 4.5850	 7.0090
 4.5890	 6.9320
 4.5930	 6.9680
 4.5970	 6.9640
 4.6010	 6.9260
 4.6050	 6.9300
 4.6090	 6.9460
 4.6130	 6.8780
 4.6170	 6.8910
 4.6220	 6.9110
 4.6260	 6.9560
 4.6300	 7.0040
 4.6340	 7.0300
 4.6380	 7.0040
 4.6420	 6.9590
 4.6460	 6.9080
 4.6510	 6.8940
 4.6550	 6.9400
 4.6590	 6.9790
 4.6630	 6.9550
 4.6670	 6.9690
 4.6720	 6.9720
 4.6760	 6.9010
 4.6800	 6.9000
 4.6840	 6.9240
 4.6880	 6.9320
 4.6930	 6.8650
 4.6970	 6.9200
 4.7010	 7.0870
 4.7050	 6.9990
 4.7100	 6.9220
 4.7140	 6.9840
 4.7180	 6.9280
 4.7230	 6.9240
 4.7270	 6.8930
 4.7310	 6.8310
 4.7360	 6.9140
 4.7400	 6.9990
 4.7440	 6.9840
 4.7490	 6.9820
 4.7530	 6.9970
 4.7570	 6.9290
 4.7620	 6.9120
 4.7660	 6.9160
 4.7700	 6.8430
 4.7750	 6.7910
 4.7790	 6.8600
 4.7840	 6.8890
 4.7880	 6.8920
 4.7920	 6.8330
 4.7970	 6.8340
 4.8010	 6.7970
 4.8060	 6.7870
 4.8100	 6.8570
 4.8150	 6.9110
 4.8190	 6.8970
 4.8240	 6.8610
 4.8280	 6.9150
 4.8330	 6.9360
 4.8370	 6.8460
 4.8420	 6.8270
 4.8460	 6.8590
 4.8510	 6.8150
 4.8550	 6.7960
 4.8600	 6.8000
 4.8640	 6.8760
 4.8690	 6.9110
 4.8730	 6.8850
 4.8780	 6.9200
 4.8830	 6.9010
 4.8870	 6.8440
 4.8920	 6.7990
 4.8960	 6.7460
 4.9010	 6.8120
 4.9060	 6.9120
 4.9100	 6.8690
 4.9150	 6.7970
 4.9200	 6.7790
 4.9240	 6.8000
 4.9290	 6.8700
 4.9340	 6.9020
 4.9380	 6.8160
 4.9430	 6.8360
 4.9480	 6.8640
 4.9530	 6.8460
 4.9570	 6.8860
 4.9620	 6.8420
 4.9670	 6.7470
 4.9720	 6.7270
 4.9760	 6.7820
 4.9810	 6.8160
 4.9860	 6.8320
 4.9910	 6.8440
 4.9960	 6.8840
 5.0000	 6.9720
 5.0050	 6.9700
 5.0100	 6.9470
 5.0150	 6.9980
 5.0200	 6.8620
 5.0250	 6.8370
 5.0290	 6.9010
 5.0340	 6.8990
 5.0390	 6.8590
 5.0440	 6.8700
 5.0490	 6.8270
 5.0540	 6.7620
 5.0590	 6.7530
 5.0640	 6.8150
 5.0690	 6.8480
 5.0740	 6.8400
 5.0790	 6.7770
 5.0840	 6.8060
 5.0890	 6.8970
 5.0940	 6.9090
 5.0990	 6.9520
 5.1040	 6.9690
 5.1090	 6.8800
 5.1140	 6.8780
 5.1190	 6.8860
 5.1240	 6.8550
 5.1290	 6.8880
 5.1340	 6.9720
 5.1390	 6.9410
 5.1440	 6.9200
 5.1490	 6.8850
 5.1540	 6.8170
 5.1600	 6.7490
 5.1650	 6.8150
 5.1700	 6.9200
 5.1750	 6.9440
 5.1800	 6.9470
 5.1850	 7.0020
 5.1910	 6.9620
 5.1960	 6.9410
 5.2010	 6.9280
 5.2060	 6.9470
 5.2110	 7.0270
 5.2170	 7.0130
 5.2220	 6.9210
 5.2270	 6.8920
 5.2320	 6.8680
 5.2380	 6.8680
 5.2430	 6.8530
 5.2480	 6.9390
 5.2540	 6.9620
 5.2590	 6.8590
 5.2640	 6.8080
 5.2700	 6.8700
 5.2750	 6.8800
 5.2800	 6.9330
 5.2860	 6.8970
 5.2910	 6.8760
 5.2970	 6.9050
 5.3020	 6.8960
 5.3070	 6.8790
 5.3130	 6.8960
 5.3180	 6.8600
 5.3240	 6.8460
 5.3290	 6.8390
 5.3350	 6.8220
 5.3400	 6.8040
 5.3460	 6.8490
 5.3510	 6.8090
 5.3570	 6.7830
 5.3620	 6.7850
 5.3680	 6.7720
 5.3730	 6.7670
 5.3790	 6.8080
 5.3850	 6.8110
 5.3900	 6.8520
 5.3960	 6.7730
 5.4010	 6.7950
 5.4070	 6.8240
 5.4130	 6.8200
 5.4180	 6.8090
 5.4240	 6.7910
 5.4300	 6.6850
 5.4350	 6.7040
