Name: Baccharis pilularis 3
Type: vegetation
Class: Shrub
Genus: Baccharis
Species: pilularis
Sample No.: VH197
Owner: UCSB
Wavelength Range: VSWIR
Origin: 34.4185; -119.8457; WGS84
Collection Date: 10/13/2013
Description: Samples were collected as part of the HyspIRI Airborne Campaign. 48 individual plants were sampled in three times in 2013 - spring  summer  and fall. The name of the sample includes a 1  2  or 3 which references a different individual of the species. Samples were taken to JPL and processed within 48 hours of collection. The same leaves were processed in the Nicolet and then measured using the ASD.
Measurement: Bidirectional reflectance
First Column: X
Second Column: Y
X Units: Wavelength (micrometers)
Y Units: Reflectance (percentage)
First X Value: 0.35
Last X Value: 2.5
Number of X Values: 2151
Additional Information: vegetation.shrub.baccharis.pilularis.vswir.vh197.ucsb.asd.ancillary.txt

 0.3500	 4.5900
 0.3510	 4.4210
 0.3520	 4.3780
 0.3530	 4.5610
 0.3540	 4.8100
 0.3550	 4.4370
 0.3560	 4.4360
 0.3570	 4.7560
 0.3580	 4.8210
 0.3590	 4.6630
 0.3600	 4.5230
 0.3610	 4.5310
 0.3620	 4.6510
 0.3630	 4.6840
 0.3640	 4.6260
 0.3650	 4.5420
 0.3660	 4.4980
 0.3670	 4.5960
 0.3680	 4.7510
 0.3690	 4.7620
 0.3700	 4.7570
 0.3710	 4.7620
 0.3720	 4.7720
 0.3730	 4.7530
 0.3740	 4.7010
 0.3750	 4.6840
 0.3760	 4.7440
 0.3770	 4.6880
 0.3780	 4.6500
 0.3790	 4.6710
 0.3800	 4.7010
 0.3810	 4.7550
 0.3820	 4.7290
 0.3830	 4.5880
 0.3840	 4.4400
 0.3850	 4.5160
 0.3860	 4.7480
 0.3870	 4.9340
 0.3880	 4.8860
 0.3890	 4.8300
 0.3900	 4.8460
 0.3910	 4.8350
 0.3920	 4.7880
 0.3930	 4.8160
 0.3940	 4.9530
 0.3950	 4.9670
 0.3960	 4.9870
 0.3970	 5.0420
 0.3980	 5.1080
 0.3990	 5.1360
 0.4000	 5.1270
 0.4010	 5.1200
 0.4020	 5.1920
 0.4030	 5.2690
 0.4040	 5.2990
 0.4050	 5.2790
 0.4060	 5.3470
 0.4070	 5.4170
 0.4080	 5.4490
 0.4090	 5.4450
 0.4100	 5.5060
 0.4110	 5.5860
 0.4120	 5.6360
 0.4130	 5.6400
 0.4140	 5.6580
 0.4150	 5.7210
 0.4160	 5.8260
 0.4170	 5.8770
 0.4180	 5.9070
 0.4190	 5.9360
 0.4200	 5.9600
 0.4210	 6.0470
 0.4220	 6.1130
 0.4230	 6.1200
 0.4240	 6.2130
 0.4250	 6.2800
 0.4260	 6.3040
 0.4270	 6.3170
 0.4280	 6.3580
 0.4290	 6.4270
 0.4300	 6.5030
 0.4310	 6.5450
 0.4320	 6.5860
 0.4330	 6.6290
 0.4340	 6.6730
 0.4350	 6.7420
 0.4360	 6.8000
 0.4370	 6.8300
 0.4380	 6.8360
 0.4390	 6.8700
 0.4400	 6.9140
 0.4410	 6.9500
 0.4420	 6.9810
 0.4430	 7.0370
 0.4440	 7.0910
 0.4450	 7.1070
 0.4460	 7.1380
 0.4470	 7.1790
 0.4480	 7.2170
 0.4490	 7.2300
 0.4500	 7.2690
 0.4510	 7.3080
 0.4520	 7.3210
 0.4530	 7.3600
 0.4540	 7.4000
 0.4550	 7.4290
 0.4560	 7.4400
 0.4570	 7.4640
 0.4580	 7.4900
 0.4590	 7.5090
 0.4600	 7.5380
 0.4610	 7.5500
 0.4620	 7.5590
 0.4630	 7.5840
 0.4640	 7.5760
 0.4650	 7.5800
 0.4660	 7.6130
 0.4670	 7.6550
 0.4680	 7.6540
 0.4690	 7.6470
 0.4700	 7.6670
 0.4710	 7.6840
 0.4720	 7.6970
 0.4730	 7.7080
 0.4740	 7.7190
 0.4750	 7.7320
 0.4760	 7.7530
 0.4770	 7.7710
 0.4780	 7.7440
 0.4790	 7.7510
 0.4800	 7.7820
 0.4810	 7.8040
 0.4820	 7.8220
 0.4830	 7.8370
 0.4840	 7.8440
 0.4850	 7.8310
 0.4860	 7.8570
 0.4870	 7.8900
 0.4880	 7.9030
 0.4890	 7.9310
 0.4900	 7.9670
 0.4910	 7.9990
 0.4920	 8.0160
 0.4930	 8.0270
 0.4940	 8.0620
 0.4950	 8.1210
 0.4960	 8.1680
 0.4970	 8.2320
 0.4980	 8.2850
 0.4990	 8.3030
 0.5000	 8.3570
 0.5010	 8.4280
 0.5020	 8.5050
 0.5030	 8.5910
 0.5040	 8.6740
 0.5050	 8.7660
 0.5060	 8.8720
 0.5070	 8.9750
 0.5080	 9.0910
 0.5090	 9.2160
 0.5100	 9.3430
 0.5110	 9.4920
 0.5120	 9.6500
 0.5130	 9.8100
 0.5140	 9.9780
 0.5150	10.1660
 0.5160	10.3630
 0.5170	10.5560
 0.5180	10.7680
 0.5190	10.9820
 0.5200	11.1970
 0.5210	11.4180
 0.5220	11.6450
 0.5230	11.8660
 0.5240	12.0740
 0.5250	12.2740
 0.5260	12.4730
 0.5270	12.6680
 0.5280	12.8520
 0.5290	13.0200
 0.5300	13.1830
 0.5310	13.3410
 0.5320	13.4790
 0.5330	13.6010
 0.5340	13.7170
 0.5350	13.8340
 0.5360	13.9310
 0.5370	14.0260
 0.5380	14.1160
 0.5390	14.1850
 0.5400	14.2570
 0.5410	14.3250
 0.5420	14.3850
 0.5430	14.4500
 0.5440	14.5130
 0.5450	14.5770
 0.5460	14.6420
 0.5470	14.6890
 0.5480	14.7310
 0.5490	14.7780
 0.5500	14.8250
 0.5510	14.8590
 0.5520	14.8880
 0.5530	14.9190
 0.5540	14.9290
 0.5550	14.9370
 0.5560	14.9400
 0.5570	14.9210
 0.5580	14.8930
 0.5590	14.8600
 0.5600	14.8200
 0.5610	14.7600
 0.5620	14.6830
 0.5630	14.5900
 0.5640	14.4800
 0.5650	14.3740
 0.5660	14.2680
 0.5670	14.1550
 0.5680	14.0290
 0.5690	13.9090
 0.5700	13.7930
 0.5710	13.6730
 0.5720	13.5510
 0.5730	13.4390
 0.5740	13.3360
 0.5750	13.2360
 0.5760	13.1440
 0.5770	13.0560
 0.5780	12.9660
 0.5790	12.8810
 0.5800	12.7960
 0.5810	12.7120
 0.5820	12.6300
 0.5830	12.5520
 0.5840	12.4960
 0.5850	12.4650
 0.5860	12.4450
 0.5870	12.4130
 0.5880	12.3700
 0.5890	12.3230
 0.5900	12.2710
 0.5910	12.2250
 0.5920	12.1880
 0.5930	12.1560
 0.5940	12.1330
 0.5950	12.1170
 0.5960	12.1040
 0.5970	12.0920
 0.5980	12.0770
 0.5990	12.0610
 0.6000	12.0460
 0.6010	12.0160
 0.6020	11.9740
 0.6030	11.9280
 0.6040	11.8860
 0.6050	11.8370
 0.6060	11.7790
 0.6070	11.7130
 0.6080	11.6400
 0.6090	11.5670
 0.6100	11.4950
 0.6110	11.4240
 0.6120	11.3440
 0.6130	11.2660
 0.6140	11.1950
 0.6150	11.1260
 0.6160	11.0550
 0.6170	10.9890
 0.6180	10.9330
 0.6190	10.8800
 0.6200	10.8330
 0.6210	10.7940
 0.6220	10.7660
 0.6230	10.7330
 0.6240	10.7080
 0.6250	10.6970
 0.6260	10.6760
 0.6270	10.6670
 0.6280	10.6650
 0.6290	10.6620
 0.6300	10.6490
 0.6310	10.6470
 0.6320	10.6550
 0.6330	10.6470
 0.6340	10.6290
 0.6350	10.6040
 0.6360	10.5750
 0.6370	10.5400
 0.6380	10.4930
 0.6390	10.4360
 0.6400	10.3780
 0.6410	10.3170
 0.6420	10.2450
 0.6430	10.1650
 0.6440	10.0960
 0.6450	10.0180
 0.6460	 9.9360
 0.6470	 9.8580
 0.6480	 9.7800
 0.6490	 9.7090
 0.6500	 9.6450
 0.6510	 9.5870
 0.6520	 9.5350
 0.6530	 9.4810
 0.6540	 9.4210
 0.6550	 9.3640
 0.6560	 9.3010
 0.6570	 9.2300
 0.6580	 9.1530
 0.6590	 9.0750
 0.6600	 8.9920
 0.6610	 8.9090
 0.6620	 8.8330
 0.6630	 8.7580
 0.6640	 8.6870
 0.6650	 8.6230
 0.6660	 8.5680
 0.6670	 8.5220
 0.6680	 8.4840
 0.6690	 8.4510
 0.6700	 8.4300
 0.6710	 8.4150
 0.6720	 8.4030
 0.6730	 8.4030
 0.6740	 8.4030
 0.6750	 8.4080
 0.6760	 8.4230
 0.6770	 8.4430
 0.6780	 8.4620
 0.6790	 8.4860
 0.6800	 8.5250
 0.6810	 8.5700
 0.6820	 8.6250
 0.6830	 8.6940
 0.6840	 8.7850
 0.6850	 8.8950
 0.6860	 9.0270
 0.6870	 9.1870
 0.6880	 9.3940
 0.6890	 9.6410
 0.6900	 9.9320
 0.6910	10.2790
 0.6920	10.6830
 0.6930	11.1470
 0.6940	11.6680
 0.6950	12.2390
 0.6960	12.8680
 0.6970	13.5470
 0.6980	14.2660
 0.6990	15.0200
 0.7000	15.8020
 0.7010	16.6060
 0.7020	17.4280
 0.7030	18.2480
 0.7040	19.0660
 0.7050	19.8830
 0.7060	20.6940
 0.7070	21.4890
 0.7080	22.2740
 0.7090	23.0550
 0.7100	23.8080
 0.7110	24.5500
 0.7120	25.2820
 0.7130	25.9900
 0.7140	26.6800
 0.7150	27.3560
 0.7160	28.0150
 0.7170	28.6480
 0.7180	29.2640
 0.7190	29.8620
 0.7200	30.4360
 0.7210	30.9890
 0.7220	31.5190
 0.7230	32.0300
 0.7240	32.5210
 0.7250	32.9900
 0.7260	33.4300
 0.7270	33.8420
 0.7280	34.2430
 0.7290	34.6170
 0.7300	34.9660
 0.7310	35.2990
 0.7320	35.6150
 0.7330	35.9070
 0.7340	36.1790
 0.7350	36.4390
 0.7360	36.6780
 0.7370	36.9050
 0.7380	37.1240
 0.7390	37.3250
 0.7400	37.5040
 0.7410	37.6710
 0.7420	37.8330
 0.7430	37.9910
 0.7440	38.1340
 0.7450	38.2600
 0.7460	38.3670
 0.7470	38.4730
 0.7480	38.5830
 0.7490	38.6870
 0.7500	38.7630
 0.7510	38.8400
 0.7520	38.9190
 0.7530	38.9900
 0.7540	39.0670
 0.7550	39.1280
 0.7560	39.1730
 0.7570	39.2280
 0.7580	39.2740
 0.7590	39.3170
 0.7600	39.3610
 0.7610	39.4020
 0.7620	39.4360
 0.7630	39.4650
 0.7640	39.4950
 0.7650	39.5360
 0.7660	39.5750
 0.7670	39.6050
 0.7680	39.6220
 0.7690	39.6340
 0.7700	39.6580
 0.7710	39.6940
 0.7720	39.7130
 0.7730	39.7380
 0.7740	39.7620
 0.7750	39.7790
 0.7760	39.8050
 0.7770	39.8380
 0.7780	39.8660
 0.7790	39.8770
 0.7800	39.8910
 0.7810	39.9120
 0.7820	39.9390
 0.7830	39.9680
 0.7840	39.9720
 0.7850	39.9890
 0.7860	40.0320
 0.7870	40.0440
 0.7880	40.0480
 0.7890	40.0660
 0.7900	40.1030
 0.7910	40.1220
 0.7920	40.1490
 0.7930	40.1850
 0.7940	40.2090
 0.7950	40.2230
 0.7960	40.2340
 0.7970	40.2530
 0.7980	40.2830
 0.7990	40.3120
 0.8000	40.3300
 0.8010	40.3390
 0.8020	40.3750
 0.8030	40.4010
 0.8040	40.4120
 0.8050	40.4240
 0.8060	40.4600
 0.8070	40.4960
 0.8080	40.5200
 0.8090	40.5340
 0.8100	40.5590
 0.8110	40.5890
 0.8120	40.6150
 0.8130	40.6320
 0.8140	40.6500
 0.8150	40.6780
 0.8160	40.7170
 0.8170	40.7460
 0.8180	40.7580
 0.8190	40.7690
 0.8200	40.8020
 0.8210	40.8340
 0.8220	40.8580
 0.8230	40.8820
 0.8240	40.9260
 0.8250	40.9370
 0.8260	40.9450
 0.8270	40.9710
 0.8280	40.9980
 0.8290	41.0170
 0.8300	41.0270
 0.8310	41.0360
 0.8320	41.0750
 0.8330	41.1110
 0.8340	41.1420
 0.8350	41.1740
 0.8360	41.1850
 0.8370	41.2040
 0.8380	41.2320
 0.8390	41.2440
 0.8400	41.2680
 0.8410	41.2960
 0.8420	41.3250
 0.8430	41.3700
 0.8440	41.3790
 0.8450	41.3810
 0.8460	41.4030
 0.8470	41.4380
 0.8480	41.4560
 0.8490	41.4760
 0.8500	41.5160
 0.8510	41.5300
 0.8520	41.5470
 0.8530	41.5700
 0.8540	41.5880
 0.8550	41.6220
 0.8560	41.6390
 0.8570	41.6460
 0.8580	41.6870
 0.8590	41.7130
 0.8600	41.7260
 0.8610	41.7350
 0.8620	41.7440
 0.8630	41.7730
 0.8640	41.8020
 0.8650	41.8170
 0.8660	41.8380
 0.8670	41.8630
 0.8680	41.8830
 0.8690	41.8910
 0.8700	41.9100
 0.8710	41.9370
 0.8720	41.9680
 0.8730	41.9920
 0.8740	41.9850
 0.8750	41.9940
 0.8760	42.0290
 0.8770	42.0580
 0.8780	42.0540
 0.8790	42.0630
 0.8800	42.1000
 0.8810	42.1290
 0.8820	42.1330
 0.8830	42.1430
 0.8840	42.1760
 0.8850	42.1940
 0.8860	42.1910
 0.8870	42.2020
 0.8880	42.2480
 0.8890	42.2660
 0.8900	42.2590
 0.8910	42.2600
 0.8920	42.3010
 0.8930	42.3350
 0.8940	42.3490
 0.8950	42.3590
 0.8960	42.3920
 0.8970	42.3970
 0.8980	42.3940
 0.8990	42.4070
 0.9000	42.4500
 0.9010	42.4620
 0.9020	42.4780
 0.9030	42.5100
 0.9040	42.5260
 0.9050	42.5250
 0.9060	42.5140
 0.9070	42.5110
 0.9080	42.5430
 0.9090	42.5660
 0.9100	42.5860
 0.9110	42.6110
 0.9120	42.6240
 0.9130	42.6310
 0.9140	42.6380
 0.9150	42.6500
 0.9160	42.6610
 0.9170	42.6830
 0.9180	42.7050
 0.9190	42.7140
 0.9200	42.7330
 0.9210	42.7450
 0.9220	42.7430
 0.9230	42.7310
 0.9240	42.7550
 0.9250	42.7780
 0.9260	42.7860
 0.9270	42.7920
 0.9280	42.8120
 0.9290	42.8360
 0.9300	42.8430
 0.9310	42.8120
 0.9320	42.7930
 0.9330	42.7930
 0.9340	42.8090
 0.9350	42.8300
 0.9360	42.8390
 0.9370	42.8560
 0.9380	42.8740
 0.9390	42.8420
 0.9400	42.8150
 0.9410	42.8090
 0.9420	42.8150
 0.9430	42.8000
 0.9440	42.8230
 0.9450	42.8260
 0.9460	42.7760
 0.9470	42.7490
 0.9480	42.7460
 0.9490	42.7480
 0.9500	42.7340
 0.9510	42.7010
 0.9520	42.6640
 0.9530	42.6350
 0.9540	42.6160
 0.9550	42.5950
 0.9560	42.5460
 0.9570	42.4930
 0.9580	42.4710
 0.9590	42.4870
 0.9600	42.4710
 0.9610	42.4460
 0.9620	42.4540
 0.9630	42.4610
 0.9640	42.4400
 0.9650	42.4140
 0.9660	42.4150
 0.9670	42.4240
 0.9680	42.4340
 0.9690	42.4430
 0.9700	42.4490
 0.9710	42.4510
 0.9720	42.4430
 0.9730	42.4430
 0.9740	42.4680
 0.9750	42.4700
 0.9760	42.4980
 0.9770	42.5360
 0.9780	42.5500
 0.9790	42.5690
 0.9800	42.5520
 0.9810	42.5380
 0.9820	42.5810
 0.9830	42.6110
 0.9840	42.6190
 0.9850	42.6430
 0.9860	42.7130
 0.9870	42.7120
 0.9880	42.7280
 0.9890	42.7550
 0.9900	42.7530
 0.9910	42.7740
 0.9920	42.8260
 0.9930	42.8770
 0.9940	42.9290
 0.9950	42.9800
 0.9960	43.0310
 0.9970	43.0830
 0.9980	43.1340
 0.9990	43.1850
 1.0000	43.2370
 1.0010	43.2880
 1.0020	43.3400
 1.0030	43.3910
 1.0040	43.4420
 1.0050	43.4940
 1.0060	43.5450
 1.0070	43.5970
 1.0080	43.6480
 1.0090	43.6990
 1.0100	43.6990
 1.0110	43.7280
 1.0120	43.7530
 1.0130	43.7620
 1.0140	43.7880
 1.0150	43.8190
 1.0160	43.8690
 1.0170	43.9150
 1.0180	43.9380
 1.0190	43.9530
 1.0200	43.9620
 1.0210	43.9680
 1.0220	43.9960
 1.0230	44.0240
 1.0240	44.0700
 1.0250	44.0950
 1.0260	44.1110
 1.0270	44.1360
 1.0280	44.1560
 1.0290	44.1820
 1.0300	44.2330
 1.0310	44.2590
 1.0320	44.2750
 1.0330	44.2760
 1.0340	44.3020
 1.0350	44.3200
 1.0360	44.3410
 1.0370	44.3810
 1.0380	44.4080
 1.0390	44.4200
 1.0400	44.4430
 1.0410	44.4740
 1.0420	44.5000
 1.0430	44.5250
 1.0440	44.5470
 1.0450	44.5670
 1.0460	44.5860
 1.0470	44.6060
 1.0480	44.6190
 1.0490	44.6220
 1.0500	44.6350
 1.0510	44.6460
 1.0520	44.6630
 1.0530	44.6770
 1.0540	44.6980
 1.0550	44.7160
 1.0560	44.7340
 1.0570	44.7450
 1.0580	44.7550
 1.0590	44.7680
 1.0600	44.7780
 1.0610	44.7870
 1.0620	44.8030
 1.0630	44.8130
 1.0640	44.8100
 1.0650	44.8170
 1.0660	44.8350
 1.0670	44.8440
 1.0680	44.8520
 1.0690	44.8620
 1.0700	44.8680
 1.0710	44.8670
 1.0720	44.8690
 1.0730	44.8710
 1.0740	44.8760
 1.0750	44.8830
 1.0760	44.8870
 1.0770	44.8930
 1.0780	44.8990
 1.0790	44.9010
 1.0800	44.9040
 1.0810	44.9120
 1.0820	44.9140
 1.0830	44.9100
 1.0840	44.9100
 1.0850	44.9120
 1.0860	44.9110
 1.0870	44.9080
 1.0880	44.9050
 1.0890	44.9030
 1.0900	44.8970
 1.0910	44.8940
 1.0920	44.8940
 1.0930	44.8910
 1.0940	44.8830
 1.0950	44.8770
 1.0960	44.8680
 1.0970	44.8630
 1.0980	44.8570
 1.0990	44.8530
 1.1000	44.8530
 1.1010	44.8510
 1.1020	44.8460
 1.1030	44.8510
 1.1040	44.8470
 1.1050	44.8350
 1.1060	44.8320
 1.1070	44.8310
 1.1080	44.8240
 1.1090	44.8220
 1.1100	44.8110
 1.1110	44.7900
 1.1120	44.7760
 1.1130	44.7620
 1.1140	44.7480
 1.1150	44.7290
 1.1160	44.7170
 1.1170	44.7100
 1.1180	44.7010
 1.1190	44.6960
 1.1200	44.6890
 1.1210	44.6780
 1.1220	44.6650
 1.1230	44.6450
 1.1240	44.6170
 1.1250	44.5840
 1.1260	44.5400
 1.1270	44.4990
 1.1280	44.4570
 1.1290	44.4060
 1.1300	44.3520
 1.1310	44.2920
 1.1320	44.2280
 1.1330	44.1550
 1.1340	44.0730
 1.1350	43.9930
 1.1360	43.9100
 1.1370	43.8210
 1.1380	43.7280
 1.1390	43.6360
 1.1400	43.5440
 1.1410	43.4460
 1.1420	43.3460
 1.1430	43.2470
 1.1440	43.1410
 1.1450	43.0190
 1.1460	42.9140
 1.1470	42.8120
 1.1480	42.7120
 1.1490	42.6200
 1.1500	42.5280
 1.1510	42.4300
 1.1520	42.3470
 1.1530	42.2690
 1.1540	42.2010
 1.1550	42.1420
 1.1560	42.0920
 1.1570	42.0420
 1.1580	41.9940
 1.1590	41.9530
 1.1600	41.9190
 1.1610	41.8910
 1.1620	41.8690
 1.1630	41.8530
 1.1640	41.8360
 1.1650	41.8170
 1.1660	41.7990
 1.1670	41.7830
 1.1680	41.7630
 1.1690	41.7490
 1.1700	41.7420
 1.1710	41.7300
 1.1720	41.7140
 1.1730	41.7020
 1.1740	41.6900
 1.1750	41.6780
 1.1760	41.6730
 1.1770	41.6660
 1.1780	41.6580
 1.1790	41.6550
 1.1800	41.6490
 1.1810	41.6400
 1.1820	41.6290
 1.1830	41.6130
 1.1840	41.5960
 1.1850	41.5820
 1.1860	41.5700
 1.1870	41.5660
 1.1880	41.5630
 1.1890	41.5640
 1.1900	41.5630
 1.1910	41.5640
 1.1920	41.5640
 1.1930	41.5630
 1.1940	41.5630
 1.1950	41.5630
 1.1960	41.5630
 1.1970	41.5670
 1.1980	41.5830
 1.1990	41.6030
 1.2000	41.6240
 1.2010	41.6480
 1.2020	41.6690
 1.2030	41.6830
 1.2040	41.7020
 1.2050	41.7220
 1.2060	41.7440
 1.2070	41.7750
 1.2080	41.8060
 1.2090	41.8350
 1.2100	41.8690
 1.2110	41.8980
 1.2120	41.9230
 1.2130	41.9530
 1.2140	41.9790
 1.2150	42.0090
 1.2160	42.0460
 1.2170	42.0820
 1.2180	42.1140
 1.2190	42.1540
 1.2200	42.1890
 1.2210	42.2200
 1.2220	42.2580
 1.2230	42.2910
 1.2240	42.3250
 1.2250	42.3590
 1.2260	42.3880
 1.2270	42.4220
 1.2280	42.4530
 1.2290	42.4800
 1.2300	42.5100
 1.2310	42.5380
 1.2320	42.5640
 1.2330	42.5950
 1.2340	42.6260
 1.2350	42.6590
 1.2360	42.6850
 1.2370	42.7090
 1.2380	42.7350
 1.2390	42.7560
 1.2400	42.7740
 1.2410	42.8040
 1.2420	42.8290
 1.2430	42.8490
 1.2440	42.8710
 1.2450	42.8870
 1.2460	42.9030
 1.2470	42.9170
 1.2480	42.9340
 1.2490	42.9590
 1.2500	42.9750
 1.2510	42.9910
 1.2520	43.0100
 1.2530	43.0270
 1.2540	43.0440
 1.2550	43.0610
 1.2560	43.0770
 1.2570	43.0900
 1.2580	43.1030
 1.2590	43.1150
 1.2600	43.1250
 1.2610	43.1350
 1.2620	43.1430
 1.2630	43.1510
 1.2640	43.1540
 1.2650	43.1600
 1.2660	43.1640
 1.2670	43.1640
 1.2680	43.1670
 1.2690	43.1730
 1.2700	43.1750
 1.2710	43.1790
 1.2720	43.1860
 1.2730	43.1890
 1.2740	43.1940
 1.2750	43.2000
 1.2760	43.2000
 1.2770	43.1950
 1.2780	43.1830
 1.2790	43.1710
 1.2800	43.1650
 1.2810	43.1580
 1.2820	43.1510
 1.2830	43.1420
 1.2840	43.1250
 1.2850	43.1070
 1.2860	43.0870
 1.2870	43.0700
 1.2880	43.0550
 1.2890	43.0400
 1.2900	43.0200
 1.2910	42.9990
 1.2920	42.9730
 1.2930	42.9440
 1.2940	42.9150
 1.2950	42.8850
 1.2960	42.8540
 1.2970	42.8220
 1.2980	42.7890
 1.2990	42.7540
 1.3000	42.7150
 1.3010	42.6690
 1.3020	42.6200
 1.3030	42.5680
 1.3040	42.5160
 1.3050	42.4630
 1.3060	42.4030
 1.3070	42.3370
 1.3080	42.2670
 1.3090	42.1960
 1.3100	42.1250
 1.3110	42.0550
 1.3120	41.9860
 1.3130	41.9130
 1.3140	41.8390
 1.3150	41.7640
 1.3160	41.6850
 1.3170	41.6040
 1.3180	41.5190
 1.3190	41.4320
 1.3200	41.3420
 1.3210	41.2480
 1.3220	41.1570
 1.3230	41.0560
 1.3240	40.9570
 1.3250	40.8600
 1.3260	40.7550
 1.3270	40.6570
 1.3280	40.5490
 1.3290	40.4330
 1.3300	40.3210
 1.3310	40.1980
 1.3320	40.0750
 1.3330	39.9540
 1.3340	39.8300
 1.3350	39.7090
 1.3360	39.5960
 1.3370	39.4840
 1.3380	39.3700
 1.3390	39.2520
 1.3400	39.1300
 1.3410	39.0110
 1.3420	38.8950
 1.3430	38.7810
 1.3440	38.6660
 1.3450	38.5520
 1.3460	38.4370
 1.3470	38.3240
 1.3480	38.2120
 1.3490	38.1010
 1.3500	37.9910
 1.3510	37.8800
 1.3520	37.7720
 1.3530	37.6650
 1.3540	37.5570
 1.3550	37.4470
 1.3560	37.3360
 1.3570	37.2240
 1.3580	37.1090
 1.3590	36.9950
 1.3600	36.8770
 1.3610	36.7530
 1.3620	36.6240
 1.3630	36.4880
 1.3640	36.3510
 1.3650	36.2080
 1.3660	36.0610
 1.3670	35.9070
 1.3680	35.7410
 1.3690	35.5590
 1.3700	35.3670
 1.3710	35.1650
 1.3720	34.9480
 1.3730	34.7180
 1.3740	34.4740
 1.3750	34.2110
 1.3760	33.9290
 1.3770	33.6290
 1.3780	33.3070
 1.3790	32.9630
 1.3800	32.6010
 1.3810	32.2140
 1.3820	31.8110
 1.3830	31.3920
 1.3840	30.9530
 1.3850	30.4920
 1.3860	30.0190
 1.3870	29.5210
 1.3880	29.0230
 1.3890	28.5140
 1.3900	27.9970
 1.3910	27.4810
 1.3920	26.9600
 1.3930	26.4330
 1.3940	25.9100
 1.3950	25.3850
 1.3960	24.8690
 1.3970	24.3640
 1.3980	23.8710
 1.3990	23.3990
 1.4000	22.9360
 1.4010	22.4880
 1.4020	22.0590
 1.4030	21.6420
 1.4040	21.2450
 1.4050	20.8720
 1.4060	20.5160
 1.4070	20.1850
 1.4080	19.8750
 1.4090	19.5790
 1.4100	19.3030
 1.4110	19.0460
 1.4120	18.8070
 1.4130	18.5850
 1.4140	18.3820
 1.4150	18.1940
 1.4160	18.0170
 1.4170	17.8560
 1.4180	17.7080
 1.4190	17.5680
 1.4200	17.4430
 1.4210	17.3280
 1.4220	17.2210
 1.4230	17.1240
 1.4240	17.0370
 1.4250	16.9570
 1.4260	16.8850
 1.4270	16.8190
 1.4280	16.7600
 1.4290	16.7080
 1.4300	16.6640
 1.4310	16.6230
 1.4320	16.5890
 1.4330	16.5570
 1.4340	16.5250
 1.4350	16.5010
 1.4360	16.4820
 1.4370	16.4660
 1.4380	16.4540
 1.4390	16.4460
 1.4400	16.4390
 1.4410	16.4350
 1.4420	16.4380
 1.4430	16.4430
 1.4440	16.4500
 1.4450	16.4580
 1.4460	16.4660
 1.4470	16.4780
 1.4480	16.4920
 1.4490	16.5080
 1.4500	16.5260
 1.4510	16.5430
 1.4520	16.5600
 1.4530	16.5780
 1.4540	16.5990
 1.4550	16.6220
 1.4560	16.6440
 1.4570	16.6700
 1.4580	16.7000
 1.4590	16.7300
 1.4600	16.7660
 1.4610	16.8080
 1.4620	16.8540
 1.4630	16.9040
 1.4640	16.9580
 1.4650	17.0130
 1.4660	17.0760
 1.4670	17.1450
 1.4680	17.2210
 1.4690	17.2990
