Name: Adenostoma fasciculatum 2
Type: vegetation
Class: Shrub
Genus: Adenostoma
Species: fasciculatum
Sample No.: VH219
Owner: UCSB
Wavelength Range: TIR
Origin: 34.5084; -119.7687; WGS84
Collection Date: 10/13/2013
Description: Samples were collected as part of the HyspIRI Airborne Campaign. 48 individual plants were sampled in three times in 2013 - spring  summer  and fall. The name of the sample includes a 1  2  or 3 which references a different individual of the species. Samples were taken to JPL and processed within 48 hours of collection. The same leaves were processed in the Nicolet and then measured using the ASD.
Measurement: Hemispherical reflectance
First Column: X
Second Column: Y
X Units: Wavelength (micrometers)
Y Units: Reflectance (percentage)
First X Value: 2.501
Last X Value: 15.387
Number of X Values: 1737
Additional Information: vegetation.shrub.adenostoma.fasciculatum.tir.vh219.ucsb.nicolet.ancillary.txt

 2.5010	 7.8140
 2.5030	 7.7610
 2.5040	 7.7510
 2.5050	 7.6070
 2.5060	 7.4720
 2.5070	 7.8230
 2.5090	 8.0290
 2.5100	 7.8580
 2.5110	 7.8020
 2.5120	 7.6040
 2.5140	 7.5770
 2.5150	 7.7540
 2.5160	 7.9770
 2.5170	 7.9890
 2.5180	 7.8830
 2.5200	 7.7350
 2.5210	 7.7700
 2.5220	 7.7660
 2.5230	 7.8490
 2.5250	 7.8280
 2.5260	 7.7500
 2.5270	 7.6990
 2.5280	 7.8640
 2.5290	 7.8400
 2.5310	 7.6820
 2.5320	 7.6020
 2.5330	 7.5590
 2.5340	 7.5660
 2.5360	 7.5240
 2.5370	 7.3800
 2.5380	 7.3990
 2.5390	 7.6380
 2.5410	 7.7350
 2.5420	 7.7560
 2.5430	 7.7050
 2.5440	 7.5520
 2.5460	 7.7690
 2.5470	 7.9060
 2.5480	 7.8190
 2.5490	 7.7050
 2.5510	 7.7410
 2.5520	 7.8000
 2.5530	 7.9470
 2.5540	 7.8220
 2.5560	 7.7100
 2.5570	 7.6770
 2.5580	 7.6750
 2.5590	 7.5860
 2.5610	 7.6590
 2.5620	 7.5480
 2.5630	 7.6760
 2.5640	 7.7860
 2.5660	 7.9070
 2.5670	 7.9080
 2.5680	 7.7120
 2.5700	 7.6120
 2.5710	 7.8270
 2.5720	 7.9110
 2.5730	 7.8620
 2.5750	 7.7350
 2.5760	 7.5800
 2.5770	 7.6910
 2.5790	 7.8680
 2.5800	 7.6770
 2.5810	 7.6490
 2.5820	 7.7850
 2.5840	 7.9000
 2.5850	 7.7790
 2.5860	 7.6830
 2.5880	 7.5310
 2.5890	 7.4470
 2.5900	 7.7490
 2.5910	 7.9440
 2.5930	 7.8850
 2.5940	 7.8830
 2.5950	 7.8330
 2.5970	 7.7780
 2.5980	 7.5940
 2.5990	 7.7570
 2.6000	 7.7530
 2.6020	 7.7110
 2.6030	 7.7680
 2.6040	 7.7650
 2.6060	 7.5900
 2.6070	 7.4390
 2.6080	 7.4600
 2.6100	 7.6210
 2.6110	 7.5350
 2.6120	 7.4600
 2.6140	 7.5180
 2.6150	 7.6390
 2.6160	 7.6610
 2.6180	 7.4850
 2.6190	 7.2300
 2.6200	 7.2550
 2.6220	 7.4630
 2.6230	 7.6490
 2.6240	 7.6230
 2.6260	 7.5770
 2.6270	 7.4040
 2.6280	 7.3670
 2.6300	 7.4740
 2.6310	 7.6040
 2.6320	 7.2670
 2.6340	 6.9680
 2.6350	 6.9570
 2.6360	 6.9850
 2.6380	 7.0710
 2.6390	 7.1480
 2.6400	 7.2570
 2.6420	 7.4250
 2.6430	 7.4100
 2.6440	 7.2670
 2.6460	 7.0570
 2.6470	 7.0490
 2.6480	 7.1090
 2.6500	 7.0810
 2.6510	 6.8810
 2.6520	 6.7890
 2.6540	 6.5720
 2.6550	 6.6050
 2.6560	 6.5980
 2.6580	 6.6800
 2.6590	 6.7010
 2.6610	 6.6940
 2.6620	 6.6580
 2.6630	 6.7500
 2.6650	 6.8810
 2.6660	 6.8550
 2.6670	 6.7150
 2.6690	 6.6690
 2.6700	 6.4330
 2.6720	 6.3620
 2.6730	 6.3880
 2.6740	 6.4600
 2.6760	 6.3330
 2.6770	 6.2300
 2.6780	 6.3040
 2.6800	 6.4370
 2.6810	 6.3630
 2.6830	 6.2560
 2.6840	 6.0870
 2.6850	 5.9540
 2.6870	 5.9390
 2.6880	 6.0900
 2.6900	 5.9320
 2.6910	 5.7770
 2.6920	 5.6590
 2.6940	 5.6330
 2.6950	 5.5700
 2.6970	 5.5140
 2.6980	 5.5330
 2.6990	 5.5230
 2.7010	 5.3330
 2.7020	 5.3090
 2.7040	 5.0830
 2.7050	 5.1350
 2.7060	 5.1920
 2.7080	 5.2710
 2.7090	 5.0120
 2.7110	 4.8310
 2.7120	 4.8120
 2.7130	 4.8610
 2.7150	 4.7990
 2.7160	 4.8430
 2.7180	 4.7350
 2.7190	 4.7730
 2.7210	 4.7890
 2.7220	 4.8010
 2.7230	 4.8080
 2.7250	 4.5750
 2.7260	 4.4790
 2.7280	 4.6680
 2.7290	 4.6530
 2.7310	 4.5960
 2.7320	 4.3940
 2.7330	 4.2130
 2.7350	 4.0280
 2.7360	 4.0550
 2.7380	 4.4020
 2.7390	 4.5920
 2.7410	 4.2820
 2.7420	 4.0390
 2.7440	 4.1350
 2.7450	 4.3350
 2.7470	 4.4120
 2.7480	 4.7460
 2.7490	 4.4750
 2.7510	 4.1340
 2.7520	 3.6920
 2.7540	 3.7260
 2.7550	 4.7950
 2.7570	 5.3600
 2.7580	 4.4380
 2.7600	 3.7280
 2.7610	 3.7160
 2.7630	 3.8250
 2.7640	 3.8900
 2.7660	 4.2020
 2.7670	 4.0500
 2.7680	 4.3580
 2.7700	 4.4690
 2.7710	 4.2080
 2.7730	 3.8910
 2.7740	 4.1690
 2.7760	 4.4860
 2.7770	 4.5170
 2.7790	 4.3100
 2.7800	 4.2140
 2.7820	 3.9820
 2.7830	 4.1300
 2.7850	 4.3490
 2.7860	 4.2850
 2.7880	 4.1460
 2.7890	 4.2060
 2.7910	 4.0700
 2.7920	 3.9260
 2.7940	 3.8700
 2.7950	 3.9510
 2.7970	 3.9820
 2.7980	 3.8520
 2.8000	 3.7830
 2.8010	 3.8690
 2.8030	 3.7030
 2.8040	 3.7560
 2.8060	 3.8900
 2.8070	 3.9420
 2.8090	 4.0190
 2.8110	 4.1880
 2.8120	 4.2180
 2.8140	 4.1500
 2.8150	 3.8510
 2.8170	 3.6220
 2.8180	 3.6820
 2.8200	 4.0870
 2.8210	 4.1270
 2.8230	 3.6480
 2.8240	 3.7330
 2.8260	 4.0650
 2.8270	 4.0410
 2.8290	 4.1700
 2.8300	 4.3150
 2.8320	 4.3510
 2.8340	 4.0210
 2.8350	 3.8860
 2.8370	 3.9520
 2.8380	 3.7360
 2.8400	 3.6350
 2.8410	 3.6220
 2.8430	 3.7920
 2.8440	 3.9430
 2.8460	 3.8930
 2.8480	 3.9950
 2.8490	 3.9390
 2.8510	 3.9370
 2.8520	 4.0600
 2.8540	 4.0770
 2.8550	 3.9280
 2.8570	 3.9090
 2.8590	 3.9360
 2.8600	 4.0490
 2.8620	 3.9050
 2.8630	 3.9430
 2.8650	 3.9600
 2.8660	 3.9230
 2.8680	 3.7390
 2.8700	 3.9550
 2.8710	 4.2720
 2.8730	 4.2890
 2.8740	 3.8270
 2.8760	 3.7160
 2.8780	 3.6920
 2.8790	 3.7140
 2.8810	 3.9300
 2.8820	 4.3870
 2.8840	 4.1700
 2.8860	 3.4230
 2.8870	 3.7650
 2.8890	 4.0390
 2.8900	 4.0500
 2.8920	 4.1440
 2.8940	 3.7370
 2.8950	 3.3020
 2.8970	 3.8350
 2.8980	 4.0650
 2.9000	 3.5540
 2.9020	 3.9660
 2.9030	 4.0750
 2.9050	 3.9180
 2.9070	 4.2530
 2.9080	 4.1970
 2.9100	 3.7090
 2.9120	 3.4130
 2.9130	 3.4370
 2.9150	 3.7330
 2.9160	 3.8220
 2.9180	 3.8400
 2.9200	 3.8770
 2.9210	 4.0070
 2.9230	 3.7760
 2.9250	 3.7980
 2.9260	 3.8950
 2.9280	 3.9500
 2.9300	 3.9360
 2.9310	 3.9200
 2.9330	 3.8650
 2.9350	 4.1220
 2.9360	 4.2820
 2.9380	 4.3470
 2.9400	 4.3120
 2.9410	 4.0490
 2.9430	 3.6680
 2.9450	 4.0280
 2.9460	 4.1500
 2.9480	 4.2290
 2.9500	 4.7870
 2.9510	 4.4950
 2.9530	 3.8190
 2.9550	 3.1850
 2.9560	 3.0430
 2.9580	 3.9790
 2.9600	 4.0220
 2.9610	 3.9630
 2.9630	 3.9680
 2.9650	 3.8520
 2.9660	 4.3450
 2.9680	 4.1890
 2.9700	 2.8010
 2.9720	 4.1330
 2.9730	 4.2850
 2.9750	 3.3770
 2.9770	 4.4730
 2.9780	 4.8270
 2.9800	 0.5170
 2.9820	 -0.745
 2.9840	 1.8790
 2.9850	 2.2660
 2.9870	 2.9580
 2.9890	 4.0960
 2.9900	 3.1600
 2.9920	 4.1120
 2.9940	 6.1480
 2.9960	 6.5830
 2.9970	 5.4690
 2.9990	 5.2970
 3.0010	 4.7710
 3.0030	 3.5470
 3.0040	 3.5170
 3.0060	 4.5470
 3.0080	 6.7540
 3.0100	 5.8460
 3.0110	 3.6140
 3.0130	 3.8610
 3.0150	 3.4110
 3.0170	 2.8080
 3.0180	 4.0210
 3.0200	 5.1380
 3.0220	 5.2980
 3.0240	 4.2710
 3.0250	 3.8920
 3.0270	 4.6710
 3.0290	 3.4310
 3.0310	 2.7200
 3.0320	 4.3270
 3.0340	 6.3780
 3.0360	 7.2230
 3.0380	 3.8580
 3.0400	 4.1500
 3.0410	 4.8640
 3.0430	 1.9770
 3.0450	 0.4910
 3.0470	 0.5670
 3.0480	 2.4630
 3.0500	 2.4160
 3.0520	 2.4590
 3.0540	 2.7340
 3.0560	 1.9210
 3.0570	 2.3130
 3.0590	 5.1680
 3.0610	 7.4750
 3.0630	 3.4010
 3.0650	 0.5650
 3.0660	 2.8330
 3.0680	 4.7720
 3.0700	 5.8580
 3.0720	 5.1400
 3.0740	 4.1380
 3.0760	 4.3940
 3.0770	 4.5640
 3.0790	 4.3330
 3.0810	 4.3180
 3.0830	 4.0010
 3.0850	 4.1080
 3.0870	 4.1230
 3.0880	 4.0270
 3.0900	 3.6890
 3.0920	 3.7790
 3.0940	 3.8450
 3.0960	 4.0070
 3.0980	 4.1800
 3.0990	 4.3260
 3.1010	 4.3490
 3.1030	 3.8640
 3.1050	 3.7410
 3.1070	 3.9330
 3.1090	 3.7510
 3.1110	 3.9580
 3.1120	 4.0970
 3.1140	 4.0200
 3.1160	 4.2560
 3.1180	 4.8190
 3.1200	 4.8690
 3.1220	 4.5690
 3.1240	 4.1660
 3.1260	 4.0580
 3.1270	 4.2710
 3.1290	 4.3420
 3.1310	 4.6290
 3.1330	 4.8980
 3.1350	 5.3570
 3.1370	 5.1890
 3.1390	 3.7620
 3.1410	 2.8710
 3.1430	 3.9530
 3.1450	 4.2950
 3.1460	 2.1350
 3.1480	 2.7140
 3.1500	 3.3650
 3.1520	 3.7430
 3.1540	 3.7500
 3.1560	 3.4950
 3.1580	 5.1700
 3.1600	 6.4540
 3.1620	 4.7490
 3.1640	 3.4380
 3.1660	 3.3140
 3.1680	 4.6840
 3.1700	 5.6820
 3.1710	 5.6770
 3.1730	 3.5080
 3.1750	 0.7480
 3.1770	 2.3740
 3.1790	 4.0370
 3.1810	 1.7530
 3.1830	 1.9030
 3.1850	 2.7310
 3.1870	 2.9650
 3.1890	 4.0390
 3.1910	 4.5210
 3.1930	 4.4410
 3.1950	 4.5260
 3.1970	 4.6370
 3.1990	 4.3490
 3.2010	 4.2740
 3.2030	 4.4260
 3.2050	 4.2190
 3.2070	 4.4230
 3.2090	 4.6010
 3.2110	 4.5970
 3.2130	 4.4840
 3.2150	 4.2700
 3.2170	 3.9190
 3.2190	 3.8840
 3.2210	 3.9060
 3.2230	 3.9290
 3.2250	 3.8900
 3.2270	 4.2260
 3.2290	 4.3830
 3.2310	 4.3920
 3.2330	 4.1110
 3.2350	 4.2890
 3.2370	 4.3780
 3.2390	 4.1220
 3.2410	 4.1700
 3.2430	 4.4880
 3.2450	 4.4830
 3.2470	 4.3800
 3.2490	 4.3330
 3.2510	 3.9430
 3.2530	 3.6610
 3.2550	 4.0220
 3.2570	 4.3770
 3.2590	 4.4570
 3.2610	 4.3020
 3.2630	 4.1820
 3.2650	 4.0510
 3.2670	 4.1690
 3.2690	 3.9260
 3.2720	 3.8390
 3.2740	 4.2300
 3.2760	 4.5480
 3.2780	 4.2740
 3.2800	 4.2320
 3.2820	 4.5300
 3.2840	 4.3840
 3.2860	 4.0990
 3.2880	 4.4760
 3.2900	 4.9280
 3.2920	 4.4690
 3.2940	 4.3320
 3.2960	 4.5480
 3.2990	 4.2660
 3.3010	 3.9120
 3.3030	 4.2500
 3.3050	 4.4100
 3.3070	 4.2520
 3.3090	 4.0250
 3.3110	 3.9920
 3.3130	 4.2460
 3.3150	 4.4540
 3.3180	 4.0350
 3.3200	 3.4720
 3.3220	 3.7500
 3.3240	 4.0290
 3.3260	 4.0780
 3.3280	 3.9860
 3.3300	 3.9540
 3.3330	 4.0900
 3.3350	 4.1010
 3.3370	 4.1180
 3.3390	 4.2650
 3.3410	 4.2550
 3.3430	 4.0500
 3.3450	 3.9870
 3.3480	 4.0810
 3.3500	 4.1880
 3.3520	 4.1750
 3.3540	 4.0070
 3.3560	 4.1080
 3.3580	 4.0010
 3.3610	 3.8540
 3.3630	 3.9560
 3.3650	 4.1030
 3.3670	 4.1280
 3.3690	 4.0370
 3.3720	 3.9790
 3.3740	 4.0810
 3.3760	 4.1450
 3.3780	 3.9970
 3.3800	 3.8430
 3.3830	 3.9790
 3.3850	 4.1350
 3.3870	 4.1820
 3.3890	 4.0890
 3.3910	 3.9430
 3.3940	 3.9190
 3.3960	 4.0820
 3.3980	 3.8130
 3.4000	 3.8060
 3.4020	 3.9440
 3.4050	 3.9410
 3.4070	 3.8740
 3.4090	 4.1520
 3.4110	 4.3630
 3.4140	 4.2840
 3.4160	 4.1770
 3.4180	 4.3610
 3.4200	 4.6840
 3.4230	 4.9040
 3.4250	 4.8550
 3.4270	 5.1010
 3.4290	 5.3270
 3.4320	 5.3700
 3.4340	 4.9990
 3.4360	 4.7590
 3.4390	 4.6420
 3.4410	 4.4110
 3.4430	 4.2760
 3.4450	 4.5520
 3.4480	 4.6800
 3.4500	 4.6880
 3.4520	 4.4490
 3.4550	 4.3300
 3.4570	 4.3550
 3.4590	 4.1770
 3.4620	 4.2980
 3.4640	 4.5400
 3.4660	 4.6130
 3.4680	 4.5090
 3.4710	 4.3660
 3.4730	 4.4880
 3.4750	 4.5050
 3.4780	 4.4280
 3.4800	 4.3840
 3.4820	 4.3250
 3.4850	 4.1920
 3.4870	 4.3340
 3.4890	 4.2680
 3.4920	 4.2490
 3.4940	 4.2280
 3.4970	 4.1890
 3.4990	 4.3260
 3.5010	 4.3280
 3.5040	 4.4380
 3.5060	 4.5340
 3.5080	 4.6910
 3.5110	 5.0510
 3.5130	 4.9490
 3.5160	 4.8930
 3.5180	 4.8650
 3.5200	 4.6250
 3.5230	 4.3390
 3.5250	 4.3680
 3.5270	 4.4890
 3.5300	 4.6360
 3.5320	 4.5810
 3.5350	 4.5690
 3.5370	 4.5730
 3.5400	 4.5670
 3.5420	 4.6130
 3.5440	 4.9180
 3.5470	 4.7050
 3.5490	 4.3100
 3.5520	 4.2970
 3.5540	 4.5340
 3.5570	 4.5860
 3.5590	 4.4920
 3.5610	 4.5470
 3.5640	 4.6450
 3.5660	 4.6440
 3.5690	 4.7560
 3.5710	 4.8310
 3.5740	 4.6830
 3.5760	 4.6490
 3.5790	 4.5210
 3.5810	 4.3830
 3.5840	 4.4250
 3.5860	 4.4360
 3.5890	 4.5730
 3.5910	 4.6480
 3.5930	 5.0040
 3.5960	 4.9630
 3.5980	 4.8650
 3.6010	 5.0180
 3.6030	 4.8050
 3.6060	 4.5280
 3.6080	 4.4650
 3.6110	 4.4650
 3.6140	 4.6050
 3.6160	 4.7580
 3.6190	 4.6750
 3.6210	 4.5850
 3.6240	 4.7080
 3.6260	 4.7500
 3.6290	 4.6860
 3.6310	 4.5920
 3.6340	 4.6670
 3.6360	 4.7510
 3.6390	 4.5690
 3.6410	 4.5640
 3.6440	 4.7800
 3.6470	 4.7730
 3.6490	 4.7480
 3.6520	 4.7640
 3.6540	 4.7140
 3.6570	 4.6270
 3.6590	 4.6870
 3.6620	 4.8110
 3.6650	 4.8150
 3.6670	 4.7250
 3.6700	 4.7500
 3.6720	 4.7760
 3.6750	 4.7210
 3.6780	 4.5550
 3.6800	 4.5270
 3.6830	 4.6090
 3.6850	 4.7270
 3.6880	 4.6580
 3.6910	 4.5870
 3.6930	 4.6060
 3.6960	 4.7190
 3.6990	 4.7020
 3.7010	 4.5920
 3.7040	 4.5980
 3.7060	 4.7340
 3.7090	 4.7220
 3.7120	 4.7270
 3.7140	 4.7610
 3.7170	 4.7090
 3.7200	 4.6610
 3.7220	 4.7980
 3.7250	 4.8510
 3.7280	 4.8720
 3.7300	 4.7930
 3.7330	 4.5320
 3.7360	 4.5310
 3.7390	 4.6450
 3.7410	 4.8120
 3.7440	 4.8870
 3.7470	 4.8450
 3.7490	 4.9130
 3.7520	 4.9030
 3.7550	 4.9110
 3.7580	 4.9060
 3.7600	 4.5860
 3.7630	 4.4870
 3.7660	 4.6860
 3.7680	 4.7870
 3.7710	 4.9160
 3.7740	 4.9570
 3.7770	 4.9030
 3.7790	 4.8950
 3.7820	 4.7560
 3.7850	 4.7020
 3.7880	 4.7450
 3.7900	 4.7180
 3.7930	 4.7580
 3.7960	 4.7940
 3.7990	 4.8420
 3.8020	 4.7730
 3.8040	 4.7320
 3.8070	 4.6620
 3.8100	 4.6640
 3.8130	 4.8080
 3.8160	 4.9650
 3.8180	 4.8580
 3.8210	 4.8250
 3.8240	 4.8280
 3.8270	 4.7510
 3.8300	 4.8100
 3.8330	 4.8720
 3.8350	 4.9570
 3.8380	 4.9750
 3.8410	 4.8410
 3.8440	 4.8450
 3.8470	 4.8350
 3.8500	 4.7480
 3.8520	 4.8070
 3.8550	 4.8670
 3.8580	 4.9490
 3.8610	 4.9250
 3.8640	 4.8660
 3.8670	 4.8850
 3.8700	 4.8590
 3.8730	 4.7940
 3.8750	 4.7870
 3.8780	 4.8770
 3.8810	 4.8770
 3.8840	 4.8390
 3.8870	 4.8200
 3.8900	 4.8520
 3.8930	 4.9170
 3.8960	 4.8820
 3.8990	 4.8360
 3.9020	 4.8580
 3.9050	 4.8130
 3.9080	 4.9300
 3.9110	 5.1280
 3.9140	 5.1650
 3.9160	 5.1050
 3.9190	 5.0240
 3.9220	 4.9730
 3.9250	 4.9100
 3.9280	 4.9090
 3.9310	 5.0290
 3.9340	 5.1090
 3.9370	 5.0680
 3.9400	 5.0320
 3.9430	 5.0850
 3.9460	 5.0100
 3.9490	 4.9720
 3.9520	 5.0160
 3.9550	 5.0570
 3.9580	 5.1100
 3.9610	 5.1480
 3.9640	 5.0870
 3.9670	 5.1060
 3.9700	 5.1050
 3.9730	 5.1650
 3.9770	 5.1690
 3.9800	 5.1380
 3.9830	 5.1190
 3.9860	 5.0890
 3.9890	 5.1640
 3.9920	 5.1780
 3.9950	 5.0330
 3.9980	 4.9870
 4.0010	 5.0470
 4.0040	 5.0960
 4.0070	 5.1580
 4.0100	 5.1970
 4.0130	 5.2520
 4.0170	 5.2780
 4.0200	 5.2130
 4.0230	 5.1930
 4.0260	 5.1620
 4.0290	 5.1240
 4.0320	 5.1610
 4.0350	 5.1230
 4.0380	 5.1040
 4.0420	 5.1920
 4.0450	 5.3220
 4.0480	 5.3910
 4.0510	 5.2440
 4.0540	 5.1600
 4.0570	 5.2750
 4.0610	 5.2730
 4.0640	 5.0750
 4.0670	 5.2070
 4.0700	 5.3300
 4.0730	 5.2480
 4.0770	 5.1940
 4.0800	 5.2580
 4.0830	 5.3470
 4.0860	 5.3840
 4.0890	 5.4770
 4.0930	 5.5030
 4.0960	 5.3860
 4.0990	 5.4740
 4.1020	 5.6220
 4.1060	 5.5010
 4.1090	 4.9510
 4.1120	 5.0220
 4.1150	 5.3610
 4.1190	 5.4440
 4.1220	 5.4610
 4.1250	 5.4450
 4.1280	 5.4270
 4.1320	 5.3910
 4.1350	 5.3500
 4.1380	 5.3820
 4.1420	 5.3420
 4.1450	 5.3500
 4.1480	 5.4020
 4.1520	 5.3520
 4.1550	 5.4690
 4.1580	 5.5380
 4.1620	 5.4350
 4.1650	 5.4420
 4.1680	 5.4590
 4.1720	 5.3870
 4.1750	 5.3520
 4.1780	 5.3670
 4.1820	 5.4400
 4.1850	 5.4450
 4.1890	 5.3550
 4.1920	 5.4050
 4.1950	 5.5240
 4.1990	 5.4880
 4.2020	 5.5520
 4.2060	 5.6340
 4.2090	 5.5310
 4.2120	 5.5510
 4.2160	 5.5330
 4.2190	 5.7570
 4.2230	 5.6640
 4.2260	 5.4040
 4.2300	 5.3170
 4.2330	 5.4790
 4.2360	 5.8250
 4.2400	 6.1100
 4.2430	 6.2890
 4.2470	 6.0970
 4.2500	 5.7890
 4.2540	 5.5950
 4.2570	 5.5640
 4.2610	 5.4870
 4.2640	 5.4930
 4.2680	 5.2890
 4.2710	 5.3150
 4.2750	 5.6730
 4.2780	 5.7660
 4.2820	 5.7290
 4.2850	 5.8390
 4.2890	 5.7960
 4.2930	 5.6690
 4.2960	 5.7940
 4.3000	 5.9170
 4.3030	 5.6530
 4.3070	 5.3740
 4.3100	 5.5050
 4.3140	 5.6340
 4.3180	 5.4970
 4.3210	 5.4990
 4.3250	 5.4470
 4.3280	 5.5340
 4.3320	 5.6960
 4.3360	 5.6890
 4.3390	 5.5580
 4.3430	 5.5050
 4.3470	 5.5380
 4.3500	 5.4700
 4.3540	 5.4300
 4.3570	 5.4550
 4.3610	 5.4950
 4.3650	 5.4970
 4.3680	 5.3860
 4.3720	 5.3990
 4.3760	 5.4680
 4.3800	 5.4080
 4.3830	 5.3400
 4.3870	 5.4670
 4.3910	 5.4720
 4.3940	 5.3870
 4.3980	 5.3820
 4.4020	 5.3620
 4.4060	 5.4300
 4.4090	 5.5300
 4.4130	 5.4840
 4.4170	 5.4790
 4.4210	 5.4800
 4.4240	 5.3800
 4.4280	 5.3740
 4.4320	 5.4410
 4.4360	 5.4240
 4.4400	 5.4200
 4.4430	 5.4610
 4.4470	 5.4270
 4.4510	 5.3680
 4.4550	 5.3910
 4.4590	 5.3830
 4.4620	 5.4110
 4.4660	 5.4060
 4.4700	 5.3530
 4.4740	 5.3850
 4.4780	 5.3830
 4.4820	 5.3530
 4.4860	 5.3550
 4.4900	 5.3430
 4.4930	 5.3540
 4.4970	 5.3520
 4.5010	 5.3340
 4.5050	 5.3460
 4.5090	 5.3840
 4.5130	 5.4000
 4.5170	 5.3790
 4.5210	 5.3190
 4.5250	 5.2570
 4.5290	 5.2280
 4.5330	 5.2620
 4.5370	 5.2520
 4.5410	 5.2090
 4.5450	 5.2070
 4.5490	 5.2540
 4.5530	 5.3020
 4.5570	 5.2870
 4.5610	 5.1620
 4.5650	 5.1870
 4.5690	 5.3710
 4.5730	 5.2940
 4.5770	 5.3590
 4.5810	 5.4550
 4.5850	 5.2320
 4.5890	 5.1400
 4.5930	 5.2740
 4.5970	 5.3500
 4.6010	 5.2940
 4.6050	 5.2180
 4.6090	 5.2730
 4.6130	 5.2650
 4.6170	 5.2290
 4.6220	 5.2190
 4.6260	 5.1800
 4.6300	 5.2570
 4.6340	 5.3980
 4.6380	 5.3910
 4.6420	 5.1370
 4.6460	 5.1420
 4.6510	 5.2370
 4.6550	 5.1890
 4.6590	 5.1860
 4.6630	 5.2250
 4.6670	 5.2600
 4.6720	 5.2940
 4.6760	 5.1860
 4.6800	 5.1220
 4.6840	 5.1520
 4.6880	 5.1640
 4.6930	 5.1050
 4.6970	 5.1180
 4.7010	 5.1220
 4.7050	 5.1420
 4.7100	 5.2370
 4.7140	 5.3090
 4.7180	 5.1800
 4.7230	 5.0170
 4.7270	 5.0640
 4.7310	 5.1990
 4.7360	 5.1990
 4.7400	 5.1760
 4.7440	 5.1910
 4.7490	 5.2660
 4.7530	 5.2940
 4.7570	 5.3290
 4.7620	 5.2670
 4.7660	 5.2150
 4.7700	 5.1480
 4.7750	 5.1110
 4.7790	 5.0750
 4.7840	 5.2380
 4.7880	 5.2800
 4.7920	 5.1980
 4.7970	 5.3280
 4.8010	 5.2000
 4.8060	 4.9550
 4.8100	 5.0810
 4.8150	 5.3340
 4.8190	 5.2940
 4.8240	 5.0980
 4.8280	 5.1450
 4.8330	 5.1800
 4.8370	 5.1100
 4.8420	 5.0920
 4.8460	 5.2240
 4.8510	 5.2890
 4.8550	 5.2240
 4.8600	 5.1890
 4.8640	 5.2170
 4.8690	 5.1800
 4.8730	 5.1650
 4.8780	 5.0780
 4.8830	 5.0200
 4.8870	 4.9950
 4.8920	 5.0280
 4.8960	 5.1460
 4.9010	 5.2820
 4.9060	 5.2200
 4.9100	 5.1980
 4.9150	 5.2600
 4.9200	 5.3170
 4.9240	 5.2250
 4.9290	 5.1730
 4.9340	 5.1440
 4.9380	 5.1170
 4.9430	 5.0960
 4.9480	 5.1260
 4.9530	 5.1740
 4.9570	 5.2490
 4.9620	 5.3000
 4.9670	 5.2870
 4.9720	 5.2550
 4.9760	 5.3470
 4.9810	 5.3670
 4.9860	 5.3220
 4.9910	 5.2700
 4.9960	 5.3090
 5.0000	 5.2600
 5.0050	 5.3030
 5.0100	 5.3810
 5.0150	 5.2720
 5.0200	 5.2270
 5.0250	 5.3010
 5.0290	 5.3060
 5.0340	 5.2860
 5.0390	 5.2410
 5.0440	 5.2490
 5.0490	 5.1970
 5.0540	 5.2400
 5.0590	 5.3030
 5.0640	 5.2810
 5.0690	 5.2650
 5.0740	 5.2850
 5.0790	 5.2680
 5.0840	 5.2760
 5.0890	 5.2290
 5.0940	 5.3870
 5.0990	 5.4080
 5.1040	 5.3410
 5.1090	 5.3480
 5.1140	 5.3180
 5.1190	 5.3160
 5.1240	 5.3820
 5.1290	 5.3250
 5.1340	 5.3340
 5.1390	 5.3800
 5.1440	 5.3870
 5.1490	 5.3240
 5.1540	 5.3080
 5.1600	 5.3250
 5.1650	 5.3070
 5.1700	 5.2530
 5.1750	 5.3310
 5.1800	 5.2440
 5.1850	 5.1900
 5.1910	 5.2130
 5.1960	 5.3440
 5.2010	 5.3950
 5.2060	 5.3790
 5.2110	 5.4160
 5.2170	 5.4160
 5.2220	 5.3120
 5.2270	 5.2930
 5.2320	 5.2580
 5.2380	 5.2770
 5.2430	 5.3090
 5.2480	 5.3440
 5.2540	 5.2600
 5.2590	 5.3250
 5.2640	 5.3180
 5.2700	 5.2510
 5.2750	 5.2440
 5.2800	 5.2510
 5.2860	 5.2740
 5.2910	 5.2930
 5.2970	 5.2290
 5.3020	 5.1730
 5.3070	 5.1630
 5.3130	 5.2190
 5.3180	 5.1920
 5.3240	 5.2470
 5.3290	 5.2840
 5.3350	 5.2670
 5.3400	 5.1290
 5.3460	 5.1000
 5.3510	 5.1150
 5.3570	 5.1910
 5.3620	 5.2380
 5.3680	 5.2450
 5.3730	 5.1520
 5.3790	 5.1510
 5.3850	 5.0850
 5.3900	 5.1170
 5.3960	 5.1300
 5.4010	 5.1590
 5.4070	 5.1230
 5.4130	 5.1110
 5.4180	 5.1040
 5.4240	 5.1180
 5.4300	 5.0550
