Name: Bambusa tuldoides
Type: vegetation
Class: Tree
Genus: Bambusa
Species: tuldoides
Sample No.: JPL214
Owner: JPL
Wavelength Range: VSWIR
Origin: 34.12526; -118.11174; WGS84
Collection Date: 10/3/2016
Description: Samples were collected at the Huntington Garden in San Marino California as part of a JPL Subcontract studying HyTES imagery. Samples were taken to JPL and processed within 48 hours of collection. The same leaves were processed in the Nicolet and then measured using the ASD.
Measurement: Bidirectional reflectance
First Column: X
Second Column: Y
X Units: Wavelength (micrometer)
Y Units: Reflectance (percentage)
First X Value: 0.35
Last X Value: 2.5
Number of X Values: 2151
Additional Information: vegetation.tree.bambusa.tuldoides.vswir.jpl214.jpl.asd.ancillary.txt

 0.3500	 4.9770
 0.3510	 4.8880
 0.3520	 4.9470
 0.3530	 5.0230
 0.3540	 4.9760
 0.3550	 4.8290
 0.3560	 4.7870
 0.3570	 4.8350
 0.3580	 4.8480
 0.3590	 4.7960
 0.3600	 4.7580
 0.3610	 4.7660
 0.3620	 4.7690
 0.3630	 4.7720
 0.3640	 4.7530
 0.3650	 4.7100
 0.3660	 4.7280
 0.3670	 4.7170
 0.3680	 4.6780
 0.3690	 4.6710
 0.3700	 4.6380
 0.3710	 4.6170
 0.3720	 4.6290
 0.3730	 4.6380
 0.3740	 4.6620
 0.3750	 4.6590
 0.3760	 4.6040
 0.3770	 4.6170
 0.3780	 4.6090
 0.3790	 4.5980
 0.3800	 4.6820
 0.3810	 4.6590
 0.3820	 4.6390
 0.3830	 4.6930
 0.3840	 4.6820
 0.3850	 4.6350
 0.3860	 4.6140
 0.3870	 4.6630
 0.3880	 4.6070
 0.3890	 4.6150
 0.3900	 4.6990
 0.3910	 4.7010
 0.3920	 4.6940
 0.3930	 4.6840
 0.3940	 4.6710
 0.3950	 4.6760
 0.3960	 4.6860
 0.3970	 4.6980
 0.3980	 4.7170
 0.3990	 4.7470
 0.4000	 4.7560
 0.4010	 4.7450
 0.4020	 4.7630
 0.4030	 4.7560
 0.4040	 4.7470
 0.4050	 4.7650
 0.4060	 4.7790
 0.4070	 4.8010
 0.4080	 4.8200
 0.4090	 4.8210
 0.4100	 4.8300
 0.4110	 4.8530
 0.4120	 4.8820
 0.4130	 4.8880
 0.4140	 4.8840
 0.4150	 4.8820
 0.4160	 4.8950
 0.4170	 4.9120
 0.4180	 4.9250
 0.4190	 4.9380
 0.4200	 4.9600
 0.4210	 4.9730
 0.4220	 4.9760
 0.4230	 4.9740
 0.4240	 4.9780
 0.4250	 4.9910
 0.4260	 5.0060
 0.4270	 5.0100
 0.4280	 5.0070
 0.4290	 5.0110
 0.4300	 5.0240
 0.4310	 5.0230
 0.4320	 5.0210
 0.4330	 5.0220
 0.4340	 5.0270
 0.4350	 5.0240
 0.4360	 5.0310
 0.4370	 5.0460
 0.4380	 5.0520
 0.4390	 5.0630
 0.4400	 5.0720
 0.4410	 5.0760
 0.4420	 5.0770
 0.4430	 5.0860
 0.4440	 5.0980
 0.4450	 5.1050
 0.4460	 5.1070
 0.4470	 5.1130
 0.4480	 5.1260
 0.4490	 5.1390
 0.4500	 5.1490
 0.4510	 5.1620
 0.4520	 5.1790
 0.4530	 5.1850
 0.4540	 5.1900
 0.4550	 5.1980
 0.4560	 5.2070
 0.4570	 5.2130
 0.4580	 5.2190
 0.4590	 5.2240
 0.4600	 5.2210
 0.4610	 5.2290
 0.4620	 5.2400
 0.4630	 5.2420
 0.4640	 5.2430
 0.4650	 5.2480
 0.4660	 5.2530
 0.4670	 5.2540
 0.4680	 5.2510
 0.4690	 5.2490
 0.4700	 5.2520
 0.4710	 5.2490
 0.4720	 5.2500
 0.4730	 5.2560
 0.4740	 5.2590
 0.4750	 5.2570
 0.4760	 5.2570
 0.4770	 5.2630
 0.4780	 5.2650
 0.4790	 5.2710
 0.4800	 5.2770
 0.4810	 5.2790
 0.4820	 5.2790
 0.4830	 5.2800
 0.4840	 5.2830
 0.4850	 5.2890
 0.4860	 5.2960
 0.4870	 5.3060
 0.4880	 5.3210
 0.4890	 5.3390
 0.4900	 5.3550
 0.4910	 5.3690
 0.4920	 5.3870
 0.4930	 5.4110
 0.4940	 5.4340
 0.4950	 5.4570
 0.4960	 5.4930
 0.4970	 5.5270
 0.4980	 5.5590
 0.4990	 5.5950
 0.5000	 5.6450
 0.5010	 5.7030
 0.5020	 5.7620
 0.5030	 5.8230
 0.5040	 5.8950
 0.5050	 5.9760
 0.5060	 6.0660
 0.5070	 6.1650
 0.5080	 6.2760
 0.5090	 6.3980
 0.5100	 6.5280
 0.5110	 6.6730
 0.5120	 6.8330
 0.5130	 7.0070
 0.5140	 7.1930
 0.5150	 7.3930
 0.5160	 7.6050
 0.5170	 7.8260
 0.5180	 8.0690
 0.5190	 8.3190
 0.5200	 8.5730
 0.5210	 8.8330
 0.5220	 9.0940
 0.5230	 9.3540
 0.5240	 9.6100
 0.5250	 9.8570
 0.5260	10.0990
 0.5270	10.3300
 0.5280	10.5450
 0.5290	10.7460
 0.5300	10.9310
 0.5310	11.1030
 0.5320	11.2690
 0.5330	11.4100
 0.5340	11.5340
 0.5350	11.6560
 0.5360	11.7610
 0.5370	11.8520
 0.5380	11.9350
 0.5390	12.0170
 0.5400	12.0960
 0.5410	12.1690
 0.5420	12.2370
 0.5430	12.2990
 0.5440	12.3540
 0.5450	12.3990
 0.5460	12.4310
 0.5470	12.4620
 0.5480	12.4860
 0.5490	12.5040
 0.5500	12.5230
 0.5510	12.5320
 0.5520	12.5320
 0.5530	12.5240
 0.5540	12.4990
 0.5550	12.4610
 0.5560	12.4110
 0.5570	12.3460
 0.5580	12.2660
 0.5590	12.1740
 0.5600	12.0730
 0.5610	11.9630
 0.5620	11.8440
 0.5630	11.7190
 0.5640	11.5860
 0.5650	11.4450
 0.5660	11.2950
 0.5670	11.1400
 0.5680	10.9820
 0.5690	10.8260
 0.5700	10.6680
 0.5710	10.5050
 0.5720	10.3490
 0.5730	10.1980
 0.5740	10.0540
 0.5750	 9.9190
 0.5760	 9.7940
 0.5770	 9.6760
 0.5780	 9.5620
 0.5790	 9.4590
 0.5800	 9.3610
 0.5810	 9.2680
 0.5820	 9.1770
 0.5830	 9.0960
 0.5840	 9.0220
 0.5850	 8.9500
 0.5860	 8.8770
 0.5870	 8.8070
 0.5880	 8.7440
 0.5890	 8.6900
 0.5900	 8.6470
 0.5910	 8.6110
 0.5920	 8.5770
 0.5930	 8.5420
 0.5940	 8.5040
 0.5950	 8.4690
 0.5960	 8.4380
 0.5970	 8.4070
 0.5980	 8.3770
 0.5990	 8.3460
 0.6000	 8.3110
 0.6010	 8.2760
 0.6020	 8.2390
 0.6030	 8.1970
 0.6040	 8.1510
 0.6050	 8.1020
 0.6060	 8.0460
 0.6070	 7.9810
 0.6080	 7.9160
 0.6090	 7.8490
 0.6100	 7.7790
 0.6110	 7.7100
 0.6120	 7.6410
 0.6130	 7.5700
 0.6140	 7.4980
 0.6150	 7.4270
 0.6160	 7.3590
 0.6170	 7.2950
 0.6180	 7.2360
 0.6190	 7.1840
 0.6200	 7.1380
 0.6210	 7.0960
 0.6220	 7.0580
 0.6230	 7.0240
 0.6240	 6.9960
 0.6250	 6.9740
 0.6260	 6.9550
 0.6270	 6.9390
 0.6280	 6.9230
 0.6290	 6.9090
 0.6300	 6.8980
 0.6310	 6.8880
 0.6320	 6.8760
 0.6330	 6.8560
 0.6340	 6.8310
 0.6350	 6.7980
 0.6360	 6.7570
 0.6370	 6.7110
 0.6380	 6.6580
 0.6390	 6.5980
 0.6400	 6.5340
 0.6410	 6.4680
 0.6420	 6.4010
 0.6430	 6.3330
 0.6440	 6.2640
 0.6450	 6.1980
 0.6460	 6.1340
 0.6470	 6.0720
 0.6480	 6.0170
 0.6490	 5.9680
 0.6500	 5.9250
 0.6510	 5.8890
 0.6520	 5.8590
 0.6530	 5.8320
 0.6540	 5.8070
 0.6550	 5.7800
 0.6560	 5.7490
 0.6570	 5.7150
 0.6580	 5.6780
 0.6590	 5.6410
 0.6600	 5.5990
 0.6610	 5.5550
 0.6620	 5.5180
 0.6630	 5.4810
 0.6640	 5.4470
 0.6650	 5.4170
 0.6660	 5.3930
 0.6670	 5.3730
 0.6680	 5.3560
 0.6690	 5.3450
 0.6700	 5.3390
 0.6710	 5.3370
 0.6720	 5.3390
 0.6730	 5.3450
 0.6740	 5.3550
 0.6750	 5.3700
 0.6760	 5.3890
 0.6770	 5.4090
 0.6780	 5.4340
 0.6790	 5.4640
 0.6800	 5.4960
 0.6810	 5.5360
 0.6820	 5.5820
 0.6830	 5.6340
 0.6840	 5.6980
 0.6850	 5.7720
 0.6860	 5.8610
 0.6870	 5.9680
 0.6880	 6.0990
 0.6890	 6.2630
 0.6900	 6.4680
 0.6910	 6.7170
 0.6920	 7.0220
 0.6930	 7.3830
 0.6940	 7.8040
 0.6950	 8.2910
 0.6960	 8.8440
 0.6970	 9.4570
 0.6980	10.1200
 0.6990	10.8320
 0.7000	11.5800
 0.7010	12.3540
 0.7020	13.1470
 0.7030	13.9500
 0.7040	14.7530
 0.7050	15.5490
 0.7060	16.3390
 0.7070	17.1190
 0.7080	17.8880
 0.7090	18.6470
 0.7100	19.3950
 0.7110	20.1350
 0.7120	20.8660
 0.7130	21.5900
 0.7140	22.3030
 0.7150	23.0090
 0.7160	23.7080
 0.7170	24.3980
 0.7180	25.0790
 0.7190	25.7510
 0.7200	26.4140
 0.7210	27.0650
 0.7220	27.7050
 0.7230	28.3320
 0.7240	28.9420
 0.7250	29.5360
 0.7260	30.1140
 0.7270	30.6760
 0.7280	31.2180
 0.7290	31.7410
 0.7300	32.2460
 0.7310	32.7330
 0.7320	33.1960
 0.7330	33.6370
 0.7340	34.0580
 0.7350	34.4600
 0.7360	34.8410
 0.7370	35.2010
 0.7380	35.5420
 0.7390	35.8640
 0.7400	36.1670
 0.7410	36.4520
 0.7420	36.7160
 0.7430	36.9620
 0.7440	37.1910
 0.7450	37.4050
 0.7460	37.5990
 0.7470	37.7790
 0.7480	37.9440
 0.7490	38.0950
 0.7500	38.2350
 0.7510	38.3610
 0.7520	38.4760
 0.7530	38.5810
 0.7540	38.6750
 0.7550	38.7610
 0.7560	38.8420
 0.7570	38.9160
 0.7580	38.9820
 0.7590	39.0390
 0.7600	39.0880
 0.7610	39.1350
 0.7620	39.1790
 0.7630	39.2190
 0.7640	39.2520
 0.7650	39.2820
 0.7660	39.3100
 0.7670	39.3340
 0.7680	39.3540
 0.7690	39.3730
 0.7700	39.3890
 0.7710	39.4010
 0.7720	39.4150
 0.7730	39.4260
 0.7740	39.4340
 0.7750	39.4410
 0.7760	39.4490
 0.7770	39.4560
 0.7780	39.4620
 0.7790	39.4680
 0.7800	39.4700
 0.7810	39.4740
 0.7820	39.4800
 0.7830	39.4810
 0.7840	39.4800
 0.7850	39.4800
 0.7860	39.4810
 0.7870	39.4810
 0.7880	39.4790
 0.7890	39.4770
 0.7900	39.4740
 0.7910	39.4690
 0.7920	39.4640
 0.7930	39.4580
 0.7940	39.4510
 0.7950	39.4430
 0.7960	39.4370
 0.7970	39.4300
 0.7980	39.4190
 0.7990	39.4060
 0.8000	39.3930
 0.8010	39.3810
 0.8020	39.3710
 0.8030	39.3570
 0.8040	39.3410
 0.8050	39.3300
 0.8060	39.3160
 0.8070	39.3010
 0.8080	39.2850
 0.8090	39.2690
 0.8100	39.2520
 0.8110	39.2350
 0.8120	39.2180
 0.8130	39.2010
 0.8140	39.1830
 0.8150	39.1650
 0.8160	39.1470
 0.8170	39.1300
 0.8180	39.1120
 0.8190	39.0940
 0.8200	39.0750
 0.8210	39.0600
 0.8220	39.0450
 0.8230	39.0280
 0.8240	39.0080
 0.8250	38.9900
 0.8260	38.9740
 0.8270	38.9570
 0.8280	38.9410
 0.8290	38.9260
 0.8300	38.9100
 0.8310	38.8930
 0.8320	38.8780
 0.8330	38.8620
 0.8340	38.8480
 0.8350	38.8390
 0.8360	38.8280
 0.8370	38.8160
 0.8380	38.8040
 0.8390	38.7920
 0.8400	38.7820
 0.8410	38.7730
 0.8420	38.7620
 0.8430	38.7560
 0.8440	38.7470
 0.8450	38.7370
 0.8460	38.7280
 0.8470	38.7230
 0.8480	38.7180
 0.8490	38.7120
 0.8500	38.7050
 0.8510	38.7050
 0.8520	38.7030
 0.8530	38.6980
 0.8540	38.6930
 0.8550	38.6870
 0.8560	38.6830
 0.8570	38.6840
 0.8580	38.6860
 0.8590	38.6840
 0.8600	38.6820
 0.8610	38.6830
 0.8620	38.6860
 0.8630	38.6870
 0.8640	38.6860
 0.8650	38.6870
 0.8660	38.6900
 0.8670	38.6910
 0.8680	38.6920
 0.8690	38.6940
 0.8700	38.6970
 0.8710	38.7020
 0.8720	38.7080
 0.8730	38.7120
 0.8740	38.7160
 0.8750	38.7200
 0.8760	38.7250
 0.8770	38.7330
 0.8780	38.7360
 0.8790	38.7390
 0.8800	38.7440
 0.8810	38.7540
 0.8820	38.7580
 0.8830	38.7610
 0.8840	38.7680
 0.8850	38.7770
 0.8860	38.7810
 0.8870	38.7830
 0.8880	38.7870
 0.8890	38.7940
 0.8900	38.8030
 0.8910	38.8110
 0.8920	38.8180
 0.8930	38.8210
 0.8940	38.8280
 0.8950	38.8360
 0.8960	38.8380
 0.8970	38.8410
 0.8980	38.8510
 0.8990	38.8620
 0.9000	38.8620
 0.9010	38.8590
 0.9020	38.8620
 0.9030	38.8710
 0.9040	38.8780
 0.9050	38.8860
 0.9060	38.8910
 0.9070	38.8930
 0.9080	38.8940
 0.9090	38.8960
 0.9100	38.8990
 0.9110	38.9010
 0.9120	38.8980
 0.9130	38.9030
 0.9140	38.9090
 0.9150	38.9070
 0.9160	38.9030
 0.9170	38.9060
 0.9180	38.9090
 0.9190	38.9060
 0.9200	38.9070
 0.9210	38.9070
 0.9220	38.9020
 0.9230	38.8960
 0.9240	38.8950
 0.9250	38.8940
 0.9260	38.8920
 0.9270	38.8870
 0.9280	38.8760
 0.9290	38.8640
 0.9300	38.8570
 0.9310	38.8540
 0.9320	38.8530
 0.9330	38.8450
 0.9340	38.8310
 0.9350	38.8210
 0.9360	38.8120
 0.9370	38.8060
 0.9380	38.8000
 0.9390	38.7840
 0.9400	38.7760
 0.9410	38.7660
 0.9420	38.7490
 0.9430	38.7370
 0.9440	38.7220
 0.9450	38.7110
 0.9460	38.7020
 0.9470	38.6830
 0.9480	38.6530
 0.9490	38.6310
 0.9500	38.6240
 0.9510	38.6040
 0.9520	38.5840
 0.9530	38.5620
 0.9540	38.5400
 0.9550	38.5240
 0.9560	38.5020
 0.9570	38.4780
 0.9580	38.4590
 0.9590	38.4390
 0.9600	38.4230
 0.9610	38.4050
 0.9620	38.3810
 0.9630	38.3660
 0.9640	38.3570
 0.9650	38.3420
 0.9660	38.3190
 0.9670	38.3110
 0.9680	38.2960
 0.9690	38.2770
 0.9700	38.2660
 0.9710	38.2690
 0.9720	38.2670
 0.9730	38.2520
 0.9740	38.2300
 0.9750	38.2350
 0.9760	38.2180
 0.9770	38.1910
 0.9780	38.1840
 0.9790	38.1840
 0.9800	38.1830
 0.9810	38.1720
 0.9820	38.1530
 0.9830	38.1480
 0.9840	38.1360
 0.9850	38.1250
 0.9860	38.1300
 0.9870	38.1240
 0.9880	38.1210
 0.9890	38.1170
 0.9900	38.1060
 0.9910	38.0940
 0.9920	38.0820
 0.9930	38.0740
 0.9940	38.0680
 0.9950	38.0580
 0.9960	38.0610
 0.9970	38.0660
 0.9980	38.0580
 0.9990	38.0500
 1.0000	38.0420
 1.0010	37.7660
 1.0020	37.7650
 1.0030	37.7610
 1.0040	37.7600
 1.0050	37.7610
 1.0060	37.7590
 1.0070	37.7570
 1.0080	37.7560
 1.0090	37.7530
 1.0100	37.7510
 1.0110	37.7500
 1.0120	37.7480
 1.0130	37.7460
 1.0140	37.7430
 1.0150	37.7400
 1.0160	37.7390
 1.0170	37.7360
 1.0180	37.7330
 1.0190	37.7300
 1.0200	37.7280
 1.0210	37.7270
 1.0220	37.7270
 1.0230	37.7270
 1.0240	37.7260
 1.0250	37.7260
 1.0260	37.7260
 1.0270	37.7250
 1.0280	37.7240
 1.0290	37.7230
 1.0300	37.7210
 1.0310	37.7200
 1.0320	37.7190
 1.0330	37.7170
 1.0340	37.7170
 1.0350	37.7180
 1.0360	37.7220
 1.0370	37.7240
 1.0380	37.7240
 1.0390	37.7230
 1.0400	37.7220
 1.0410	37.7160
 1.0420	37.7150
 1.0430	37.7180
 1.0440	37.7180
 1.0450	37.7200
 1.0460	37.7210
 1.0470	37.7240
 1.0480	37.7240
 1.0490	37.7230
 1.0500	37.7230
 1.0510	37.7210
 1.0520	37.7190
 1.0530	37.7190
 1.0540	37.7220
 1.0550	37.7230
 1.0560	37.7240
 1.0570	37.7250
 1.0580	37.7260
 1.0590	37.7260
 1.0600	37.7240
 1.0610	37.7230
 1.0620	37.7210
 1.0630	37.7210
 1.0640	37.7220
 1.0650	37.7230
 1.0660	37.7240
 1.0670	37.7240
 1.0680	37.7230
 1.0690	37.7220
 1.0700	37.7200
 1.0710	37.7150
 1.0720	37.7130
 1.0730	37.7120
 1.0740	37.7110
 1.0750	37.7140
 1.0760	37.7140
 1.0770	37.7130
 1.0780	37.7110
 1.0790	37.7060
 1.0800	37.7060
 1.0810	37.7090
 1.0820	37.7090
 1.0830	37.7140
 1.0840	37.7150
 1.0850	37.7130
 1.0860	37.7070
 1.0870	37.7060
 1.0880	37.7050
 1.0890	37.7060
 1.0900	37.7110
 1.0910	37.7100
 1.0920	37.7070
 1.0930	37.7050
 1.0940	37.7030
 1.0950	37.7000
 1.0960	37.7000
 1.0970	37.6980
 1.0980	37.6940
 1.0990	37.6930
 1.1000	37.6940
 1.1010	37.6920
 1.1020	37.6910
 1.1030	37.6890
 1.1040	37.6860
 1.1050	37.6850
 1.1060	37.6830
 1.1070	37.6810
 1.1080	37.6790
 1.1090	37.6750
 1.1100	37.6720
 1.1110	37.6700
 1.1120	37.6670
 1.1130	37.6660
 1.1140	37.6630
 1.1150	37.6590
 1.1160	37.6560
 1.1170	37.6520
 1.1180	37.6480
 1.1190	37.6450
 1.1200	37.6410
 1.1210	37.6350
 1.1220	37.6280
 1.1230	37.6190
 1.1240	37.6100
 1.1250	37.5980
 1.1260	37.5850
 1.1270	37.5720
 1.1280	37.5580
 1.1290	37.5430
 1.1300	37.5300
 1.1310	37.5140
 1.1320	37.4960
 1.1330	37.4760
 1.1340	37.4520
 1.1350	37.4290
 1.1360	37.4050
 1.1370	37.3790
 1.1380	37.3500
 1.1390	37.3210
 1.1400	37.2890
 1.1410	37.2580
 1.1420	37.2270
 1.1430	37.1930
 1.1440	37.1600
 1.1450	37.1260
 1.1460	37.0920
 1.1470	37.0580
 1.1480	37.0260
 1.1490	36.9940
 1.1500	36.9630
 1.1510	36.9350
 1.1520	36.9070
 1.1530	36.8810
 1.1540	36.8560
 1.1550	36.8330
 1.1560	36.8120
 1.1570	36.7930
 1.1580	36.7770
 1.1590	36.7620
 1.1600	36.7470
 1.1610	36.7340
 1.1620	36.7200
 1.1630	36.7100
 1.1640	36.7010
 1.1650	36.6920
 1.1660	36.6840
 1.1670	36.6760
 1.1680	36.6660
 1.1690	36.6570
 1.1700	36.6480
 1.1710	36.6410
 1.1720	36.6350
 1.1730	36.6290
 1.1740	36.6220
 1.1750	36.6160
 1.1760	36.6090
 1.1770	36.6010
 1.1780	36.5930
 1.1790	36.5870
 1.1800	36.5800
 1.1810	36.5730
 1.1820	36.5640
 1.1830	36.5550
 1.1840	36.5470
 1.1850	36.5390
 1.1860	36.5330
 1.1870	36.5270
 1.1880	36.5200
 1.1890	36.5110
 1.1900	36.5040
 1.1910	36.4960
 1.1920	36.4900
 1.1930	36.4840
 1.1940	36.4800
 1.1950	36.4760
 1.1960	36.4730
 1.1970	36.4700
 1.1980	36.4660
 1.1990	36.4610
 1.2000	36.4570
 1.2010	36.4540
 1.2020	36.4540
 1.2030	36.4530
 1.2040	36.4520
 1.2050	36.4510
 1.2060	36.4490
 1.2070	36.4480
 1.2080	36.4470
 1.2090	36.4460
 1.2100	36.4470
 1.2110	36.4470
 1.2120	36.4490
 1.2130	36.4500
 1.2140	36.4490
 1.2150	36.4510
 1.2160	36.4540
 1.2170	36.4560
 1.2180	36.4610
 1.2190	36.4640
 1.2200	36.4660
 1.2210	36.4700
 1.2220	36.4720
 1.2230	36.4760
 1.2240	36.4800
 1.2250	36.4820
 1.2260	36.4860
 1.2270	36.4910
 1.2280	36.4930
 1.2290	36.4960
 1.2300	36.4990
 1.2310	36.4980
 1.2320	36.5000
 1.2330	36.5020
 1.2340	36.5040
 1.2350	36.5050
 1.2360	36.5060
 1.2370	36.5090
 1.2380	36.5100
 1.2390	36.5110
 1.2400	36.5110
 1.2410	36.5110
 1.2420	36.5110
 1.2430	36.5130
 1.2440	36.5150
 1.2450	36.5170
 1.2460	36.5180
 1.2470	36.5190
 1.2480	36.5190
 1.2490	36.5200
 1.2500	36.5200
 1.2510	36.5200
 1.2520	36.5190
 1.2530	36.5180
 1.2540	36.5160
 1.2550	36.5140
 1.2560	36.5120
 1.2570	36.5100
 1.2580	36.5080
 1.2590	36.5060
 1.2600	36.5020
 1.2610	36.4990
 1.2620	36.4970
 1.2630	36.4950
 1.2640	36.4910
 1.2650	36.4870
 1.2660	36.4820
 1.2670	36.4740
 1.2680	36.4690
 1.2690	36.4640
 1.2700	36.4580
 1.2710	36.4540
 1.2720	36.4480
 1.2730	36.4410
 1.2740	36.4360
 1.2750	36.4280
 1.2760	36.4200
 1.2770	36.4130
 1.2780	36.4040
 1.2790	36.3980
 1.2800	36.3920
 1.2810	36.3860
 1.2820	36.3800
 1.2830	36.3710
 1.2840	36.3620
 1.2850	36.3520
 1.2860	36.3420
 1.2870	36.3330
 1.2880	36.3230
 1.2890	36.3130
 1.2900	36.3030
 1.2910	36.2930
 1.2920	36.2820
 1.2930	36.2720
 1.2940	36.2610
 1.2950	36.2500
 1.2960	36.2370
 1.2970	36.2230
 1.2980	36.2080
 1.2990	36.1920
 1.3000	36.1770
 1.3010	36.1610
 1.3020	36.1440
 1.3030	36.1260
 1.3040	36.1080
 1.3050	36.0900
 1.3060	36.0700
 1.3070	36.0520
 1.3080	36.0350
 1.3090	36.0160
 1.3100	35.9980
 1.3110	35.9770
 1.3120	35.9540
 1.3130	35.9300
 1.3140	35.9060
 1.3150	35.8820
 1.3160	35.8570
 1.3170	35.8310
 1.3180	35.8040
 1.3190	35.7770
 1.3200	35.7490
 1.3210	35.7220
 1.3220	35.6950
 1.3230	35.6650
 1.3240	35.6340
 1.3250	35.6020
 1.3260	35.5690
 1.3270	35.5350
 1.3280	35.5010
 1.3290	35.4660
 1.3300	35.4310
 1.3310	35.3970
 1.3320	35.3610
 1.3330	35.3250
 1.3340	35.2870
 1.3350	35.2490
 1.3360	35.2100
 1.3370	35.1700
 1.3380	35.1300
 1.3390	35.0900
 1.3400	35.0500
 1.3410	35.0100
 1.3420	34.9700
 1.3430	34.9300
 1.3440	34.8900
 1.3450	34.8500
 1.3460	34.8090
 1.3470	34.7680
 1.3480	34.7260
 1.3490	34.6840
 1.3500	34.6400
 1.3510	34.5970
 1.3520	34.5540
 1.3530	34.5100
 1.3540	34.4660
 1.3550	34.4210
 1.3560	34.3770
 1.3570	34.3310
 1.3580	34.2860
 1.3590	34.2420
 1.3600	34.1960
 1.3610	34.1500
 1.3620	34.1020
 1.3630	34.0530
 1.3640	34.0020
 1.3650	33.9490
 1.3660	33.8960
 1.3670	33.8400
 1.3680	33.7810
 1.3690	33.7190
 1.3700	33.6510
 1.3710	33.5800
 1.3720	33.5030
 1.3730	33.4190
 1.3740	33.3270
 1.3750	33.2260
 1.3760	33.1160
 1.3770	32.9980
 1.3780	32.8690
 1.3790	32.7300
 1.3800	32.5790
 1.3810	32.4170
 1.3820	32.2450
 1.3830	32.0660
 1.3840	31.8720
 1.3850	31.6680
 1.3860	31.4530
 1.3870	31.2240
 1.3880	30.9870
 1.3890	30.7400
 1.3900	30.4830
 1.3910	30.2190
 1.3920	29.9460
 1.3930	29.6640
 1.3940	29.3780
 1.3950	29.0840
 1.3960	28.7850
 1.3970	28.4870
 1.3980	28.1870
 1.3990	27.8920
 1.4000	27.5990
 1.4010	27.3070
 1.4020	27.0210
 1.4030	26.7390
 1.4040	26.4650
 1.4050	26.2020
 1.4060	25.9460
 1.4070	25.7040
 1.4080	25.4710
 1.4090	25.2480
 1.4100	25.0370
 1.4110	24.8360
 1.4120	24.6460
 1.4130	24.4670
 1.4140	24.2990
 1.4150	24.1430
 1.4160	23.9980
 1.4170	23.8630
 1.4180	23.7390
 1.4190	23.6220
 1.4200	23.5130
 1.4210	23.4130
 1.4220	23.3200
 1.4230	23.2370
 1.4240	23.1600
 1.4250	23.0890
 1.4260	23.0250
 1.4270	22.9660
 1.4280	22.9130
 1.4290	22.8660
 1.4300	22.8250
 1.4310	22.7880
 1.4320	22.7570
 1.4330	22.7290
 1.4340	22.7070
 1.4350	22.6880
 1.4360	22.6720
 1.4370	22.6590
 1.4380	22.6510
 1.4390	22.6450
 1.4400	22.6420
 1.4410	22.6430
 1.4420	22.6430
 1.4430	22.6460
 1.4440	22.6510
 1.4450	22.6580
 1.4460	22.6660
 1.4470	22.6760
 1.4480	22.6860
 1.4490	22.6980
 1.4500	22.7120
 1.4510	22.7260
 1.4520	22.7400
 1.4530	22.7550
 1.4540	22.7710
 1.4550	22.7890
 1.4560	22.8090
 1.4570	22.8300
 1.4580	22.8540
 1.4590	22.8810
 1.4600	22.9090
 1.4610	22.9410
 1.4620	22.9760
 1.4630	23.0130
 1.4640	23.0540
 1.4650	23.0990
 1.4660	23.1480
 1.4670	23.2000
 1.4680	23.2560
 1.4690	23.3150
 1.4700	23.3760
 1.4710	23.4400
 1.4720	23.5090
 1.4730	23.5800
 1.4740	23.6520
 1.4750	23.7270
 1.4760	23.8030
 1.4770	23.8790
