Name: Magnolia grandiflora
Type: vegetation
Class: Tree
Genus: Magnolia
Species: grandiflora
Sample No.: JPL115
Owner: JPL
Wavelength Range: VSWIR
Origin: 34.12721; -118.1134;; WGS84
Collection Date: 9/7/2016
Description: Samples were collected at the Huntington Garden in San Marino California as part of a JPL Subcontract studying HyTES imagery. Samples were taken to JPL and processed within 48 hours of collection. The same leaves were processed in the Nicolet and then measured using the ASD.
Measurement: Bidirectional reflectance
First Column: X
Second Column: Y
X Units: Wavelength (micrometer)
Y Units: Reflectance (percentage)
First X Value: 0.35
Last X Value: 2.5
Number of X Values: 2151
Additional Information: vegetation.tree.magnolia.grandiflora.vswir.jpl115.jpl.asd.ancillary.txt

 0.3500	 6.0450
 0.3510	 5.9790
 0.3520	 6.0510
 0.3530	 6.1060
 0.3540	 6.0160
 0.3550	 5.9500
 0.3560	 5.9030
 0.3570	 5.8760
 0.3580	 5.8650
 0.3590	 5.7960
 0.3600	 5.8180
 0.3610	 5.9260
 0.3620	 5.8680
 0.3630	 5.8320
 0.3640	 5.8400
 0.3650	 5.8530
 0.3660	 5.7730
 0.3670	 5.7700
 0.3680	 5.8300
 0.3690	 5.8210
 0.3700	 5.8000
 0.3710	 5.7520
 0.3720	 5.6970
 0.3730	 5.7440
 0.3740	 5.7890
 0.3750	 5.8050
 0.3760	 5.8020
 0.3770	 5.8240
 0.3780	 5.8200
 0.3790	 5.7770
 0.3800	 5.7160
 0.3810	 5.6940
 0.3820	 5.7260
 0.3830	 5.7760
 0.3840	 5.7000
 0.3850	 5.6850
 0.3860	 5.7180
 0.3870	 5.7170
 0.3880	 5.6960
 0.3890	 5.6960
 0.3900	 5.7140
 0.3910	 5.6940
 0.3920	 5.6680
 0.3930	 5.6500
 0.3940	 5.6490
 0.3950	 5.6660
 0.3960	 5.6560
 0.3970	 5.6310
 0.3980	 5.6300
 0.3990	 5.6570
 0.4000	 5.6790
 0.4010	 5.6820
 0.4020	 5.6770
 0.4030	 5.6750
 0.4040	 5.6710
 0.4050	 5.6570
 0.4060	 5.6530
 0.4070	 5.6520
 0.4080	 5.6510
 0.4090	 5.6560
 0.4100	 5.6690
 0.4110	 5.6800
 0.4120	 5.6780
 0.4130	 5.6630
 0.4140	 5.6740
 0.4150	 5.6950
 0.4160	 5.6940
 0.4170	 5.6980
 0.4180	 5.7000
 0.4190	 5.7060
 0.4200	 5.7260
 0.4210	 5.7320
 0.4220	 5.7430
 0.4230	 5.7670
 0.4240	 5.7720
 0.4250	 5.7830
 0.4260	 5.7970
 0.4270	 5.8030
 0.4280	 5.8160
 0.4290	 5.8330
 0.4300	 5.8510
 0.4310	 5.8750
 0.4320	 5.9070
 0.4330	 5.9360
 0.4340	 5.9550
 0.4350	 5.9750
 0.4360	 5.9840
 0.4370	 5.9840
 0.4380	 5.9860
 0.4390	 5.9780
 0.4400	 5.9700
 0.4410	 5.9720
 0.4420	 5.9810
 0.4430	 5.9950
 0.4440	 6.0030
 0.4450	 5.9930
 0.4460	 5.9950
 0.4470	 5.9980
 0.4480	 6.0030
 0.4490	 6.0230
 0.4500	 6.0310
 0.4510	 6.0300
 0.4520	 6.0330
 0.4530	 6.0400
 0.4540	 6.0400
 0.4550	 6.0380
 0.4560	 6.0470
 0.4570	 6.0470
 0.4580	 6.0470
 0.4590	 6.0530
 0.4600	 6.0540
 0.4610	 6.0530
 0.4620	 6.0520
 0.4630	 6.0540
 0.4640	 6.0560
 0.4650	 6.0610
 0.4660	 6.0680
 0.4670	 6.0650
 0.4680	 6.0690
 0.4690	 6.0750
 0.4700	 6.0760
 0.4710	 6.0720
 0.4720	 6.0720
 0.4730	 6.0760
 0.4740	 6.0760
 0.4750	 6.0730
 0.4760	 6.0760
 0.4770	 6.0840
 0.4780	 6.0810
 0.4790	 6.0860
 0.4800	 6.0950
 0.4810	 6.0990
 0.4820	 6.0970
 0.4830	 6.1030
 0.4840	 6.1180
 0.4850	 6.1270
 0.4860	 6.1360
 0.4870	 6.1480
 0.4880	 6.1600
 0.4890	 6.1580
 0.4900	 6.1630
 0.4910	 6.1710
 0.4920	 6.1700
 0.4930	 6.1750
 0.4940	 6.1810
 0.4950	 6.1860
 0.4960	 6.2000
 0.4970	 6.2130
 0.4980	 6.2230
 0.4990	 6.2330
 0.5000	 6.2460
 0.5010	 6.2670
 0.5020	 6.2940
 0.5030	 6.3200
 0.5040	 6.3530
 0.5050	 6.3880
 0.5060	 6.4230
 0.5070	 6.4650
 0.5080	 6.5140
 0.5090	 6.5670
 0.5100	 6.6220
 0.5110	 6.6850
 0.5120	 6.7520
 0.5130	 6.8250
 0.5140	 6.9110
 0.5150	 7.0040
 0.5160	 7.1010
 0.5170	 7.2030
 0.5180	 7.3130
 0.5190	 7.4280
 0.5200	 7.5480
 0.5210	 7.6760
 0.5220	 7.8060
 0.5230	 7.9370
 0.5240	 8.0690
 0.5250	 8.1980
 0.5260	 8.3250
 0.5270	 8.4490
 0.5280	 8.5680
 0.5290	 8.6760
 0.5300	 8.7770
 0.5310	 8.8740
 0.5320	 8.9620
 0.5330	 9.0420
 0.5340	 9.1130
 0.5350	 9.1780
 0.5360	 9.2380
 0.5370	 9.2940
 0.5380	 9.3470
 0.5390	 9.3990
 0.5400	 9.4580
 0.5410	 9.5290
 0.5420	 9.6040
 0.5430	 9.6590
 0.5440	 9.6920
 0.5450	 9.7030
 0.5460	 9.6970
 0.5470	 9.6750
 0.5480	 9.6610
 0.5490	 9.6650
 0.5500	 9.6760
 0.5510	 9.6860
 0.5520	 9.6900
 0.5530	 9.6860
 0.5540	 9.6710
 0.5550	 9.6500
 0.5560	 9.6230
 0.5570	 9.5850
 0.5580	 9.5410
 0.5590	 9.4890
 0.5600	 9.4270
 0.5610	 9.3530
 0.5620	 9.2700
 0.5630	 9.1820
 0.5640	 9.0920
 0.5650	 9.0020
 0.5660	 8.9130
 0.5670	 8.8280
 0.5680	 8.7460
 0.5690	 8.6630
 0.5700	 8.5840
 0.5710	 8.5110
 0.5720	 8.4300
 0.5730	 8.3480
 0.5740	 8.2700
 0.5750	 8.1960
 0.5760	 8.1330
 0.5770	 8.0770
 0.5780	 8.0240
 0.5790	 7.9730
 0.5800	 7.9220
 0.5810	 7.8720
 0.5820	 7.8300
 0.5830	 7.8000
 0.5840	 7.7830
 0.5850	 7.7700
 0.5860	 7.7540
 0.5870	 7.7330
 0.5880	 7.7030
 0.5890	 7.6610
 0.5900	 7.6230
 0.5910	 7.5880
 0.5920	 7.5570
 0.5930	 7.5290
 0.5940	 7.4980
 0.5950	 7.4730
 0.5960	 7.4580
 0.5970	 7.4510
 0.5980	 7.4470
 0.5990	 7.4410
 0.6000	 7.4340
 0.6010	 7.4160
 0.6020	 7.3970
 0.6030	 7.3780
 0.6040	 7.3570
 0.6050	 7.3320
 0.6060	 7.3050
 0.6070	 7.2790
 0.6080	 7.2480
 0.6090	 7.2280
 0.6100	 7.2250
 0.6110	 7.2330
 0.6120	 7.2000
 0.6130	 7.1430
 0.6140	 7.0840
 0.6150	 7.0480
 0.6160	 7.0130
 0.6170	 6.9820
 0.6180	 6.9570
 0.6190	 6.9370
 0.6200	 6.9200
 0.6210	 6.9030
 0.6220	 6.8850
 0.6230	 6.8690
 0.6240	 6.8560
 0.6250	 6.8460
 0.6260	 6.8390
 0.6270	 6.8350
 0.6280	 6.8320
 0.6290	 6.8280
 0.6300	 6.8270
 0.6310	 6.8250
 0.6320	 6.8180
 0.6330	 6.8040
 0.6340	 6.7940
 0.6350	 6.7810
 0.6360	 6.7620
 0.6370	 6.7430
 0.6380	 6.7230
 0.6390	 6.7030
 0.6400	 6.6830
 0.6410	 6.6560
 0.6420	 6.6280
 0.6430	 6.6040
 0.6440	 6.5820
 0.6450	 6.5560
 0.6460	 6.5310
 0.6470	 6.5120
 0.6480	 6.4940
 0.6490	 6.4770
 0.6500	 6.4630
 0.6510	 6.4540
 0.6520	 6.4440
 0.6530	 6.4350
 0.6540	 6.4270
 0.6550	 6.4180
 0.6560	 6.4070
 0.6570	 6.3940
 0.6580	 6.3790
 0.6590	 6.3660
 0.6600	 6.3520
 0.6610	 6.3380
 0.6620	 6.3250
 0.6630	 6.3110
 0.6640	 6.2970
 0.6650	 6.2840
 0.6660	 6.2760
 0.6670	 6.2710
 0.6680	 6.2680
 0.6690	 6.2650
 0.6700	 6.2640
 0.6710	 6.2670
 0.6720	 6.2730
 0.6730	 6.2790
 0.6740	 6.2870
 0.6750	 6.2980
 0.6760	 6.3110
 0.6770	 6.3250
 0.6780	 6.3400
 0.6790	 6.3570
 0.6800	 6.3780
 0.6810	 6.4020
 0.6820	 6.4280
 0.6830	 6.4580
 0.6840	 6.4930
 0.6850	 6.5350
 0.6860	 6.5850
 0.6870	 6.6410
 0.6880	 6.7020
 0.6890	 6.7770
 0.6900	 6.8710
 0.6910	 6.9880
 0.6920	 7.1300
 0.6930	 7.3020
 0.6940	 7.5120
 0.6950	 7.7670
 0.6960	 8.0620
 0.6970	 8.4020
 0.6980	 8.7970
 0.6990	 9.2460
 0.7000	 9.7430
 0.7010	10.2880
 0.7020	10.8790
 0.7030	11.5100
 0.7040	12.1740
 0.7050	12.8700
 0.7060	13.5960
 0.7070	14.3460
 0.7080	15.1180
 0.7090	15.9120
 0.7100	16.7240
 0.7110	17.5600
 0.7120	18.4190
 0.7130	19.2940
 0.7140	20.1840
 0.7150	21.0930
 0.7160	22.0180
 0.7170	22.9590
 0.7180	23.9120
 0.7190	24.8750
 0.7200	25.8480
 0.7210	26.8220
 0.7220	27.7980
 0.7230	28.7750
 0.7240	29.7470
 0.7250	30.7080
 0.7260	31.6550
 0.7270	32.5880
 0.7280	33.4980
 0.7290	34.3870
 0.7300	35.2520
 0.7310	36.0920
 0.7320	36.9030
 0.7330	37.6870
 0.7340	38.4410
 0.7350	39.1640
 0.7360	39.8570
 0.7370	40.5170
 0.7380	41.1450
 0.7390	41.7410
 0.7400	42.3070
 0.7410	42.8430
 0.7420	43.3480
 0.7430	43.8200
 0.7440	44.2590
 0.7450	44.6680
 0.7460	45.0540
 0.7470	45.4110
 0.7480	45.7420
 0.7490	46.0480
 0.7500	46.3280
 0.7510	46.5870
 0.7520	46.8280
 0.7530	47.0500
 0.7540	47.2560
 0.7550	47.4380
 0.7560	47.6010
 0.7570	47.7520
 0.7580	47.8880
 0.7590	48.0140
 0.7600	48.1310
 0.7610	48.2410
 0.7620	48.3350
 0.7630	48.4180
 0.7640	48.4970
 0.7650	48.5720
 0.7660	48.6390
 0.7670	48.6950
 0.7680	48.7450
 0.7690	48.7920
 0.7700	48.8330
 0.7710	48.8680
 0.7720	48.9020
 0.7730	48.9360
 0.7740	48.9670
 0.7750	48.9920
 0.7760	49.0210
 0.7770	49.0490
 0.7780	49.0710
 0.7790	49.0880
 0.7800	49.1090
 0.7810	49.1280
 0.7820	49.1440
 0.7830	49.1570
 0.7840	49.1700
 0.7850	49.1860
 0.7860	49.2030
 0.7870	49.2150
 0.7880	49.2230
 0.7890	49.2300
 0.7900	49.2400
 0.7910	49.2530
 0.7920	49.2650
 0.7930	49.2740
 0.7940	49.2820
 0.7950	49.2920
 0.7960	49.3000
 0.7970	49.3040
 0.7980	49.3080
 0.7990	49.3140
 0.8000	49.3170
 0.8010	49.3190
 0.8020	49.3260
 0.8030	49.3320
 0.8040	49.3360
 0.8050	49.3450
 0.8060	49.3520
 0.8070	49.3580
 0.8080	49.3600
 0.8090	49.3630
 0.8100	49.3630
 0.8110	49.3680
 0.8120	49.3780
 0.8130	49.3800
 0.8140	49.3790
 0.8150	49.3770
 0.8160	49.3800
 0.8170	49.3900
 0.8180	49.3990
 0.8190	49.4040
 0.8200	49.4070
 0.8210	49.4120
 0.8220	49.4150
 0.8230	49.4170
 0.8240	49.4190
 0.8250	49.4270
 0.8260	49.4350
 0.8270	49.4380
 0.8280	49.4430
 0.8290	49.4440
 0.8300	49.4440
 0.8310	49.4480
 0.8320	49.4550
 0.8330	49.4610
 0.8340	49.4650
 0.8350	49.4700
 0.8360	49.4770
 0.8370	49.4830
 0.8380	49.4900
 0.8390	49.5010
 0.8400	49.5090
 0.8410	49.5200
 0.8420	49.5360
 0.8430	49.5470
 0.8440	49.5580
 0.8450	49.5690
 0.8460	49.5810
 0.8470	49.5940
 0.8480	49.6040
 0.8490	49.6150
 0.8500	49.6290
 0.8510	49.6370
 0.8520	49.6470
 0.8530	49.6560
 0.8540	49.6600
 0.8550	49.6690
 0.8560	49.6820
 0.8570	49.6930
 0.8580	49.6980
 0.8590	49.7150
 0.8600	49.7320
 0.8610	49.7420
 0.8620	49.7500
 0.8630	49.7640
 0.8640	49.7750
 0.8650	49.7790
 0.8660	49.7830
 0.8670	49.7900
 0.8680	49.7980
 0.8690	49.8060
 0.8700	49.8130
 0.8710	49.8180
 0.8720	49.8230
 0.8730	49.8320
 0.8740	49.8410
 0.8750	49.8480
 0.8760	49.8540
 0.8770	49.8640
 0.8780	49.8700
 0.8790	49.8730
 0.8800	49.8760
 0.8810	49.8890
 0.8820	49.8910
 0.8830	49.8920
 0.8840	49.9010
 0.8850	49.8990
 0.8860	49.8960
 0.8870	49.8970
 0.8880	49.9050
 0.8890	49.9070
 0.8900	49.9110
 0.8910	49.9140
 0.8920	49.9120
 0.8930	49.9160
 0.8940	49.9180
 0.8950	49.9170
 0.8960	49.9160
 0.8970	49.9250
 0.8980	49.9300
 0.8990	49.9260
 0.9000	49.9210
 0.9010	49.9210
 0.9020	49.9230
 0.9030	49.9250
 0.9040	49.9300
 0.9050	49.9220
 0.9060	49.9170
 0.9070	49.9210
 0.9080	49.9240
 0.9090	49.9160
 0.9100	49.9100
 0.9110	49.9130
 0.9120	49.9060
 0.9130	49.8980
 0.9140	49.8920
 0.9150	49.8900
 0.9160	49.8880
 0.9170	49.8820
 0.9180	49.8730
 0.9190	49.8650
 0.9200	49.8590
 0.9210	49.8480
 0.9220	49.8390
 0.9230	49.8340
 0.9240	49.8130
 0.9250	49.7970
 0.9260	49.7840
 0.9270	49.7610
 0.9280	49.7360
 0.9290	49.7090
 0.9300	49.6850
 0.9310	49.6720
 0.9320	49.6390
 0.9330	49.6090
 0.9340	49.5850
 0.9350	49.5460
 0.9360	49.5070
 0.9370	49.4680
 0.9380	49.4280
 0.9390	49.3900
 0.9400	49.3530
 0.9410	49.3130
 0.9420	49.2660
 0.9430	49.2200
 0.9440	49.1710
 0.9450	49.1200
 0.9460	49.0630
 0.9470	48.9920
 0.9480	48.9230
 0.9490	48.8540
 0.9500	48.7800
 0.9510	48.7010
 0.9520	48.6080
 0.9530	48.5140
 0.9540	48.4320
 0.9550	48.3460
 0.9560	48.2710
 0.9570	48.1950
 0.9580	48.1110
 0.9590	48.0420
 0.9600	47.9880
 0.9610	47.9390
 0.9620	47.8820
 0.9630	47.8250
 0.9640	47.7920
 0.9650	47.7700
 0.9660	47.7340
 0.9670	47.7050
 0.9680	47.6810
 0.9690	47.6610
 0.9700	47.6420
 0.9710	47.6250
 0.9720	47.6140
 0.9730	47.6100
 0.9740	47.6100
 0.9750	47.5890
 0.9760	47.5850
 0.9770	47.5990
 0.9780	47.6100
 0.9790	47.6060
 0.9800	47.6170
 0.9810	47.6300
 0.9820	47.6260
 0.9830	47.6470
 0.9840	47.6620
 0.9850	47.6790
 0.9860	47.7140
 0.9870	47.7410
 0.9880	47.7600
 0.9890	47.7730
 0.9900	47.7900
 0.9910	47.8310
 0.9920	47.8630
 0.9930	47.8870
 0.9940	47.9190
 0.9950	47.9290
 0.9960	47.9570
 0.9970	48.0020
 0.9980	48.0400
 0.9990	48.0510
 1.0000	48.0950
 1.0010	48.2600
 1.0020	48.2930
 1.0030	48.3290
 1.0040	48.3670
 1.0050	48.4070
 1.0060	48.4480
 1.0070	48.4850
 1.0080	48.5220
 1.0090	48.5570
 1.0100	48.5920
 1.0110	48.6270
 1.0120	48.6630
 1.0130	48.7010
 1.0140	48.7370
 1.0150	48.7720
 1.0160	48.8050
 1.0170	48.8390
 1.0180	48.8680
 1.0190	48.8990
 1.0200	48.9340
 1.0210	48.9670
 1.0220	49.0020
 1.0230	49.0370
 1.0240	49.0730
 1.0250	49.1070
 1.0260	49.1390
 1.0270	49.1710
 1.0280	49.2020
 1.0290	49.2330
 1.0300	49.2670
 1.0310	49.2990
 1.0320	49.3290
 1.0330	49.3610
 1.0340	49.3920
 1.0350	49.4180
 1.0360	49.4440
 1.0370	49.4680
 1.0380	49.4920
 1.0390	49.5150
 1.0400	49.5370
 1.0410	49.5570
 1.0420	49.5770
 1.0430	49.5970
 1.0440	49.6180
 1.0450	49.6400
 1.0460	49.6600
 1.0470	49.6830
 1.0480	49.7020
 1.0490	49.7190
 1.0500	49.7360
 1.0510	49.7520
 1.0520	49.7670
 1.0530	49.7800
 1.0540	49.7910
 1.0550	49.8040
 1.0560	49.8170
 1.0570	49.8300
 1.0580	49.8480
 1.0590	49.8600
 1.0600	49.8670
 1.0610	49.8740
 1.0620	49.8770
 1.0630	49.8830
 1.0640	49.8930
 1.0650	49.9000
 1.0660	49.9090
 1.0670	49.9150
 1.0680	49.9200
 1.0690	49.9200
 1.0700	49.9240
 1.0710	49.9270
 1.0720	49.9290
 1.0730	49.9300
 1.0740	49.9300
 1.0750	49.9260
 1.0760	49.9260
 1.0770	49.9290
 1.0780	49.9290
 1.0790	49.9300
 1.0800	49.9300
 1.0810	49.9290
 1.0820	49.9240
 1.0830	49.9160
 1.0840	49.9100
 1.0850	49.9020
 1.0860	49.8940
 1.0870	49.8870
 1.0880	49.8830
 1.0890	49.8740
 1.0900	49.8630
 1.0910	49.8530
 1.0920	49.8440
 1.0930	49.8320
 1.0940	49.8220
 1.0950	49.8090
 1.0960	49.7940
 1.0970	49.7790
 1.0980	49.7650
 1.0990	49.7490
 1.1000	49.7340
 1.1010	49.7180
 1.1020	49.7010
 1.1030	49.6840
 1.1040	49.6700
 1.1050	49.6520
 1.1060	49.6320
 1.1070	49.6100
 1.1080	49.5880
 1.1090	49.5610
 1.1100	49.5400
 1.1110	49.5210
 1.1120	49.4990
 1.1130	49.4780
 1.1140	49.4550
 1.1150	49.4320
 1.1160	49.4030
 1.1170	49.3730
 1.1180	49.3390
 1.1190	49.3000
 1.1200	49.2570
 1.1210	49.2130
 1.1220	49.1660
 1.1230	49.1120
 1.1240	49.0540
 1.1250	48.9870
 1.1260	48.9160
 1.1270	48.8340
 1.1280	48.7440
 1.1290	48.6430
 1.1300	48.5340
 1.1310	48.4110
 1.1320	48.2780
 1.1330	48.1360
 1.1340	47.9820
 1.1350	47.8190
 1.1360	47.6490
 1.1370	47.4680
 1.1380	47.2780
 1.1390	47.0820
 1.1400	46.8760
 1.1410	46.6690
 1.1420	46.4590
 1.1430	46.2450
 1.1440	46.0350
 1.1450	45.8220
 1.1460	45.6170
 1.1470	45.4120
 1.1480	45.2180
 1.1490	45.0290
 1.1500	44.8520
 1.1510	44.6840
 1.1520	44.5270
 1.1530	44.3800
 1.1540	44.2440
 1.1550	44.1190
 1.1560	44.0050
 1.1570	43.9010
 1.1580	43.8080
 1.1590	43.7250
 1.1600	43.6470
 1.1610	43.5790
 1.1620	43.5190
 1.1630	43.4640
 1.1640	43.4170
 1.1650	43.3740
 1.1660	43.3370
 1.1670	43.3010
 1.1680	43.2680
 1.1690	43.2380
 1.1700	43.2130
 1.1710	43.1860
 1.1720	43.1620
 1.1730	43.1380
 1.1740	43.1160
 1.1750	43.0930
 1.1760	43.0710
 1.1770	43.0490
 1.1780	43.0230
 1.1790	42.9960
 1.1800	42.9700
 1.1810	42.9430
 1.1820	42.9160
 1.1830	42.8910
 1.1840	42.8650
 1.1850	42.8400
 1.1860	42.8170
 1.1870	42.7940
 1.1880	42.7730
 1.1890	42.7530
 1.1900	42.7360
 1.1910	42.7190
 1.1920	42.7050
 1.1930	42.6940
 1.1940	42.6840
 1.1950	42.6770
 1.1960	42.6740
 1.1970	42.6730
 1.1980	42.6740
 1.1990	42.6770
 1.2000	42.6840
 1.2010	42.6930
 1.2020	42.7040
 1.2030	42.7180
 1.2040	42.7350
 1.2050	42.7530
 1.2060	42.7750
 1.2070	42.8000
 1.2080	42.8270
 1.2090	42.8560
 1.2100	42.8860
 1.2110	42.9170
 1.2120	42.9480
 1.2130	42.9810
 1.2140	43.0150
 1.2150	43.0520
 1.2160	43.0910
 1.2170	43.1290
 1.2180	43.1690
 1.2190	43.2090
 1.2200	43.2480
 1.2210	43.2890
 1.2220	43.3330
 1.2230	43.3760
 1.2240	43.4190
 1.2250	43.4610
 1.2260	43.5020
 1.2270	43.5430
 1.2280	43.5820
 1.2290	43.6220
 1.2300	43.6620
 1.2310	43.6990
 1.2320	43.7370
 1.2330	43.7750
 1.2340	43.8110
 1.2350	43.8460
 1.2360	43.8800
 1.2370	43.9130
 1.2380	43.9460
 1.2390	43.9770
 1.2400	44.0080
 1.2410	44.0390
 1.2420	44.0680
 1.2430	44.0940
 1.2440	44.1210
 1.2450	44.1490
 1.2460	44.1760
 1.2470	44.2030
 1.2480	44.2290
 1.2490	44.2520
 1.2500	44.2740
 1.2510	44.2960
 1.2520	44.3180
 1.2530	44.3380
 1.2540	44.3580
 1.2550	44.3750
 1.2560	44.3900
 1.2570	44.4040
 1.2580	44.4160
 1.2590	44.4270
 1.2600	44.4370
 1.2610	44.4460
 1.2620	44.4530
 1.2630	44.4580
 1.2640	44.4610
 1.2650	44.4640
 1.2660	44.4640
 1.2670	44.4650
 1.2680	44.4660
 1.2690	44.4640
 1.2700	44.4610
 1.2710	44.4560
 1.2720	44.4470
 1.2730	44.4370
 1.2740	44.4280
 1.2750	44.4160
 1.2760	44.4020
 1.2770	44.3860
 1.2780	44.3670
 1.2790	44.3460
 1.2800	44.3240
 1.2810	44.3030
 1.2820	44.2780
 1.2830	44.2510
 1.2840	44.2210
 1.2850	44.1860
 1.2860	44.1500
 1.2870	44.1120
 1.2880	44.0740
 1.2890	44.0320
 1.2900	43.9870
 1.2910	43.9390
 1.2920	43.8890
 1.2930	43.8350
 1.2940	43.7800
 1.2950	43.7210
 1.2960	43.6590
 1.2970	43.5960
 1.2980	43.5310
 1.2990	43.4620
 1.3000	43.3900
 1.3010	43.3130
 1.3020	43.2310
 1.3030	43.1460
 1.3040	43.0580
 1.3050	42.9690
 1.3060	42.8770
 1.3070	42.7790
 1.3080	42.6770
 1.3090	42.5710
 1.3100	42.4590
 1.3110	42.3450
 1.3120	42.2270
 1.3130	42.1050
 1.3140	41.9770
 1.3150	41.8450
 1.3160	41.7090
 1.3170	41.5700
 1.3180	41.4250
 1.3190	41.2770
 1.3200	41.1230
 1.3210	40.9640
 1.3220	40.8030
 1.3230	40.6380
 1.3240	40.4690
 1.3250	40.2980
 1.3260	40.1220
 1.3270	39.9430
 1.3280	39.7610
 1.3290	39.5750
 1.3300	39.3870
 1.3310	39.1970
 1.3320	39.0040
 1.3330	38.8110
 1.3340	38.6170
 1.3350	38.4200
 1.3360	38.2240
 1.3370	38.0270
 1.3380	37.8300
 1.3390	37.6370
 1.3400	37.4410
 1.3410	37.2500
 1.3420	37.0620
 1.3430	36.8710
 1.3440	36.6840
 1.3450	36.4990
 1.3460	36.3140
 1.3470	36.1340
 1.3480	35.9570
 1.3490	35.7830
 1.3500	35.6120
 1.3510	35.4410
 1.3520	35.2710
 1.3530	35.1030
 1.3540	34.9330
 1.3550	34.7630
 1.3560	34.5950
 1.3570	34.4240
 1.3580	34.2530
 1.3590	34.0790
 1.3600	33.9000
 1.3610	33.7170
 1.3620	33.5270
 1.3630	33.3310
 1.3640	33.1290
 1.3650	32.9170
 1.3660	32.6970
 1.3670	32.4660
 1.3680	32.2220
 1.3690	31.9660
 1.3700	31.6940
 1.3710	31.4070
 1.3720	31.1060
 1.3730	30.7840
 1.3740	30.4470
 1.3750	30.0890
 1.3760	29.7060
 1.3770	29.3000
 1.3780	28.8670
 1.3790	28.4100
 1.3800	27.9280
 1.3810	27.4160
 1.3820	26.8870
 1.3830	26.3360
 1.3840	25.7680
 1.3850	25.1790
 1.3860	24.5830
 1.3870	23.9660
 1.3880	23.3540
 1.3890	22.7340
 1.3900	22.1120
 1.3910	21.4980
 1.3920	20.8860
 1.3930	20.2780
 1.3940	19.6820
 1.3950	19.0920
 1.3960	18.5180
 1.3970	17.9650
 1.3980	17.4310
 1.3990	16.9260
 1.4000	16.4420
 1.4010	15.9780
 1.4020	15.5420
 1.4030	15.1260
 1.4040	14.7360
 1.4050	14.3730
 1.4060	14.0320
 1.4070	13.7160
 1.4080	13.4220
 1.4090	13.1480
 1.4100	12.8950
 1.4110	12.6610
 1.4120	12.4450
 1.4130	12.2460
 1.4140	12.0620
 1.4150	11.8950
 1.4160	11.7410
 1.4170	11.5980
 1.4180	11.4680
 1.4190	11.3460
 1.4200	11.2350
 1.4210	11.1330
 1.4220	11.0400
 1.4230	10.9550
 1.4240	10.8770
 1.4250	10.8040
 1.4260	10.7390
 1.4270	10.6780
 1.4280	10.6240
 1.4290	10.5740
 1.4300	10.5310
 1.4310	10.4910
 1.4320	10.4560
 1.4330	10.4230
 1.4340	10.3940
 1.4350	10.3690
 1.4360	10.3470
 1.4370	10.3280
 1.4380	10.3130
 1.4390	10.3010
 1.4400	10.2910
 1.4410	10.2820
 1.4420	10.2760
 1.4430	10.2710
 1.4440	10.2680
 1.4450	10.2660
 1.4460	10.2670
 1.4470	10.2690
 1.4480	10.2730
 1.4490	10.2780
 1.4500	10.2830
 1.4510	10.2900
 1.4520	10.2980
 1.4530	10.3080
 1.4540	10.3190
 1.4550	10.3310
 1.4560	10.3460
 1.4570	10.3620
 1.4580	10.3810
 1.4590	10.4020
 1.4600	10.4270
 1.4610	10.4530
 1.4620	10.4820
 1.4630	10.5150
 1.4640	10.5500
 1.4650	10.5890
 1.4660	10.6310
 1.4670	10.6760
 1.4680	10.7250
 1.4690	10.7770
 1.4700	10.8320
 1.4710	10.8910
 1.4720	10.9520
 1.4730	11.0160
 1.4740	11.0840
 1.4750	11.1540
 1.4760	11.2270
 1.4770	11.3020
