Name: Fagus grandifolia
Type: Vegetation
Class: Tree
Genus: Fagus
Species: grandifolia
Sample No.: FAGR-2-45
Owner: UCSB
Wavelength Range: TIR
Origin: USA; Massachusetts; Harvard Forest
Collection Date: 7/8/2013
Description: Samples were collected as part of NSF Macrosystem Biology proposal titled: Collaborative Research: Thermal controls on ecosystem metabolism and function: scaling from leaves to canopies to regions. Samples were collected and overnighted to JPL facilities for processing. The same leaves were processed in the Nicolet and then measured using the ASD.
Measurement: Hemispherical reflectance
First Column: X
Second Column: Y
X Units: Wavelength (micrometers)
Y Units: Reflectance (percentage)
First X Value: 2.501
Last X Value: 15.387
Number of X Values: 1737
Additional Information: vegetation.tree.fagus.grandifolia.tir.fagr-2-45.ucsb.nicolet.ancillary.txt

 2.5010	19.0380
 2.5030	18.8500
 2.5040	18.6740
 2.5050	18.6940
 2.5060	18.8730
 2.5070	18.8140
 2.5090	18.9660
 2.5100	18.9490
 2.5110	18.7790
 2.5120	18.7850
 2.5140	18.7360
 2.5150	18.3220
 2.5160	18.3820
 2.5170	18.4370
 2.5180	18.3290
 2.5200	18.3410
 2.5210	18.3160
 2.5220	17.9380
 2.5230	18.0880
 2.5250	18.1910
 2.5260	18.1660
 2.5270	18.2310
 2.5280	18.3030
 2.5290	18.3770
 2.5310	18.2210
 2.5320	18.2260
 2.5330	18.2990
 2.5340	18.2260
 2.5360	18.2610
 2.5370	18.2320
 2.5380	18.2680
 2.5390	18.3190
 2.5410	18.4230
 2.5420	18.3680
 2.5430	18.2700
 2.5440	18.2150
 2.5460	18.2150
 2.5470	18.1540
 2.5480	18.3050
 2.5490	18.4570
 2.5510	18.3960
 2.5520	18.3430
 2.5530	18.3550
 2.5540	18.3930
 2.5560	18.5930
 2.5570	18.4060
 2.5580	18.2980
 2.5590	18.4650
 2.5610	18.5810
 2.5620	18.6320
 2.5630	18.6880
 2.5640	18.4690
 2.5660	18.4170
 2.5670	18.5960
 2.5680	18.7080
 2.5700	18.4740
 2.5710	18.2930
 2.5720	18.3500
 2.5730	18.4540
 2.5750	18.4460
 2.5760	18.4210
 2.5770	18.4550
 2.5790	18.5700
 2.5800	18.2960
 2.5810	18.0940
 2.5820	18.1420
 2.5840	18.4130
 2.5850	18.4940
 2.5860	18.3170
 2.5880	18.2240
 2.5890	18.2550
 2.5900	18.0980
 2.5910	17.9600
 2.5930	17.9000
 2.5940	17.8700
 2.5950	17.7670
 2.5970	17.7900
 2.5980	17.7500
 2.5990	17.8990
 2.6000	17.7110
 2.6020	17.3720
 2.6030	17.2670
 2.6040	17.2620
 2.6060	17.0530
 2.6070	17.0040
 2.6080	16.8150
 2.6100	16.5470
 2.6110	16.3420
 2.6120	16.2200
 2.6140	16.3020
 2.6150	16.4090
 2.6160	16.3330
 2.6180	16.2010
 2.6190	15.9500
 2.6200	15.7550
 2.6220	15.7000
 2.6230	15.5820
 2.6240	15.1890
 2.6260	14.8670
 2.6270	14.8190
 2.6280	14.7020
 2.6300	14.5140
 2.6310	14.3570
 2.6320	14.0050
 2.6340	13.7350
 2.6350	13.6220
 2.6360	13.5660
 2.6380	13.4010
 2.6390	13.3100
 2.6400	13.2740
 2.6420	13.1050
 2.6430	12.8480
 2.6440	12.7020
 2.6460	12.4970
 2.6470	12.3180
 2.6480	12.1970
 2.6500	12.0320
 2.6510	11.7550
 2.6520	11.5740
 2.6540	11.4090
 2.6550	11.3550
 2.6560	11.1130
 2.6580	11.0180
 2.6590	11.0030
 2.6610	10.8740
 2.6620	10.8260
 2.6630	10.7010
 2.6650	10.0930
 2.6660	 9.5850
 2.6670	 9.3860
 2.6690	 9.2160
 2.6700	 9.0210
 2.6720	 9.0150
 2.6730	 8.8240
 2.6740	 8.6620
 2.6760	 8.6470
 2.6770	 8.4460
 2.6780	 8.1340
 2.6800	 7.9350
 2.6810	 7.7420
 2.6830	 7.6860
 2.6840	 7.5250
 2.6850	 7.2010
 2.6870	 7.1620
 2.6880	 7.1960
 2.6900	 7.1150
 2.6910	 6.9890
 2.6920	 6.7740
 2.6940	 6.5490
 2.6950	 6.1950
 2.6970	 6.2540
 2.6980	 6.1630
 2.6990	 5.9350
 2.7010	 5.7840
 2.7020	 5.6840
 2.7040	 5.9720
 2.7050	 6.1570
 2.7060	 6.0390
 2.7080	 5.8820
 2.7090	 5.6540
 2.7110	 5.6690
 2.7120	 5.6400
 2.7130	 5.4530
 2.7150	 5.3480
 2.7160	 5.5690
 2.7180	 5.5340
 2.7190	 5.5010
 2.7210	 5.3010
 2.7220	 5.4870
 2.7230	 5.5950
 2.7250	 5.3400
 2.7260	 5.2960
 2.7280	 5.2960
 2.7290	 5.4260
 2.7310	 5.5610
 2.7320	 4.9500
 2.7330	 5.0650
 2.7350	 5.3960
 2.7360	 5.2700
 2.7380	 4.9510
 2.7390	 4.9490
 2.7410	 4.9140
 2.7420	 5.2610
 2.7440	 5.4740
 2.7450	 5.5260
 2.7470	 5.5200
 2.7480	 5.7640
 2.7490	 5.8150
 2.7510	 5.6360
 2.7520	 5.2320
 2.7540	 4.8300
 2.7550	 4.6570
 2.7570	 4.7960
 2.7580	 5.0670
 2.7600	 5.1610
 2.7610	 5.0700
 2.7630	 4.9510
 2.7640	 5.0120
 2.7660	 5.1440
 2.7670	 5.4030
 2.7680	 5.7040
 2.7700	 5.2680
 2.7710	 4.7490
 2.7730	 4.7620
 2.7740	 4.9710
 2.7760	 5.0630
 2.7770	 5.0030
 2.7790	 4.8550
 2.7800	 4.8370
 2.7820	 4.8820
 2.7830	 4.7480
 2.7850	 4.6680
 2.7860	 4.7450
 2.7880	 5.2180
 2.7890	 5.3780
 2.7910	 4.9170
 2.7920	 4.6390
 2.7940	 4.8960
 2.7950	 4.9740
 2.7970	 4.7830
 2.7980	 4.6990
 2.8000	 4.6530
 2.8010	 4.5180
 2.8030	 4.5200
 2.8040	 4.6880
 2.8060	 4.5860
 2.8070	 4.6710
 2.8090	 4.7100
 2.8110	 4.7630
 2.8120	 4.7130
 2.8140	 4.6760
 2.8150	 4.4250
 2.8170	 4.5700
 2.8180	 4.7850
 2.8200	 4.8600
 2.8210	 4.7210
 2.8230	 4.6460
 2.8240	 4.5640
 2.8260	 4.4020
 2.8270	 4.0890
 2.8290	 4.3130
 2.8300	 4.3790
 2.8320	 4.4530
 2.8340	 4.5630
 2.8350	 4.8250
 2.8370	 4.7150
 2.8380	 4.6350
 2.8400	 4.5580
 2.8410	 4.5310
 2.8430	 4.4530
 2.8440	 4.5290
 2.8460	 4.5070
 2.8480	 4.4890
 2.8490	 4.3670
 2.8510	 4.2940
 2.8520	 4.4010
 2.8540	 4.3590
 2.8550	 4.4160
 2.8570	 4.5020
 2.8590	 4.3740
 2.8600	 4.2670
 2.8620	 4.1630
 2.8630	 4.2730
 2.8650	 4.2090
 2.8660	 4.3810
 2.8680	 4.5140
 2.8700	 4.2880
 2.8710	 4.0470
 2.8730	 4.1570
 2.8740	 4.0520
 2.8760	 4.2470
 2.8780	 4.4440
 2.8790	 4.3610
 2.8810	 4.3010
 2.8820	 4.6510
 2.8840	 4.5080
 2.8860	 4.2750
 2.8870	 4.3560
 2.8890	 4.0570
 2.8900	 3.7020
 2.8920	 3.9190
 2.8940	 4.1330
 2.8950	 4.3790
 2.8970	 4.3290
 2.8980	 4.1360
 2.9000	 4.1610
 2.9020	 4.3350
 2.9030	 4.1190
 2.9050	 3.9930
 2.9070	 4.0610
 2.9080	 3.9520
 2.9100	 3.8040
 2.9120	 4.0310
 2.9130	 4.2480
 2.9150	 3.9280
 2.9160	 3.7930
 2.9180	 4.0090
 2.9200	 4.0860
 2.9210	 4.0150
 2.9230	 3.9860
 2.9250	 4.2220
 2.9260	 4.0140
 2.9280	 3.8090
 2.9300	 3.7560
 2.9310	 3.8330
 2.9330	 3.8040
 2.9350	 3.9280
 2.9360	 3.9880
 2.9380	 4.1070
 2.9400	 4.1420
 2.9410	 3.9970
 2.9430	 3.9470
 2.9450	 3.9820
 2.9460	 3.6320
 2.9480	 3.6810
 2.9500	 3.6600
 2.9510	 3.5190
 2.9530	 3.3460
 2.9550	 3.6090
 2.9560	 3.9100
 2.9580	 3.6150
 2.9600	 2.8810
 2.9610	 3.0060
 2.9630	 3.3310
 2.9650	 3.7740
 2.9660	 3.9520
 2.9680	 3.6380
 2.9700	 4.5350
 2.9720	 4.4880
 2.9730	 3.5170
 2.9750	 3.7440
 2.9770	 3.8880
 2.9780	 3.2600
 2.9800	 3.3070
 2.9820	 2.0240
 2.9840	 3.2310
 2.9850	 3.8470
 2.9870	 3.9450
 2.9890	 2.3780
 2.9900	 2.2040
 2.9920	 4.1090
 2.9940	 4.9030
 2.9960	 4.8400
 2.9970	 6.0990
 2.9990	 6.6600
 3.0010	 4.3060
 3.0030	 4.2170
 3.0040	 4.1670
 3.0060	 4.1590
 3.0080	 4.8900
 3.0100	 5.1000
 3.0110	 3.9700
 3.0130	 3.5180
 3.0150	 4.6980
 3.0170	 5.1210
 3.0180	 5.1720
 3.0200	 5.0250
 3.0220	 4.4220
 3.0240	 4.8460
 3.0250	 4.4770
 3.0270	 3.7920
 3.0290	 3.9690
 3.0310	 3.7050
 3.0320	 3.4260
 3.0340	 4.5690
 3.0360	 4.7620
 3.0380	 3.0700
 3.0400	 4.0900
 3.0410	 4.0900
 3.0430	 2.9520
 3.0450	 3.3590
 3.0470	 4.9420
 3.0480	 4.4610
 3.0500	 4.8820
 3.0520	 3.4340
 3.0540	 2.6710
 3.0560	 3.7510
 3.0570	 3.8310
 3.0590	 3.6320
 3.0610	 3.5420
 3.0630	 3.0080
 3.0650	 2.2680
 3.0660	 2.7200
 3.0680	 3.1900
 3.0700	 3.5200
 3.0720	 3.9070
 3.0740	 4.0840
 3.0760	 3.6250
 3.0770	 3.9460
 3.0790	 4.0320
 3.0810	 4.0890
 3.0830	 4.1630
 3.0850	 4.0480
 3.0870	 3.8280
 3.0880	 3.8520
 3.0900	 3.9700
 3.0920	 3.9520
 3.0940	 3.8880
 3.0960	 4.1410
 3.0980	 4.3350
 3.0990	 4.2280
 3.1010	 4.2800
 3.1030	 4.5590
 3.1050	 4.4010
 3.1070	 4.4530
 3.1090	 4.0580
 3.1110	 3.4970
 3.1120	 3.3870
 3.1140	 2.9940
 3.1160	 2.7160
 3.1180	 3.9760
 3.1200	 5.3320
 3.1220	 5.1390
 3.1240	 4.4680
 3.1260	 4.3060
 3.1270	 4.5950
 3.1290	 4.9400
 3.1310	 4.8660
 3.1330	 4.8730
 3.1350	 4.6190
 3.1370	 4.7570
 3.1390	 5.6650
 3.1410	 5.9900
 3.1430	 5.1940
 3.1450	 5.4940
 3.1460	 7.0030
 3.1480	 6.8490
 3.1500	 5.5070
 3.1520	 5.0300
 3.1540	 4.8380
 3.1560	 5.6060
 3.1580	 5.1320
 3.1600	 4.3230
 3.1620	 4.1180
 3.1640	 5.4830
 3.1660	 5.4460
 3.1680	 4.5600
 3.1700	 4.7560
 3.1710	 3.2630
 3.1730	 2.7210
 3.1750	 3.2400
 3.1770	 2.5100
 3.1790	 5.1780
 3.1810	 7.3250
 3.1830	 6.9340
 3.1850	 5.0360
 3.1870	 4.6250
 3.1890	 4.1370
 3.1910	 3.9090
 3.1930	 4.0270
 3.1950	 4.5770
 3.1970	 4.8010
 3.1990	 4.6420
 3.2010	 4.2740
 3.2030	 4.3530
 3.2050	 4.2100
 3.2070	 4.3240
 3.2090	 4.2820
 3.2110	 4.3370
 3.2130	 4.3840
 3.2150	 4.6210
 3.2170	 4.3720
 3.2190	 4.3180
 3.2210	 4.4030
 3.2230	 4.4890
 3.2250	 4.1470
 3.2270	 4.3160
 3.2290	 4.1110
 3.2310	 3.9280
 3.2330	 4.1450
 3.2350	 4.1110
 3.2370	 4.0960
 3.2390	 4.4050
 3.2410	 4.6970
 3.2430	 4.7960
 3.2450	 4.5700
 3.2470	 4.7590
 3.2490	 4.8040
 3.2510	 4.9320
 3.2530	 4.7890
 3.2550	 4.4920
 3.2570	 4.3510
 3.2590	 4.4640
 3.2610	 4.4950
 3.2630	 4.4740
 3.2650	 4.4610
 3.2670	 4.8050
 3.2690	 4.8190
 3.2720	 4.8820
 3.2740	 4.7230
 3.2760	 4.5740
 3.2780	 4.5650
 3.2800	 4.5990
 3.2820	 4.5370
 3.2840	 4.7180
 3.2860	 4.8090
 3.2880	 4.5940
 3.2900	 4.4590
 3.2920	 4.9650
 3.2940	 5.1040
 3.2960	 4.7860
 3.2990	 4.4510
 3.3010	 4.8520
 3.3030	 5.1230
 3.3050	 4.8990
 3.3070	 4.5510
 3.3090	 4.5270
 3.3110	 4.5590
 3.3130	 4.4340
 3.3150	 4.1870
 3.3180	 4.1780
 3.3200	 4.5180
 3.3220	 4.6010
 3.3240	 4.4930
 3.3260	 4.3860
 3.3280	 4.4190
 3.3300	 4.5700
 3.3330	 4.6810
 3.3350	 4.6570
 3.3370	 4.1580
 3.3390	 4.1720
 3.3410	 4.6270
 3.3430	 4.8870
 3.3450	 4.8520
 3.3480	 4.7870
 3.3500	 4.6760
 3.3520	 4.5870
 3.3540	 4.3600
 3.3560	 4.3990
 3.3580	 4.4430
 3.3610	 4.6100
 3.3630	 4.5020
 3.3650	 4.4490
 3.3670	 4.3310
 3.3690	 4.2190
 3.3720	 4.3480
 3.3740	 4.4570
 3.3760	 4.5310
 3.3780	 4.7080
 3.3800	 4.6830
 3.3830	 4.7750
 3.3850	 4.7800
 3.3870	 4.5650
 3.3890	 4.3860
 3.3910	 4.3970
 3.3940	 4.3160
 3.3960	 4.5880
 3.3980	 4.7580
 3.4000	 4.7320
 3.4020	 4.7830
 3.4050	 5.0390
 3.4070	 5.1120
 3.4090	 5.2930
 3.4110	 5.5490
 3.4140	 5.7790
 3.4160	 6.0620
 3.4180	 6.6040
 3.4200	 7.0260
 3.4230	 7.6130
 3.4250	 8.5020
 3.4270	 9.3810
 3.4290	 9.5900
 3.4320	 9.1030
 3.4340	 8.4560
 3.4360	 7.9730
 3.4390	 7.4380
 3.4410	 7.1120
 3.4430	 6.7480
 3.4450	 6.5550
 3.4480	 6.4640
 3.4500	 6.5450
 3.4520	 6.1730
 3.4550	 6.0200
 3.4570	 6.1980
 3.4590	 6.0570
 3.4620	 6.2460
 3.4640	 6.3730
 3.4660	 6.1330
 3.4680	 5.8420
 3.4710	 5.6460
 3.4730	 5.7280
 3.4750	 5.7520
 3.4780	 5.5870
 3.4800	 5.4320
 3.4820	 5.4000
 3.4850	 5.3480
 3.4870	 5.3410
 3.4890	 5.4270
 3.4920	 5.5660
 3.4940	 5.6270
 3.4970	 5.5780
 3.4990	 5.5990
 3.5010	 5.8310
 3.5040	 6.2410
 3.5060	 6.8590
 3.5080	 7.8480
 3.5110	 8.8030
 3.5130	 8.7720
 3.5160	 8.0010
 3.5180	 7.2720
 3.5200	 6.8360
 3.5230	 6.3750
 3.5250	 6.1730
 3.5270	 6.1410
 3.5300	 6.3250
 3.5320	 6.2250
 3.5350	 6.1180
 3.5370	 6.1120
 3.5400	 6.1250
 3.5420	 5.9530
 3.5440	 5.8110
 3.5470	 5.9140
 3.5490	 5.9570
 3.5520	 5.7820
 3.5540	 5.6680
 3.5570	 5.6540
 3.5590	 5.8640
 3.5610	 5.8640
 3.5640	 5.9100
 3.5660	 5.8750
 3.5690	 5.8540
 3.5710	 5.6280
 3.5740	 5.7040
 3.5760	 5.9740
 3.5790	 5.9680
 3.5810	 5.8640
 3.5840	 5.8060
 3.5860	 5.9270
 3.5890	 5.9820
 3.5910	 5.9300
 3.5930	 5.7880
 3.5960	 5.9120
 3.5980	 6.1320
 3.6010	 5.9610
 3.6030	 5.8890
 3.6060	 5.8470
 3.6080	 5.9780
 3.6110	 5.8350
 3.6140	 5.8270
 3.6160	 5.8340
 3.6190	 6.0160
 3.6210	 6.0540
 3.6240	 6.0970
 3.6260	 6.2550
 3.6290	 6.3300
 3.6310	 6.1650
 3.6340	 6.1880
 3.6360	 6.1920
 3.6390	 6.3490
 3.6410	 6.3940
 3.6440	 6.2830
 3.6470	 6.2260
 3.6490	 6.3940
 3.6520	 6.5020
 3.6540	 6.4650
 3.6570	 6.4390
 3.6590	 6.3680
 3.6620	 6.3300
 3.6650	 6.5300
 3.6670	 6.6020
 3.6700	 6.6990
 3.6720	 6.6530
 3.6750	 6.5850
 3.6780	 6.6710
 3.6800	 6.6990
 3.6830	 6.5880
 3.6850	 6.7480
 3.6880	 6.8730
 3.6910	 6.8550
 3.6930	 6.8630
 3.6960	 6.9720
 3.6990	 7.0280
 3.7010	 7.1520
 3.7040	 7.0910
 3.7060	 7.0250
 3.7090	 6.9230
 3.7120	 7.0420
 3.7140	 7.2390
 3.7170	 7.2800
 3.7200	 7.2580
 3.7220	 7.3540
 3.7250	 7.4450
 3.7280	 7.5120
 3.7300	 7.4100
 3.7330	 7.2200
 3.7360	 7.3330
 3.7390	 7.6810
 3.7410	 7.7870
 3.7440	 7.7080
 3.7470	 7.6500
 3.7490	 7.7110
 3.7520	 7.7240
 3.7550	 7.7430
 3.7580	 7.6580
 3.7600	 7.7140
 3.7630	 7.8870
 3.7660	 8.0250
 3.7680	 8.1160
 3.7710	 8.1740
 3.7740	 8.1140
 3.7770	 8.1040
 3.7790	 8.0380
 3.7820	 8.0880
 3.7850	 8.1480
 3.7880	 8.2020
 3.7900	 8.3640
 3.7930	 8.4780
 3.7960	 8.3860
 3.7990	 8.2300
 3.8020	 8.2290
 3.8040	 8.3690
 3.8070	 8.3330
 3.8100	 8.3040
 3.8130	 8.3420
 3.8160	 8.3830
 3.8180	 8.4700
 3.8210	 8.5530
 3.8240	 8.6000
 3.8270	 8.7050
 3.8300	 8.8090
 3.8330	 8.8010
 3.8350	 8.9580
 3.8380	 9.0470
 3.8410	 8.9670
 3.8440	 8.9790
 3.8470	 9.0140
 3.8500	 9.2310
 3.8520	 8.9790
 3.8550	 8.8430
 3.8580	 9.0710
 3.8610	 9.2450
 3.8640	 9.1590
 3.8670	 9.0980
 3.8700	 9.0960
 3.8730	 9.2130
 3.8750	 9.1960
 3.8780	 9.0610
 3.8810	 9.0600
 3.8840	 9.2420
 3.8870	 9.3340
 3.8900	 9.3290
 3.8930	 9.2930
 3.8960	 9.3180
 3.8990	 9.4010
 3.9020	 9.3300
 3.9050	 9.2250
 3.9080	 9.3250
 3.9110	 9.3470
 3.9140	 9.4200
 3.9160	 9.4490
 3.9190	 9.4110
 3.9220	 9.3620
 3.9250	 9.3290
 3.9280	 9.2970
 3.9310	 9.4040
 3.9340	 9.4040
 3.9370	 9.4430
 3.9400	 9.5080
 3.9430	 9.6210
 3.9460	 9.5190
 3.9490	 9.4300
 3.9520	 9.5600
 3.9550	 9.7390
 3.9580	 9.6960
 3.9610	 9.6090
 3.9640	 9.5240
 3.9670	 9.5270
 3.9700	 9.5570
 3.9730	 9.5790
 3.9770	 9.5740
 3.9800	 9.5600
 3.9830	 9.4470
 3.9860	 9.4110
 3.9890	 9.4790
 3.9920	 9.5320
 3.9950	 9.5270
 3.9980	 9.4770
 4.0010	 9.3820
 4.0040	 9.3770
 4.0070	 9.4200
 4.0100	 9.4940
 4.0130	 9.5330
 4.0170	 9.5380
 4.0200	 9.4430
 4.0230	 9.4750
 4.0260	 9.4830
 4.0290	 9.4080
 4.0320	 9.3590
 4.0350	 9.4100
 4.0380	 9.4160
 4.0420	 9.4230
 4.0450	 9.3910
 4.0480	 9.3620
 4.0510	 9.3920
 4.0540	 9.4400
 4.0570	 9.5540
 4.0610	 9.6710
 4.0640	 9.5740
 4.0670	 9.5620
 4.0700	 9.5340
 4.0730	 9.4860
 4.0770	 9.4820
 4.0800	 9.3860
 4.0830	 9.2880
 4.0860	 9.4160
 4.0890	 9.4210
 4.0930	 9.3410
 4.0960	 9.3390
 4.0990	 9.3770
 4.1020	 9.3780
 4.1060	 9.3700
 4.1090	 9.1820
 4.1120	 8.9410
 4.1150	 8.8800
 4.1190	 8.9340
 4.1220	 9.0620
 4.1250	 9.1950
 4.1280	 9.1740
 4.1320	 9.1780
 4.1350	 9.1900
 4.1380	 9.1780
 4.1420	 9.1730
 4.1450	 9.1650
 4.1480	 9.0820
 4.1520	 9.0810
 4.1550	 9.0920
 4.1580	 9.0060
 4.1620	 8.9550
 4.1650	 8.9540
 4.1680	 8.9050
 4.1720	 8.9500
 4.1750	 8.9780
 4.1780	 8.8980
 4.1820	 8.8240
 4.1850	 8.7540
 4.1890	 8.6900
 4.1920	 8.7050
 4.1950	 8.7390
 4.1990	 8.6860
 4.2020	 8.6950
 4.2060	 8.6670
 4.2090	 8.6020
 4.2120	 8.6660
 4.2160	 8.7170
 4.2190	 8.7040
 4.2230	 8.5320
 4.2260	 7.9250
 4.2300	 7.7470
 4.2330	 8.2270
 4.2360	 8.5440
 4.2400	 8.6470
 4.2430	 8.5820
 4.2470	 8.7630
 4.2500	 8.6150
 4.2540	 8.3150
 4.2570	 8.2010
 4.2610	 8.3990
 4.2640	 8.4180
 4.2680	 8.2590
 4.2710	 8.0650
 4.2750	 8.0480
 4.2780	 8.0450
 4.2820	 8.1470
 4.2850	 8.3510
 4.2890	 8.4090
 4.2930	 8.1960
 4.2960	 8.0930
 4.3000	 7.9470
 4.3030	 7.6930
 4.3070	 7.6720
 4.3100	 7.7090
 4.3140	 7.6900
 4.3180	 7.5950
 4.3210	 7.5880
 4.3250	 7.6700
 4.3280	 7.5030
 4.3320	 7.4390
 4.3360	 7.4350
 4.3390	 7.3690
 4.3430	 7.3370
 4.3470	 7.2810
 4.3500	 7.2640
 4.3540	 7.3160
 4.3570	 7.2610
 4.3610	 7.2170
 4.3650	 7.1210
 4.3680	 7.1040
 4.3720	 7.1050
 4.3760	 7.1000
 4.3800	 7.0910
 4.3830	 7.0810
 4.3870	 6.9960
 4.3910	 7.0600
 4.3940	 7.0690
 4.3980	 6.8950
 4.4020	 6.8230
 4.4060	 6.8480
 4.4090	 6.9200
 4.4130	 6.9290
 4.4170	 6.8140
 4.4210	 6.7250
 4.4240	 6.6790
 4.4280	 6.6750
 4.4320	 6.6780
 4.4360	 6.6880
 4.4400	 6.6570
 4.4430	 6.6260
 4.4470	 6.6310
 4.4510	 6.6610
 4.4550	 6.5680
 4.4590	 6.5260
 4.4620	 6.4920
 4.4660	 6.5110
 4.4700	 6.4870
 4.4740	 6.3860
 4.4780	 6.4280
 4.4820	 6.5480
 4.4860	 6.4970
 4.4900	 6.3990
 4.4930	 6.2130
 4.4970	 6.2370
 4.5010	 6.2880
 4.5050	 6.2680
 4.5090	 6.2600
 4.5130	 6.2890
 4.5170	 6.2320
 4.5210	 6.0940
 4.5250	 6.0520
 4.5290	 6.0770
 4.5330	 6.0990
 4.5370	 6.1010
 4.5410	 6.0660
 4.5450	 6.0800
 4.5490	 6.0330
 4.5530	 6.0150
 4.5570	 6.0870
 4.5610	 6.1040
 4.5650	 6.1040
 4.5690	 6.1250
 4.5730	 6.0460
 4.5770	 5.9970
 4.5810	 6.0860
 4.5850	 6.0420
 4.5890	 6.0380
 4.5930	 5.9320
 4.5970	 5.8930
 4.6010	 5.8730
 4.6050	 5.8430
 4.6090	 5.8860
 4.6130	 5.6720
 4.6170	 5.2660
 4.6220	 5.3650
 4.6260	 5.5910
 4.6300	 5.7010
 4.6340	 5.8680
 4.6380	 5.8600
 4.6420	 5.8020
 4.6460	 5.8200
 4.6510	 5.7800
 4.6550	 5.6960
 4.6590	 5.6240
 4.6630	 5.6410
 4.6670	 5.6570
 4.6720	 5.7320
 4.6760	 5.7830
 4.6800	 5.8250
 4.6840	 5.8350
 4.6880	 5.8170
 4.6930	 5.8260
 4.6970	 5.7880
 4.7010	 5.7570
 4.7050	 5.7850
 4.7100	 5.7310
 4.7140	 5.7060
 4.7180	 5.7570
 4.7230	 5.7060
 4.7270	 5.6750
 4.7310	 5.6780
 4.7360	 5.7060
 4.7400	 5.6840
 4.7440	 5.7330
 4.7490	 5.7580
 4.7530	 5.6670
 4.7570	 5.6090
 4.7620	 5.7210
 4.7660	 5.7340
 4.7700	 5.5920
 4.7750	 5.6110
 4.7790	 5.8930
 4.7840	 6.0000
 4.7880	 5.9240
 4.7920	 5.9120
 4.7970	 6.0330
 4.8010	 5.9510
 4.8060	 5.7840
 4.8100	 5.7550
 4.8150	 5.6670
 4.8190	 5.6110
 4.8240	 5.5530
 4.8280	 5.6190
 4.8330	 5.6900
 4.8370	 5.7170
 4.8420	 5.6460
 4.8460	 5.6830
 4.8510	 5.8180
 4.8550	 5.8600
 4.8600	 5.8080
 4.8640	 5.8430
 4.8690	 5.8830
 4.8730	 5.8600
 4.8780	 5.8610
 4.8830	 5.8500
 4.8870	 5.6760
 4.8920	 5.7490
 4.8960	 5.9170
 4.9010	 6.0190
 4.9060	 6.0020
 4.9100	 5.9270
 4.9150	 5.8540
 4.9200	 5.9400
 4.9240	 6.0090
 4.9290	 5.9580
 4.9340	 5.9220
 4.9380	 6.0500
 4.9430	 6.1350
 4.9480	 6.1300
 4.9530	 6.1460
 4.9570	 6.1140
 4.9620	 6.0880
 4.9670	 6.1100
 4.9720	 6.1470
 4.9760	 6.1640
 4.9810	 6.2310
 4.9860	 6.2050
 4.9910	 6.1590
 4.9960	 6.2660
 5.0000	 6.2930
 5.0050	 6.3080
 5.0100	 6.2680
 5.0150	 6.3500
 5.0200	 6.3660
 5.0250	 6.3470
 5.0290	 6.4480
 5.0340	 6.6140
 5.0390	 6.6270
 5.0440	 6.5450
 5.0490	 6.5410
 5.0540	 6.6030
 5.0590	 6.5980
 5.0640	 6.6600
 5.0690	 6.7130
 5.0740	 6.6870
 5.0790	 6.6890
 5.0840	 6.7980
 5.0890	 6.7990
 5.0940	 6.7480
 5.0990	 6.7420
 5.1040	 6.8210
 5.1090	 6.9300
 5.1140	 6.8480
 5.1190	 6.7690
 5.1240	 6.9280
 5.1290	 7.0020
 5.1340	 7.0180
 5.1390	 7.0830
 5.1440	 7.0520
 5.1490	 7.0460
 5.1540	 7.1350
 5.1600	 7.0970
 5.1650	 7.1410
 5.1700	 7.1960
 5.1750	 7.2470
 5.1800	 7.2130
 5.1850	 7.2110
 5.1910	 7.2030
 5.1960	 7.2670
 5.2010	 7.2560
 5.2060	 7.3470
 5.2110	 7.3880
 5.2170	 7.3460
 5.2220	 7.3230
 5.2270	 7.3520
 5.2320	 7.4290
 5.2380	 7.4440
 5.2430	 7.3320
 5.2480	 7.3250
 5.2540	 7.3700
 5.2590	 7.3740
 5.2640	 7.3450
 5.2700	 7.3620
 5.2750	 7.2720
 5.2800	 7.3840
 5.2860	 7.4190
 5.2910	 7.3970
 5.2970	 7.3420
 5.3020	 7.2620
 5.3070	 7.2970
 5.3130	 7.2710
 5.3180	 7.2810
 5.3240	 7.2880
 5.3290	 7.2190
 5.3350	 7.2500
 5.3400	 7.2450
 5.3460	 7.2200
 5.3510	 7.1940
 5.3570	 7.2410
 5.3620	 7.2550
 5.3680	 7.1700
 5.3730	 7.0530
 5.3790	 7.0440
 5.3850	 6.9870
 5.3900	 6.9460
 5.3960	 6.9540
 5.4010	 7.0460
 5.4070	 7.0080
 5.4130	 6.9010
 5.4180	 6.9090
 5.4240	 6.9140
 5.4300	 6.7720
 5.4350	 6.6750
 5.4410	 6.6930
 5.4470	 6.7100
 5.4530	 6.5580
