Name: Melaleuca linariifolia
Type: vegetation
Class: Tree
Genus: Melaleuca
Species: linariifolia
Sample No.: JPL198
Owner: JPL
Wavelength Range: VSWIR
Origin: 34.1258; -118.11316; WGS84
Collection Date: 10/3/2016
Description: Samples were collected at the Huntington Garden in San Marino California as part of a JPL Subcontract studying HyTES imagery. Samples were taken to JPL and processed within 48 hours of collection. The same leaves were processed in the Nicolet and then measured using the ASD.
Measurement: Bidirectional reflectance
First Column: X
Second Column: Y
X Units: Wavelength (micrometer)
Y Units: Reflectance (percentage)
First X Value: 0.35
Last X Value: 2.5
Number of X Values: 2151
Additional Information: vegetation.tree.melaleuca.linariifolia.vswir.jpl198.jpl.asd.ancillary.txt

 0.3500	 4.6570
 0.3510	 4.6840
 0.3520	 4.7970
 0.3530	 4.8620
 0.3540	 4.8000
 0.3550	 4.7330
 0.3560	 4.6410
 0.3570	 4.5730
 0.3580	 4.5950
 0.3590	 4.6860
 0.3600	 4.7070
 0.3610	 4.6360
 0.3620	 4.6190
 0.3630	 4.6040
 0.3640	 4.5920
 0.3650	 4.6000
 0.3660	 4.6830
 0.3670	 4.6360
 0.3680	 4.5240
 0.3690	 4.5720
 0.3700	 4.5890
 0.3710	 4.5770
 0.3720	 4.5650
 0.3730	 4.5740
 0.3740	 4.5670
 0.3750	 4.5420
 0.3760	 4.5170
 0.3770	 4.5390
 0.3780	 4.5260
 0.3790	 4.4790
 0.3800	 4.4700
 0.3810	 4.4360
 0.3820	 4.4500
 0.3830	 4.5200
 0.3840	 4.4620
 0.3850	 4.4560
 0.3860	 4.4910
 0.3870	 4.4960
 0.3880	 4.4990
 0.3890	 4.4950
 0.3900	 4.4960
 0.3910	 4.5290
 0.3920	 4.5060
 0.3930	 4.4790
 0.3940	 4.4990
 0.3950	 4.5360
 0.3960	 4.5440
 0.3970	 4.5370
 0.3980	 4.5550
 0.3990	 4.5370
 0.4000	 4.5260
 0.4010	 4.5350
 0.4020	 4.5270
 0.4030	 4.5570
 0.4040	 4.5990
 0.4050	 4.6120
 0.4060	 4.5860
 0.4070	 4.5880
 0.4080	 4.6160
 0.4090	 4.6300
 0.4100	 4.6590
 0.4110	 4.6730
 0.4120	 4.6660
 0.4130	 4.6880
 0.4140	 4.6960
 0.4150	 4.7010
 0.4160	 4.7210
 0.4170	 4.7290
 0.4180	 4.7380
 0.4190	 4.7510
 0.4200	 4.7630
 0.4210	 4.7840
 0.4220	 4.8030
 0.4230	 4.8120
 0.4240	 4.8100
 0.4250	 4.8170
 0.4260	 4.8310
 0.4270	 4.8380
 0.4280	 4.8510
 0.4290	 4.8570
 0.4300	 4.8560
 0.4310	 4.8690
 0.4320	 4.8700
 0.4330	 4.8720
 0.4340	 4.8890
 0.4350	 4.9060
 0.4360	 4.9120
 0.4370	 4.9090
 0.4380	 4.9020
 0.4390	 4.8960
 0.4400	 4.8900
 0.4410	 4.8860
 0.4420	 4.8960
 0.4430	 4.8970
 0.4440	 4.9000
 0.4450	 4.9170
 0.4460	 4.9260
 0.4470	 4.9260
 0.4480	 4.9270
 0.4490	 4.9460
 0.4500	 4.9550
 0.4510	 4.9630
 0.4520	 4.9790
 0.4530	 4.9750
 0.4540	 4.9750
 0.4550	 4.9840
 0.4560	 4.9890
 0.4570	 4.9900
 0.4580	 4.9840
 0.4590	 4.9750
 0.4600	 4.9750
 0.4610	 4.9710
 0.4620	 4.9640
 0.4630	 4.9620
 0.4640	 4.9610
 0.4650	 4.9560
 0.4660	 4.9480
 0.4670	 4.9420
 0.4680	 4.9360
 0.4690	 4.9290
 0.4700	 4.9220
 0.4710	 4.9240
 0.4720	 4.9210
 0.4730	 4.9160
 0.4740	 4.9160
 0.4750	 4.9130
 0.4760	 4.9090
 0.4770	 4.9060
 0.4780	 4.9100
 0.4790	 4.9120
 0.4800	 4.9110
 0.4810	 4.9080
 0.4820	 4.8970
 0.4830	 4.8970
 0.4840	 4.9070
 0.4850	 4.9110
 0.4860	 4.9180
 0.4870	 4.9220
 0.4880	 4.9210
 0.4890	 4.9280
 0.4900	 4.9310
 0.4910	 4.9320
 0.4920	 4.9420
 0.4930	 4.9470
 0.4940	 4.9550
 0.4950	 4.9690
 0.4960	 4.9850
 0.4970	 5.0030
 0.4980	 5.0200
 0.4990	 5.0370
 0.5000	 5.0580
 0.5010	 5.0800
 0.5020	 5.1050
 0.5030	 5.1380
 0.5040	 5.1720
 0.5050	 5.2090
 0.5060	 5.2510
 0.5070	 5.2960
 0.5080	 5.3380
 0.5090	 5.3820
 0.5100	 5.4360
 0.5110	 5.4950
 0.5120	 5.5570
 0.5130	 5.6210
 0.5140	 5.6920
 0.5150	 5.7670
 0.5160	 5.8460
 0.5170	 5.9310
 0.5180	 6.0170
 0.5190	 6.1000
 0.5200	 6.1830
 0.5210	 6.2750
 0.5220	 6.3660
 0.5230	 6.4550
 0.5240	 6.5420
 0.5250	 6.6280
 0.5260	 6.7110
 0.5270	 6.7900
 0.5280	 6.8680
 0.5290	 6.9380
 0.5300	 7.0000
 0.5310	 7.0570
 0.5320	 7.1130
 0.5330	 7.1620
 0.5340	 7.2060
 0.5350	 7.2460
 0.5360	 7.2790
 0.5370	 7.3090
 0.5380	 7.3380
 0.5390	 7.3680
 0.5400	 7.4070
 0.5410	 7.4550
 0.5420	 7.5040
 0.5430	 7.5400
 0.5440	 7.5580
 0.5450	 7.5590
 0.5460	 7.5450
 0.5470	 7.5240
 0.5480	 7.5050
 0.5490	 7.4940
 0.5500	 7.4930
 0.5510	 7.4910
 0.5520	 7.4850
 0.5530	 7.4730
 0.5540	 7.4590
 0.5550	 7.4400
 0.5560	 7.4160
 0.5570	 7.3910
 0.5580	 7.3600
 0.5590	 7.3240
 0.5600	 7.2830
 0.5610	 7.2360
 0.5620	 7.1850
 0.5630	 7.1300
 0.5640	 7.0730
 0.5650	 7.0150
 0.5660	 6.9540
 0.5670	 6.8910
 0.5680	 6.8290
 0.5690	 6.7690
 0.5700	 6.7100
 0.5710	 6.6510
 0.5720	 6.5900
 0.5730	 6.5290
 0.5740	 6.4710
 0.5750	 6.4200
 0.5760	 6.3750
 0.5770	 6.3330
 0.5780	 6.2920
 0.5790	 6.2550
 0.5800	 6.2170
 0.5810	 6.1800
 0.5820	 6.1470
 0.5830	 6.1220
 0.5840	 6.1000
 0.5850	 6.0760
 0.5860	 6.0490
 0.5870	 6.0190
 0.5880	 5.9890
 0.5890	 5.9590
 0.5900	 5.9330
 0.5910	 5.9080
 0.5920	 5.8840
 0.5930	 5.8610
 0.5940	 5.8400
 0.5950	 5.8230
 0.5960	 5.8110
 0.5970	 5.7950
 0.5980	 5.7810
 0.5990	 5.7710
 0.6000	 5.7620
 0.6010	 5.7450
 0.6020	 5.7270
 0.6030	 5.7080
 0.6040	 5.6900
 0.6050	 5.6660
 0.6060	 5.6390
 0.6070	 5.6130
 0.6080	 5.5860
 0.6090	 5.5680
 0.6100	 5.5620
 0.6110	 5.5620
 0.6120	 5.5330
 0.6130	 5.4850
 0.6140	 5.4330
 0.6150	 5.3960
 0.6160	 5.3630
 0.6170	 5.3320
 0.6180	 5.3050
 0.6190	 5.2810
 0.6200	 5.2610
 0.6210	 5.2430
 0.6220	 5.2220
 0.6230	 5.2020
 0.6240	 5.1860
 0.6250	 5.1750
 0.6260	 5.1620
 0.6270	 5.1520
 0.6280	 5.1460
 0.6290	 5.1400
 0.6300	 5.1340
 0.6310	 5.1260
 0.6320	 5.1140
 0.6330	 5.0980
 0.6340	 5.0810
 0.6350	 5.0610
 0.6360	 5.0380
 0.6370	 5.0090
 0.6380	 4.9780
 0.6390	 4.9450
 0.6400	 4.9130
 0.6410	 4.8750
 0.6420	 4.8370
 0.6430	 4.7990
 0.6440	 4.7600
 0.6450	 4.7210
 0.6460	 4.6850
 0.6470	 4.6550
 0.6480	 4.6280
 0.6490	 4.6050
 0.6500	 4.5870
 0.6510	 4.5710
 0.6520	 4.5570
 0.6530	 4.5450
 0.6540	 4.5350
 0.6550	 4.5230
 0.6560	 4.5100
 0.6570	 4.4950
 0.6580	 4.4780
 0.6590	 4.4600
 0.6600	 4.4400
 0.6610	 4.4190
 0.6620	 4.3990
 0.6630	 4.3810
 0.6640	 4.3620
 0.6650	 4.3430
 0.6660	 4.3310
 0.6670	 4.3220
 0.6680	 4.3150
 0.6690	 4.3130
 0.6700	 4.3150
 0.6710	 4.3220
 0.6720	 4.3330
 0.6730	 4.3510
 0.6740	 4.3700
 0.6750	 4.3910
 0.6760	 4.4170
 0.6770	 4.4480
 0.6780	 4.4850
 0.6790	 4.5250
 0.6800	 4.5640
 0.6810	 4.6120
 0.6820	 4.6640
 0.6830	 4.7170
 0.6840	 4.7730
 0.6850	 4.8340
 0.6860	 4.8990
 0.6870	 4.9680
 0.6880	 5.0450
 0.6890	 5.1330
 0.6900	 5.2390
 0.6910	 5.3660
 0.6920	 5.5150
 0.6930	 5.6900
 0.6940	 5.8950
 0.6950	 6.1310
 0.6960	 6.3950
 0.6970	 6.6870
 0.6980	 7.0070
 0.6990	 7.3590
 0.7000	 7.7360
 0.7010	 8.1360
 0.7020	 8.5600
 0.7030	 9.0020
 0.7040	 9.4610
 0.7050	 9.9360
 0.7060	10.4310
 0.7070	10.9380
 0.7080	11.4590
 0.7090	11.9960
 0.7100	12.5460
 0.7110	13.1140
 0.7120	13.7000
 0.7130	14.2970
 0.7140	14.9090
 0.7150	15.5380
 0.7160	16.1830
 0.7170	16.8410
 0.7180	17.5090
 0.7190	18.1870
 0.7200	18.8740
 0.7210	19.5690
 0.7220	20.2680
 0.7230	20.9670
 0.7240	21.6660
 0.7250	22.3600
 0.7260	23.0490
 0.7270	23.7290
 0.7280	24.3940
 0.7290	25.0470
 0.7300	25.6850
 0.7310	26.3030
 0.7320	26.9050
 0.7330	27.4850
 0.7340	28.0420
 0.7350	28.5770
 0.7360	29.0910
 0.7370	29.5810
 0.7380	30.0440
 0.7390	30.4830
 0.7400	30.8980
 0.7410	31.2860
 0.7420	31.6470
 0.7430	31.9880
 0.7440	32.3060
 0.7450	32.6000
 0.7460	32.8680
 0.7470	33.1170
 0.7480	33.3450
 0.7490	33.5520
 0.7500	33.7430
 0.7510	33.9160
 0.7520	34.0710
 0.7530	34.2120
 0.7540	34.3430
 0.7550	34.4640
 0.7560	34.5720
 0.7570	34.6670
 0.7580	34.7550
 0.7590	34.8360
 0.7600	34.9100
 0.7610	34.9770
 0.7620	35.0350
 0.7630	35.0870
 0.7640	35.1350
 0.7650	35.1740
 0.7660	35.2110
 0.7670	35.2480
 0.7680	35.2820
 0.7690	35.3080
 0.7700	35.3320
 0.7710	35.3570
 0.7720	35.3790
 0.7730	35.3970
 0.7740	35.4160
 0.7750	35.4380
 0.7760	35.4570
 0.7770	35.4750
 0.7780	35.4930
 0.7790	35.5120
 0.7800	35.5270
 0.7810	35.5420
 0.7820	35.5570
 0.7830	35.5680
 0.7840	35.5870
 0.7850	35.6040
 0.7860	35.6150
 0.7870	35.6260
 0.7880	35.6380
 0.7890	35.6480
 0.7900	35.6570
 0.7910	35.6690
 0.7920	35.6820
 0.7930	35.6930
 0.7940	35.6980
 0.7950	35.7050
 0.7960	35.7130
 0.7970	35.7210
 0.7980	35.7270
 0.7990	35.7310
 0.8000	35.7360
 0.8010	35.7420
 0.8020	35.7450
 0.8030	35.7460
 0.8040	35.7460
 0.8050	35.7480
 0.8060	35.7510
 0.8070	35.7550
 0.8080	35.7580
 0.8090	35.7560
 0.8100	35.7560
 0.8110	35.7560
 0.8120	35.7530
 0.8130	35.7490
 0.8140	35.7450
 0.8150	35.7430
 0.8160	35.7440
 0.8170	35.7470
 0.8180	35.7440
 0.8190	35.7380
 0.8200	35.7350
 0.8210	35.7350
 0.8220	35.7370
 0.8230	35.7380
 0.8240	35.7360
 0.8250	35.7330
 0.8260	35.7310
 0.8270	35.7290
 0.8280	35.7210
 0.8290	35.7140
 0.8300	35.7130
 0.8310	35.7160
 0.8320	35.7160
 0.8330	35.7160
 0.8340	35.7170
 0.8350	35.7170
 0.8360	35.7200
 0.8370	35.7200
 0.8380	35.7180
 0.8390	35.7190
 0.8400	35.7200
 0.8410	35.7240
 0.8420	35.7320
 0.8430	35.7370
 0.8440	35.7430
 0.8450	35.7470
 0.8460	35.7500
 0.8470	35.7540
 0.8480	35.7630
 0.8490	35.7730
 0.8500	35.7810
 0.8510	35.7880
 0.8520	35.7970
 0.8530	35.8070
 0.8540	35.8150
 0.8550	35.8220
 0.8560	35.8290
 0.8570	35.8370
 0.8580	35.8460
 0.8590	35.8570
 0.8600	35.8670
 0.8610	35.8750
 0.8620	35.8830
 0.8630	35.8970
 0.8640	35.9110
 0.8650	35.9220
 0.8660	35.9320
 0.8670	35.9450
 0.8680	35.9560
 0.8690	35.9580
 0.8700	35.9680
 0.8710	35.9800
 0.8720	35.9930
 0.8730	36.0050
 0.8740	36.0150
 0.8750	36.0250
 0.8760	36.0360
 0.8770	36.0500
 0.8780	36.0630
 0.8790	36.0740
 0.8800	36.0850
 0.8810	36.1010
 0.8820	36.1100
 0.8830	36.1200
 0.8840	36.1360
 0.8850	36.1430
 0.8860	36.1520
 0.8870	36.1620
 0.8880	36.1700
 0.8890	36.1780
 0.8900	36.1880
 0.8910	36.1980
 0.8920	36.2020
 0.8930	36.2120
 0.8940	36.2230
 0.8950	36.2310
 0.8960	36.2360
 0.8970	36.2470
 0.8980	36.2580
 0.8990	36.2640
 0.9000	36.2730
 0.9010	36.2790
 0.9020	36.2850
 0.9030	36.2910
 0.9040	36.2940
 0.9050	36.2990
 0.9060	36.3060
 0.9070	36.3130
 0.9080	36.3150
 0.9090	36.3190
 0.9100	36.3230
 0.9110	36.3260
 0.9120	36.3370
 0.9130	36.3460
 0.9140	36.3500
 0.9150	36.3490
 0.9160	36.3520
 0.9170	36.3540
 0.9180	36.3550
 0.9190	36.3570
 0.9200	36.3560
 0.9210	36.3480
 0.9220	36.3430
 0.9230	36.3510
 0.9240	36.3490
 0.9250	36.3410
 0.9260	36.3330
 0.9270	36.3260
 0.9280	36.3160
 0.9290	36.3080
 0.9300	36.3020
 0.9310	36.2910
 0.9320	36.2770
 0.9330	36.2610
 0.9340	36.2460
 0.9350	36.2310
 0.9360	36.2110
 0.9370	36.1940
 0.9380	36.1790
 0.9390	36.1580
 0.9400	36.1370
 0.9410	36.1150
 0.9420	36.0880
 0.9430	36.0630
 0.9440	36.0340
 0.9450	36.0040
 0.9460	35.9760
 0.9470	35.9450
 0.9480	35.9040
 0.9490	35.8620
 0.9500	35.8260
 0.9510	35.7770
 0.9520	35.7290
 0.9530	35.6800
 0.9540	35.6260
 0.9550	35.5760
 0.9560	35.5280
 0.9570	35.4810
 0.9580	35.4350
 0.9590	35.3960
 0.9600	35.3560
 0.9610	35.3170
 0.9620	35.2840
 0.9630	35.2610
 0.9640	35.2330
 0.9650	35.2060
 0.9660	35.1900
 0.9670	35.1720
 0.9680	35.1540
 0.9690	35.1380
 0.9700	35.1260
 0.9710	35.1110
 0.9720	35.0990
 0.9730	35.0890
 0.9740	35.0770
 0.9750	35.0660
 0.9760	35.0550
 0.9770	35.0460
 0.9780	35.0410
 0.9790	35.0320
 0.9800	35.0240
 0.9810	35.0210
 0.9820	35.0240
 0.9830	35.0270
 0.9840	35.0340
 0.9850	35.0440
 0.9860	35.0520
 0.9870	35.0580
 0.9880	35.0600
 0.9890	35.0620
 0.9900	35.0680
 0.9910	35.0780
 0.9920	35.1020
 0.9930	35.1220
 0.9940	35.1200
 0.9950	35.1210
 0.9960	35.1350
 0.9970	35.1550
 0.9980	35.1730
 0.9990	35.1870
 1.0000	35.1960
 1.0010	36.4990
 1.0020	36.5110
 1.0030	36.5270
 1.0040	36.5430
 1.0050	36.5590
 1.0060	36.5750
 1.0070	36.5890
 1.0080	36.6040
 1.0090	36.6210
 1.0100	36.6360
 1.0110	36.6500
 1.0120	36.6650
 1.0130	36.6810
 1.0140	36.6960
 1.0150	36.7120
 1.0160	36.7270
 1.0170	36.7400
 1.0180	36.7540
 1.0190	36.7720
 1.0200	36.7880
 1.0210	36.8030
 1.0220	36.8180
 1.0230	36.8350
 1.0240	36.8520
 1.0250	36.8700
 1.0260	36.8950
 1.0270	36.9120
 1.0280	36.9270
 1.0290	36.9430
 1.0300	36.9570
 1.0310	36.9720
 1.0320	36.9860
 1.0330	37.0030
 1.0340	37.0170
 1.0350	37.0310
 1.0360	37.0490
 1.0370	37.0650
 1.0380	37.0810
 1.0390	37.0980
 1.0400	37.1140
 1.0410	37.1280
 1.0420	37.1420
 1.0430	37.1560
 1.0440	37.1680
 1.0450	37.1800
 1.0460	37.1920
 1.0470	37.2020
 1.0480	37.2130
 1.0490	37.2260
 1.0500	37.2350
 1.0510	37.2440
 1.0520	37.2500
 1.0530	37.2570
 1.0540	37.2590
 1.0550	37.2660
 1.0560	37.2780
 1.0570	37.2850
 1.0580	37.2920
 1.0590	37.2980
 1.0600	37.3010
 1.0610	37.3040
 1.0620	37.3080
 1.0630	37.3100
 1.0640	37.3110
 1.0650	37.3110
 1.0660	37.3110
 1.0670	37.3110
 1.0680	37.3090
 1.0690	37.3070
 1.0700	37.3050
 1.0710	37.3020
 1.0720	37.3010
 1.0730	37.3030
 1.0740	37.3000
 1.0750	37.2970
 1.0760	37.2940
 1.0770	37.2890
 1.0780	37.2850
 1.0790	37.2830
 1.0800	37.2800
 1.0810	37.2740
 1.0820	37.2700
 1.0830	37.2690
 1.0840	37.2650
 1.0850	37.2600
 1.0860	37.2550
 1.0870	37.2470
 1.0880	37.2360
 1.0890	37.2270
 1.0900	37.2180
 1.0910	37.2090
 1.0920	37.2010
 1.0930	37.1910
 1.0940	37.1800
 1.0950	37.1700
 1.0960	37.1590
 1.0970	37.1490
 1.0980	37.1420
 1.0990	37.1320
 1.1000	37.1220
 1.1010	37.1120
 1.1020	37.1010
 1.1030	37.0880
 1.1040	37.0760
 1.1050	37.0640
 1.1060	37.0530
 1.1070	37.0440
 1.1080	37.0320
 1.1090	37.0230
 1.1100	37.0090
 1.1110	36.9920
 1.1120	36.9760
 1.1130	36.9610
 1.1140	36.9450
 1.1150	36.9280
 1.1160	36.9110
 1.1170	36.8950
 1.1180	36.8750
 1.1190	36.8540
 1.1200	36.8320
 1.1210	36.8050
 1.1220	36.7720
 1.1230	36.7400
 1.1240	36.7050
 1.1250	36.6660
 1.1260	36.6250
 1.1270	36.5780
 1.1280	36.5290
 1.1290	36.4710
 1.1300	36.4100
 1.1310	36.3390
 1.1320	36.2590
 1.1330	36.1760
 1.1340	36.0880
 1.1350	35.9940
 1.1360	35.8960
 1.1370	35.7930
 1.1380	35.6840
 1.1390	35.5690
 1.1400	35.4470
 1.1410	35.3240
 1.1420	35.1970
 1.1430	35.0670
 1.1440	34.9390
 1.1450	34.8100
 1.1460	34.6840
 1.1470	34.5570
 1.1480	34.4370
 1.1490	34.3190
 1.1500	34.2080
 1.1510	34.1020
 1.1520	34.0010
 1.1530	33.9050
 1.1540	33.8140
 1.1550	33.7290
 1.1560	33.6480
 1.1570	33.5730
 1.1580	33.5030
 1.1590	33.4380
 1.1600	33.3780
 1.1610	33.3230
 1.1620	33.2710
 1.1630	33.2230
 1.1640	33.1800
 1.1650	33.1380
 1.1660	33.0970
 1.1670	33.0590
 1.1680	33.0240
 1.1690	32.9880
 1.1700	32.9550
 1.1710	32.9230
 1.1720	32.8910
 1.1730	32.8590
 1.1740	32.8280
 1.1750	32.7980
 1.1760	32.7660
 1.1770	32.7320
 1.1780	32.7000
 1.1790	32.6660
 1.1800	32.6340
 1.1810	32.6020
 1.1820	32.5700
 1.1830	32.5400
 1.1840	32.5100
 1.1850	32.4820
 1.1860	32.4560
 1.1870	32.4310
 1.1880	32.4090
 1.1890	32.3900
 1.1900	32.3720
 1.1910	32.3570
 1.1920	32.3450
 1.1930	32.3350
 1.1940	32.3280
 1.1950	32.3250
 1.1960	32.3250
 1.1970	32.3240
 1.1980	32.3250
 1.1990	32.3280
 1.2000	32.3310
 1.2010	32.3380
 1.2020	32.3470
 1.2030	32.3560
 1.2040	32.3690
 1.2050	32.3810
 1.2060	32.3950
 1.2070	32.4100
 1.2080	32.4250
 1.2090	32.4440
 1.2100	32.4650
 1.2110	32.4860
 1.2120	32.5090
 1.2130	32.5320
 1.2140	32.5550
 1.2150	32.5790
 1.2160	32.6060
 1.2170	32.6320
 1.2180	32.6590
 1.2190	32.6880
 1.2200	32.7160
 1.2210	32.7460
 1.2220	32.7770
 1.2230	32.8070
 1.2240	32.8370
 1.2250	32.8660
 1.2260	32.8940
 1.2270	32.9220
 1.2280	32.9500
 1.2290	32.9760
 1.2300	33.0000
 1.2310	33.0220
 1.2320	33.0450
 1.2330	33.0670
 1.2340	33.0890
 1.2350	33.1130
 1.2360	33.1340
 1.2370	33.1520
 1.2380	33.1690
 1.2390	33.1860
 1.2400	33.2020
 1.2410	33.2200
 1.2420	33.2360
 1.2430	33.2510
 1.2440	33.2660
 1.2450	33.2820
 1.2460	33.2970
 1.2470	33.3110
 1.2480	33.3240
 1.2490	33.3360
 1.2500	33.3480
 1.2510	33.3600
 1.2520	33.3720
 1.2530	33.3790
 1.2540	33.3870
 1.2550	33.3940
 1.2560	33.3990
 1.2570	33.4050
 1.2580	33.4110
 1.2590	33.4160
 1.2600	33.4190
 1.2610	33.4220
 1.2620	33.4240
 1.2630	33.4250
 1.2640	33.4250
 1.2650	33.4240
 1.2660	33.4230
 1.2670	33.4210
 1.2680	33.4190
 1.2690	33.4170
 1.2700	33.4140
 1.2710	33.4090
 1.2720	33.4040
 1.2730	33.3980
 1.2740	33.3930
 1.2750	33.3860
 1.2760	33.3780
 1.2770	33.3670
 1.2780	33.3540
 1.2790	33.3420
 1.2800	33.3290
 1.2810	33.3130
 1.2820	33.2980
 1.2830	33.2780
 1.2840	33.2570
 1.2850	33.2370
 1.2860	33.2140
 1.2870	33.1880
 1.2880	33.1600
 1.2890	33.1310
 1.2900	33.1000
 1.2910	33.0680
 1.2920	33.0330
 1.2930	32.9950
 1.2940	32.9550
 1.2950	32.9120
 1.2960	32.8660
 1.2970	32.8190
 1.2980	32.7690
 1.2990	32.7150
 1.3000	32.6610
 1.3010	32.6040
 1.3020	32.5440
 1.3030	32.4830
 1.3040	32.4230
 1.3050	32.3590
 1.3060	32.2930
 1.3070	32.2260
 1.3080	32.1550
 1.3090	32.0830
 1.3100	32.0090
 1.3110	31.9330
 1.3120	31.8530
 1.3130	31.7720
 1.3140	31.6890
 1.3150	31.6040
 1.3160	31.5180
 1.3170	31.4300
 1.3180	31.3390
 1.3190	31.2450
 1.3200	31.1480
 1.3210	31.0480
 1.3220	30.9460
 1.3230	30.8430
 1.3240	30.7380
 1.3250	30.6320
 1.3260	30.5240
 1.3270	30.4120
 1.3280	30.2980
 1.3290	30.1840
 1.3300	30.0670
 1.3310	29.9520
 1.3320	29.8360
 1.3330	29.7190
 1.3340	29.6020
 1.3350	29.4830
 1.3360	29.3630
 1.3370	29.2430
 1.3380	29.1220
 1.3390	29.0020
 1.3400	28.8810
 1.3410	28.7630
 1.3420	28.6440
 1.3430	28.5260
 1.3440	28.4110
 1.3450	28.2960
 1.3460	28.1810
 1.3470	28.0670
 1.3480	27.9530
 1.3490	27.8420
 1.3500	27.7310
 1.3510	27.6230
 1.3520	27.5150
 1.3530	27.4080
 1.3540	27.3000
 1.3550	27.1940
 1.3560	27.0880
 1.3570	26.9820
 1.3580	26.8750
 1.3590	26.7660
 1.3600	26.6540
 1.3610	26.5400
 1.3620	26.4220
 1.3630	26.3010
 1.3640	26.1750
 1.3650	26.0450
 1.3660	25.9110
 1.3670	25.7680
 1.3680	25.6170
 1.3690	25.4570
 1.3700	25.2860
 1.3710	25.1070
 1.3720	24.9170
 1.3730	24.7130
 1.3740	24.5000
 1.3750	24.2720
 1.3760	24.0280
 1.3770	23.7680
 1.3780	23.4890
 1.3790	23.1940
 1.3800	22.8800
 1.3810	22.5460
 1.3820	22.1990
 1.3830	21.8360
 1.3840	21.4580
 1.3850	21.0660
 1.3860	20.6640
 1.3870	20.2450
 1.3880	19.8250
 1.3890	19.3980
 1.3900	18.9650
 1.3910	18.5340
 1.3920	18.0990
 1.3930	17.6630
 1.3940	17.2320
 1.3950	16.8010
 1.3960	16.3790
 1.3970	15.9660
 1.3980	15.5630
 1.3990	15.1760
 1.4000	14.8020
 1.4010	14.4400
 1.4020	14.0930
 1.4030	13.7590
 1.4040	13.4400
 1.4050	13.1380
 1.4060	12.8510
 1.4070	12.5820
 1.4080	12.3290
 1.4090	12.0890
 1.4100	11.8640
 1.4110	11.6530
 1.4120	11.4540
 1.4130	11.2690
 1.4140	11.0980
 1.4150	10.9380
 1.4160	10.7900
 1.4170	10.6520
 1.4180	10.5230
 1.4190	10.4020
 1.4200	10.2900
 1.4210	10.1870
 1.4220	10.0920
 1.4230	10.0040
 1.4240	 9.9230
 1.4250	 9.8460
 1.4260	 9.7750
 1.4270	 9.7090
 1.4280	 9.6480
 1.4290	 9.5920
 1.4300	 9.5410
 1.4310	 9.4940
 1.4320	 9.4520
 1.4330	 9.4130
 1.4340	 9.3790
 1.4350	 9.3470
 1.4360	 9.3180
 1.4370	 9.2920
 1.4380	 9.2680
 1.4390	 9.2480
 1.4400	 9.2300
 1.4410	 9.2150
 1.4420	 9.2010
 1.4430	 9.1900
 1.4440	 9.1810
 1.4450	 9.1730
 1.4460	 9.1670
 1.4470	 9.1630
 1.4480	 9.1590
 1.4490	 9.1580
 1.4500	 9.1590
 1.4510	 9.1600
 1.4520	 9.1620
 1.4530	 9.1670
 1.4540	 9.1720
 1.4550	 9.1790
 1.4560	 9.1880
 1.4570	 9.1970
 1.4580	 9.2090
 1.4590	 9.2230
 1.4600	 9.2400
 1.4610	 9.2590
 1.4620	 9.2810
 1.4630	 9.3050
 1.4640	 9.3330
 1.4650	 9.3650
 1.4660	 9.3990
 1.4670	 9.4360
 1.4680	 9.4760
 1.4690	 9.5180
 1.4700	 9.5620
 1.4710	 9.6090
 1.4720	 9.6580
 1.4730	 9.7090
 1.4740	 9.7650
 1.4750	 9.8220
 1.4760	 9.8830
 1.4770	 9.9450
