Name: Baccharis pilularis 1
Type: vegetation
Class: Shrub
Genus: Baccharis
Species: pilularis
Sample No.: VH032
Owner: UCSB
Wavelength Range: VSWIR
Origin: 34.5084; -119.7687; WGS84
Collection Date: 4/1/2013
Description: Samples were collected as part of the HyspIRI Airborne Campaign. 48 individual plants were sampled in three times in 2013 - spring  summer  and fall. The name of the sample includes a 1  2  or 3 which references a different individual of the species. Samples were taken to JPL and processed within 48 hours of collection. The same leaves were processed in the Nicolet and then measured using the ASD.
Measurement: Bidirectional reflectance
First Column: X
Second Column: Y
X Units: Wavelength (micrometers)
Y Units: Reflectance (percentage)
First X Value: 0.35
Last X Value: 2.5
Number of X Values: 2151
Additional Information: vegetation.shrub.baccharis.pilularis.vswir.vh032.ucsb.asd.ancillary.txt

 0.3500	 4.7130
 0.3510	 4.7770
 0.3520	 4.4950
 0.3530	 4.3300
 0.3540	 4.5630
 0.3550	 4.4370
 0.3560	 4.3410
 0.3570	 4.3380
 0.3580	 4.3240
 0.3590	 4.3470
 0.3600	 4.3290
 0.3610	 4.2900
 0.3620	 4.4050
 0.3630	 4.4910
 0.3640	 4.4280
 0.3650	 4.2230
 0.3660	 4.2590
 0.3670	 4.2650
 0.3680	 4.2280
 0.3690	 4.3030
 0.3700	 4.3150
 0.3710	 4.3060
 0.3720	 4.3250
 0.3730	 4.3900
 0.3740	 4.3370
 0.3750	 4.2510
 0.3760	 4.2590
 0.3770	 4.2550
 0.3780	 4.2340
 0.3790	 4.2100
 0.3800	 4.2100
 0.3810	 4.2680
 0.3820	 4.2970
 0.3830	 4.2510
 0.3840	 4.2010
 0.3850	 4.2900
 0.3860	 4.3550
 0.3870	 4.2070
 0.3880	 4.2080
 0.3890	 4.2150
 0.3900	 4.1810
 0.3910	 4.1940
 0.3920	 4.2330
 0.3930	 4.2450
 0.3940	 4.2100
 0.3950	 4.1990
 0.3960	 4.2400
 0.3970	 4.2810
 0.3980	 4.2490
 0.3990	 4.2450
 0.4000	 4.2440
 0.4010	 4.2270
 0.4020	 4.1940
 0.4030	 4.2000
 0.4040	 4.2080
 0.4050	 4.1870
 0.4060	 4.2260
 0.4070	 4.2560
 0.4080	 4.2440
 0.4090	 4.1900
 0.4100	 4.1850
 0.4110	 4.2030
 0.4120	 4.2160
 0.4130	 4.2220
 0.4140	 4.2220
 0.4150	 4.2210
 0.4160	 4.2250
 0.4170	 4.2310
 0.4180	 4.2550
 0.4190	 4.2800
 0.4200	 4.2600
 0.4210	 4.2580
 0.4220	 4.2750
 0.4230	 4.2940
 0.4240	 4.2980
 0.4250	 4.3130
 0.4260	 4.3300
 0.4270	 4.3310
 0.4280	 4.3540
 0.4290	 4.3850
 0.4300	 4.4080
 0.4310	 4.4160
 0.4320	 4.4350
 0.4330	 4.4500
 0.4340	 4.4490
 0.4350	 4.4680
 0.4360	 4.4910
 0.4370	 4.5030
 0.4380	 4.4960
 0.4390	 4.5030
 0.4400	 4.5200
 0.4410	 4.5360
 0.4420	 4.5500
 0.4430	 4.5640
 0.4440	 4.5710
 0.4450	 4.5680
 0.4460	 4.5920
 0.4470	 4.6130
 0.4480	 4.6210
 0.4490	 4.6360
 0.4500	 4.6470
 0.4510	 4.6530
 0.4520	 4.6620
 0.4530	 4.6890
 0.4540	 4.6990
 0.4550	 4.6960
 0.4560	 4.7080
 0.4570	 4.7060
 0.4580	 4.7090
 0.4590	 4.7270
 0.4600	 4.7340
 0.4610	 4.7450
 0.4620	 4.7560
 0.4630	 4.7560
 0.4640	 4.7590
 0.4650	 4.7620
 0.4660	 4.7640
 0.4670	 4.7720
 0.4680	 4.7720
 0.4690	 4.7700
 0.4700	 4.7700
 0.4710	 4.7560
 0.4720	 4.7560
 0.4730	 4.7690
 0.4740	 4.7790
 0.4750	 4.7750
 0.4760	 4.7760
 0.4770	 4.7860
 0.4780	 4.7800
 0.4790	 4.7750
 0.4800	 4.7790
 0.4810	 4.7940
 0.4820	 4.7870
 0.4830	 4.7900
 0.4840	 4.8020
 0.4850	 4.7930
 0.4860	 4.8080
 0.4870	 4.8250
 0.4880	 4.8230
 0.4890	 4.8290
 0.4900	 4.8390
 0.4910	 4.8540
 0.4920	 4.8700
 0.4930	 4.8860
 0.4940	 4.9030
 0.4950	 4.9230
 0.4960	 4.9450
 0.4970	 4.9650
 0.4980	 4.9860
 0.4990	 5.0120
 0.5000	 5.0440
 0.5010	 5.0770
 0.5020	 5.1090
 0.5030	 5.1400
 0.5040	 5.1780
 0.5050	 5.2250
 0.5060	 5.2810
 0.5070	 5.3360
 0.5080	 5.3980
 0.5090	 5.4650
 0.5100	 5.5330
 0.5110	 5.6170
 0.5120	 5.7130
 0.5130	 5.8190
 0.5140	 5.9300
 0.5150	 6.0510
 0.5160	 6.1850
 0.5170	 6.3360
 0.5180	 6.4890
 0.5190	 6.6460
 0.5200	 6.8120
 0.5210	 6.9920
 0.5220	 7.1740
 0.5230	 7.3610
 0.5240	 7.5520
 0.5250	 7.7360
 0.5260	 7.9190
 0.5270	 8.1000
 0.5280	 8.2760
 0.5290	 8.4380
 0.5300	 8.5880
 0.5310	 8.7300
 0.5320	 8.8700
 0.5330	 9.0050
 0.5340	 9.1290
 0.5350	 9.2410
 0.5360	 9.3430
 0.5370	 9.4400
 0.5380	 9.5320
 0.5390	 9.6120
 0.5400	 9.6910
 0.5410	 9.7670
 0.5420	 9.8400
 0.5430	 9.9080
 0.5440	 9.9720
 0.5450	10.0330
 0.5460	10.0910
 0.5470	10.1330
 0.5480	10.1680
 0.5490	10.2030
 0.5500	10.2320
 0.5510	10.2550
 0.5520	10.2670
 0.5530	10.2640
 0.5540	10.2530
 0.5550	10.2300
 0.5560	10.1930
 0.5570	10.1450
 0.5580	10.0890
 0.5590	10.0220
 0.5600	 9.9410
 0.5610	 9.8610
 0.5620	 9.7730
 0.5630	 9.6740
 0.5640	 9.5650
 0.5650	 9.4550
 0.5660	 9.3410
 0.5670	 9.2220
 0.5680	 9.1070
 0.5690	 8.9880
 0.5700	 8.8610
 0.5710	 8.7310
 0.5720	 8.6120
 0.5730	 8.4980
 0.5740	 8.3890
 0.5750	 8.2860
 0.5760	 8.1860
 0.5770	 8.0910
 0.5780	 8.0040
 0.5790	 7.9200
 0.5800	 7.8430
 0.5810	 7.7710
 0.5820	 7.7040
 0.5830	 7.6470
 0.5840	 7.6000
 0.5850	 7.5590
 0.5860	 7.5170
 0.5870	 7.4750
 0.5880	 7.4370
 0.5890	 7.4050
 0.5900	 7.3720
 0.5910	 7.3450
 0.5920	 7.3240
 0.5930	 7.3080
 0.5940	 7.2890
 0.5950	 7.2680
 0.5960	 7.2480
 0.5970	 7.2350
 0.5980	 7.2210
 0.5990	 7.2040
 0.6000	 7.1860
 0.6010	 7.1600
 0.6020	 7.1270
 0.6030	 7.0890
 0.6040	 7.0490
 0.6050	 7.0040
 0.6060	 6.9540
 0.6070	 6.9000
 0.6080	 6.8400
 0.6090	 6.7820
 0.6100	 6.7270
 0.6110	 6.6740
 0.6120	 6.6150
 0.6130	 6.5520
 0.6140	 6.4890
 0.6150	 6.4360
 0.6160	 6.3840
 0.6170	 6.3340
 0.6180	 6.2900
 0.6190	 6.2530
 0.6200	 6.2220
 0.6210	 6.1940
 0.6220	 6.1680
 0.6230	 6.1410
 0.6240	 6.1200
 0.6250	 6.1080
 0.6260	 6.0950
 0.6270	 6.0850
 0.6280	 6.0760
 0.6290	 6.0650
 0.6300	 6.0630
 0.6310	 6.0620
 0.6320	 6.0580
 0.6330	 6.0530
 0.6340	 6.0390
 0.6350	 6.0210
 0.6360	 6.0040
 0.6370	 5.9860
 0.6380	 5.9610
 0.6390	 5.9320
 0.6400	 5.8990
 0.6410	 5.8620
 0.6420	 5.8240
 0.6430	 5.7840
 0.6440	 5.7400
 0.6450	 5.6980
 0.6460	 5.6550
 0.6470	 5.6090
 0.6480	 5.5680
 0.6490	 5.5270
 0.6500	 5.4860
 0.6510	 5.4560
 0.6520	 5.4260
 0.6530	 5.3950
 0.6540	 5.3620
 0.6550	 5.3310
 0.6560	 5.2960
 0.6570	 5.2580
 0.6580	 5.2180
 0.6590	 5.1790
 0.6600	 5.1410
 0.6610	 5.1050
 0.6620	 5.0670
 0.6630	 5.0350
 0.6640	 5.0080
 0.6650	 4.9820
 0.6660	 4.9640
 0.6670	 4.9460
 0.6680	 4.9300
 0.6690	 4.9220
 0.6700	 4.9190
 0.6710	 4.9190
 0.6720	 4.9210
 0.6730	 4.9240
 0.6740	 4.9310
 0.6750	 4.9390
 0.6760	 4.9460
 0.6770	 4.9620
 0.6780	 4.9770
 0.6790	 4.9900
 0.6800	 5.0090
 0.6810	 5.0370
 0.6820	 5.0670
 0.6830	 5.1000
 0.6840	 5.1460
 0.6850	 5.2000
 0.6860	 5.2610
 0.6870	 5.3320
 0.6880	 5.4280
 0.6890	 5.5480
 0.6900	 5.6970
 0.6910	 5.8820
 0.6920	 6.1070
 0.6930	 6.3760
 0.6940	 6.6920
 0.6950	 7.0640
 0.6960	 7.4920
 0.6970	 7.9770
 0.6980	 8.5170
 0.6990	 9.1100
 0.7000	 9.7540
 0.7010	10.4450
 0.7020	11.1790
 0.7030	11.9510
 0.7040	12.7560
 0.7050	13.5880
 0.7060	14.4450
 0.7070	15.3220
 0.7080	16.2160
 0.7090	17.1300
 0.7100	18.0600
 0.7110	19.0030
 0.7120	19.9590
 0.7130	20.9250
 0.7140	21.8960
 0.7150	22.8740
 0.7160	23.8600
 0.7170	24.8470
 0.7180	25.8300
 0.7190	26.8100
 0.7200	27.7870
 0.7210	28.7540
 0.7220	29.7140
 0.7230	30.6600
 0.7240	31.5800
 0.7250	32.4820
 0.7260	33.3610
 0.7270	34.2120
 0.7280	35.0460
 0.7290	35.8390
 0.7300	36.5990
 0.7310	37.3380
 0.7320	38.0370
 0.7330	38.7010
 0.7340	39.3350
 0.7350	39.9440
 0.7360	40.5260
 0.7370	41.0700
 0.7380	41.5740
 0.7390	42.0620
 0.7400	42.5280
 0.7410	42.9630
 0.7420	43.3630
 0.7430	43.7460
 0.7440	44.1040
 0.7450	44.4350
 0.7460	44.7470
 0.7470	45.0380
 0.7480	45.3070
 0.7490	45.5510
 0.7500	45.7760
 0.7510	45.9840
 0.7520	46.1760
 0.7530	46.3530
 0.7540	46.5090
 0.7550	46.6550
 0.7560	46.7960
 0.7570	46.9280
 0.7580	47.0380
 0.7590	47.1430
 0.7600	47.2500
 0.7610	47.3340
 0.7620	47.4100
 0.7630	47.4860
 0.7640	47.5640
 0.7650	47.6190
 0.7660	47.6700
 0.7670	47.7250
 0.7680	47.7850
 0.7690	47.8260
 0.7700	47.8620
 0.7710	47.9010
 0.7720	47.9450
 0.7730	47.9800
 0.7740	48.0130
 0.7750	48.0490
 0.7760	48.0720
 0.7770	48.1010
 0.7780	48.1290
 0.7790	48.1430
 0.7800	48.1680
 0.7810	48.2000
 0.7820	48.2320
 0.7830	48.2610
 0.7840	48.2780
 0.7850	48.2940
 0.7860	48.3170
 0.7870	48.3380
 0.7880	48.3530
 0.7890	48.3680
 0.7900	48.3900
 0.7910	48.4000
 0.7920	48.4130
 0.7930	48.4310
 0.7940	48.4440
 0.7950	48.4560
 0.7960	48.4710
 0.7970	48.4860
 0.7980	48.4890
 0.7990	48.4980
 0.8000	48.5060
 0.8010	48.5050
 0.8020	48.5060
 0.8030	48.5130
 0.8040	48.5200
 0.8050	48.5210
 0.8060	48.5170
 0.8070	48.5120
 0.8080	48.5110
 0.8090	48.5120
 0.8100	48.5070
 0.8110	48.5020
 0.8120	48.5000
 0.8130	48.4910
 0.8140	48.4740
 0.8150	48.4630
 0.8160	48.4640
 0.8170	48.4560
 0.8180	48.4400
 0.8190	48.4220
 0.8200	48.4130
 0.8210	48.4010
 0.8220	48.3860
 0.8230	48.3710
 0.8240	48.3600
 0.8250	48.3390
 0.8260	48.3160
 0.8270	48.2980
 0.8280	48.2820
 0.8290	48.2600
 0.8300	48.2330
 0.8310	48.2060
 0.8320	48.1920
 0.8330	48.1690
 0.8340	48.1380
 0.8350	48.1120
 0.8360	48.0950
 0.8370	48.0840
 0.8380	48.0760
 0.8390	48.0710
 0.8400	48.0560
 0.8410	48.0460
 0.8420	48.0450
 0.8430	48.0420
 0.8440	48.0330
 0.8450	48.0260
 0.8460	48.0240
 0.8470	48.0110
 0.8480	47.9980
 0.8490	47.9930
 0.8500	47.9990
 0.8510	47.9900
 0.8520	47.9870
 0.8530	47.9910
 0.8540	47.9900
 0.8550	47.9770
 0.8560	47.9730
 0.8570	47.9850
 0.8580	47.9930
 0.8590	47.9920
 0.8600	47.9920
 0.8610	47.9970
 0.8620	47.9850
 0.8630	47.9810
 0.8640	47.9850
 0.8650	47.9910
 0.8660	47.9950
 0.8670	47.9930
 0.8680	47.9860
 0.8690	47.9790
 0.8700	47.9940
 0.8710	48.0090
 0.8720	48.0210
 0.8730	48.0330
 0.8740	48.0370
 0.8750	48.0350
 0.8760	48.0330
 0.8770	48.0360
 0.8780	48.0440
 0.8790	48.0480
 0.8800	48.0490
 0.8810	48.0540
 0.8820	48.0530
 0.8830	48.0550
 0.8840	48.0660
 0.8850	48.0810
 0.8860	48.0760
 0.8870	48.0730
 0.8880	48.0910
 0.8890	48.0870
 0.8900	48.0850
 0.8910	48.0900
 0.8920	48.0990
 0.8930	48.0940
 0.8940	48.0980
 0.8950	48.1040
 0.8960	48.0920
 0.8970	48.0890
 0.8980	48.0970
 0.8990	48.1080
 0.9000	48.1070
 0.9010	48.1000
 0.9020	48.0990
 0.9030	48.1070
 0.9040	48.1200
 0.9050	48.1320
 0.9060	48.1350
 0.9070	48.1310
 0.9080	48.1290
 0.9090	48.1220
 0.9100	48.1150
 0.9110	48.1160
 0.9120	48.1260
 0.9130	48.1130
 0.9140	48.0880
 0.9150	48.0760
 0.9160	48.0850
 0.9170	48.0870
 0.9180	48.0740
 0.9190	48.0550
 0.9200	48.0400
 0.9210	48.0200
 0.9220	48.0030
 0.9230	47.9990
 0.9240	47.9550
 0.9250	47.9200
 0.9260	47.8940
 0.9270	47.8460
 0.9280	47.8160
 0.9290	47.7750
 0.9300	47.7180
 0.9310	47.6660
 0.9320	47.6030
 0.9330	47.5430
 0.9340	47.4940
 0.9350	47.4510
 0.9360	47.3800
 0.9370	47.2920
 0.9380	47.2020
 0.9390	47.1240
 0.9400	47.0610
 0.9410	46.9970
 0.9420	46.9200
 0.9430	46.8290
 0.9440	46.7390
 0.9450	46.6420
 0.9460	46.5300
 0.9470	46.4040
 0.9480	46.2850
 0.9490	46.1570
 0.9500	46.0070
 0.9510	45.8580
 0.9520	45.6940
 0.9530	45.5270
 0.9540	45.3710
 0.9550	45.2180
 0.9560	45.0560
 0.9570	44.8950
 0.9580	44.7520
 0.9590	44.6440
 0.9600	44.5300
 0.9610	44.4310
 0.9620	44.3660
 0.9630	44.2820
 0.9640	44.1980
 0.9650	44.1320
 0.9660	44.0900
 0.9670	44.0480
 0.9680	44.0210
 0.9690	44.0020
 0.9700	43.9770
 0.9710	43.9380
 0.9720	43.9270
 0.9730	43.9230
 0.9740	43.8900
 0.9750	43.8900
 0.9760	43.9120
 0.9770	43.9280
 0.9780	43.9180
 0.9790	43.9250
 0.9800	43.9350
 0.9810	43.9540
 0.9820	43.9920
 0.9830	44.0190
 0.9840	44.0560
 0.9850	44.0930
 0.9860	44.1170
 0.9870	44.1470
 0.9880	44.1840
 0.9890	44.2300
 0.9900	44.2840
 0.9910	44.3300
 0.9920	44.4090
 0.9930	44.4880
 0.9940	44.5670
 0.9950	44.6450
 0.9960	44.7240
 0.9970	44.8030
 0.9980	44.8810
 0.9990	44.9600
 1.0000	45.0390
 1.0010	45.1170
 1.0020	45.1960
 1.0030	45.2750
 1.0040	45.3540
 1.0050	45.4320
 1.0060	45.5110
 1.0070	45.5900
 1.0080	45.6680
 1.0090	45.7470
 1.0100	45.7470
 1.0110	45.8040
 1.0120	45.8590
 1.0130	45.9100
 1.0140	45.9630
 1.0150	46.0150
 1.0160	46.0690
 1.0170	46.1200
 1.0180	46.1720
 1.0190	46.2210
 1.0200	46.2690
 1.0210	46.3200
 1.0220	46.3710
 1.0230	46.4220
 1.0240	46.4770
 1.0250	46.5260
 1.0260	46.5720
 1.0270	46.6180
 1.0280	46.6610
 1.0290	46.7060
 1.0300	46.7540
 1.0310	46.7980
 1.0320	46.8430
 1.0330	46.8850
 1.0340	46.9270
 1.0350	46.9690
 1.0360	47.0090
 1.0370	47.0520
 1.0380	47.0930
 1.0390	47.1350
 1.0400	47.1720
 1.0410	47.2080
 1.0420	47.2410
 1.0430	47.2670
 1.0440	47.2970
 1.0450	47.3260
 1.0460	47.3550
 1.0470	47.3880
 1.0480	47.4160
 1.0490	47.4410
 1.0500	47.4660
 1.0510	47.4920
 1.0520	47.5120
 1.0530	47.5340
 1.0540	47.5570
 1.0550	47.5770
 1.0560	47.5970
 1.0570	47.6140
 1.0580	47.6300
 1.0590	47.6450
 1.0600	47.6600
 1.0610	47.6710
 1.0620	47.6780
 1.0630	47.6850
 1.0640	47.6900
 1.0650	47.6940
 1.0660	47.7010
 1.0670	47.7030
 1.0680	47.7030
 1.0690	47.6990
 1.0700	47.6960
 1.0710	47.6910
 1.0720	47.6860
 1.0730	47.6810
 1.0740	47.6760
 1.0750	47.6710
 1.0760	47.6640
 1.0770	47.6580
 1.0780	47.6460
 1.0790	47.6270
 1.0800	47.6140
 1.0810	47.6050
 1.0820	47.5900
 1.0830	47.5740
 1.0840	47.5580
 1.0850	47.5360
 1.0860	47.5140
 1.0870	47.4930
 1.0880	47.4760
 1.0890	47.4550
 1.0900	47.4300
 1.0910	47.4070
 1.0920	47.3860
 1.0930	47.3610
 1.0940	47.3360
 1.0950	47.3090
 1.0960	47.2800
 1.0970	47.2510
 1.0980	47.2230
 1.0990	47.1940
 1.1000	47.1640
 1.1010	47.1330
 1.1020	47.1010
 1.1030	47.0680
 1.1040	47.0320
 1.1050	46.9990
 1.1060	46.9640
 1.1070	46.9310
 1.1080	46.8950
 1.1090	46.8600
 1.1100	46.8200
 1.1110	46.7760
 1.1120	46.7330
 1.1130	46.6870
 1.1140	46.6420
 1.1150	46.6020
 1.1160	46.5520
 1.1170	46.5010
 1.1180	46.4400
 1.1190	46.3720
 1.1200	46.2960
 1.1210	46.2200
 1.1220	46.1370
 1.1230	46.0440
 1.1240	45.9430
 1.1250	45.8300
 1.1260	45.7050
 1.1270	45.5690
 1.1280	45.4270
 1.1290	45.2660
 1.1300	45.0940
 1.1310	44.9020
 1.1320	44.6930
 1.1330	44.4710
 1.1340	44.2320
 1.1350	43.9810
 1.1360	43.7150
 1.1370	43.4370
 1.1380	43.1470
 1.1390	42.8480
 1.1400	42.5380
 1.1410	42.2270
 1.1420	41.9140
 1.1430	41.5980
 1.1440	41.2870
 1.1450	40.9720
 1.1460	40.6740
 1.1470	40.3750
 1.1480	40.0990
 1.1490	39.8340
 1.1500	39.5900
 1.1510	39.3600
 1.1520	39.1480
 1.1530	38.9530
 1.1540	38.7770
 1.1550	38.6200
 1.1560	38.4810
 1.1570	38.3620
 1.1580	38.2580
 1.1590	38.1680
 1.1600	38.0900
 1.1610	38.0260
 1.1620	37.9730
 1.1630	37.9290
 1.1640	37.8950
 1.1650	37.8650
 1.1660	37.8420
 1.1670	37.8220
 1.1680	37.8080
 1.1690	37.7950
 1.1700	37.7880
 1.1710	37.7800
 1.1720	37.7740
 1.1730	37.7680
 1.1740	37.7610
 1.1750	37.7550
 1.1760	37.7500
 1.1770	37.7430
 1.1780	37.7340
 1.1790	37.7240
 1.1800	37.7130
 1.1810	37.7000
 1.1820	37.6880
 1.1830	37.6760
 1.1840	37.6630
 1.1850	37.6500
 1.1860	37.6370
 1.1870	37.6240
 1.1880	37.6130
 1.1890	37.5990
 1.1900	37.5910
 1.1910	37.5850
 1.1920	37.5820
 1.1930	37.5830
 1.1940	37.5850
 1.1950	37.5910
 1.1960	37.5980
 1.1970	37.6070
 1.1980	37.6200
 1.1990	37.6360
 1.2000	37.6530
 1.2010	37.6730
 1.2020	37.6940
 1.2030	37.7190
 1.2040	37.7480
 1.2050	37.7760
 1.2060	37.8080
 1.2070	37.8440
 1.2080	37.8780
 1.2090	37.9140
 1.2100	37.9530
 1.2110	37.9920
 1.2120	38.0300
 1.2130	38.0710
 1.2140	38.1160
 1.2150	38.1590
 1.2160	38.2040
 1.2170	38.2490
 1.2180	38.2930
 1.2190	38.3380
 1.2200	38.3850
 1.2210	38.4310
 1.2220	38.4780
 1.2230	38.5260
 1.2240	38.5690
 1.2250	38.6140
 1.2260	38.6580
 1.2270	38.7000
 1.2280	38.7440
 1.2290	38.7870
 1.2300	38.8290
 1.2310	38.8670
 1.2320	38.9040
 1.2330	38.9380
 1.2340	38.9730
 1.2350	39.0080
 1.2360	39.0440
 1.2370	39.0800
 1.2380	39.1160
 1.2390	39.1500
 1.2400	39.1810
 1.2410	39.2110
 1.2420	39.2400
 1.2430	39.2670
 1.2440	39.2960
 1.2450	39.3250
 1.2460	39.3520
 1.2470	39.3770
 1.2480	39.4000
 1.2490	39.4220
 1.2500	39.4440
 1.2510	39.4640
 1.2520	39.4830
 1.2530	39.4980
 1.2540	39.5120
 1.2550	39.5250
 1.2560	39.5370
 1.2570	39.5460
 1.2580	39.5550
 1.2590	39.5610
 1.2600	39.5670
 1.2610	39.5690
 1.2620	39.5690
 1.2630	39.5660
 1.2640	39.5630
 1.2650	39.5580
 1.2660	39.5520
 1.2670	39.5440
 1.2680	39.5330
 1.2690	39.5200
 1.2700	39.5050
 1.2710	39.4910
 1.2720	39.4740
 1.2730	39.4520
 1.2740	39.4270
 1.2750	39.4010
 1.2760	39.3720
 1.2770	39.3400
 1.2780	39.3090
 1.2790	39.2730
 1.2800	39.2330
 1.2810	39.1930
 1.2820	39.1490
 1.2830	39.1020
 1.2840	39.0530
 1.2850	39.0000
 1.2860	38.9450
 1.2870	38.8840
 1.2880	38.8190
 1.2890	38.7510
 1.2900	38.6770
 1.2910	38.5990
 1.2920	38.5180
 1.2930	38.4320
 1.2940	38.3450
 1.2950	38.2520
 1.2960	38.1550
 1.2970	38.0550
 1.2980	37.9470
 1.2990	37.8340
 1.3000	37.7180
 1.3010	37.5940
 1.3020	37.4670
 1.3030	37.3380
 1.3040	37.2020
 1.3050	37.0610
 1.3060	36.9180
 1.3070	36.7660
 1.3080	36.6120
 1.3090	36.4570
 1.3100	36.2940
 1.3110	36.1260
 1.3120	35.9550
 1.3130	35.7780
 1.3140	35.5980
 1.3150	35.4140
 1.3160	35.2260
 1.3170	35.0350
 1.3180	34.8390
 1.3190	34.6380
 1.3200	34.4350
 1.3210	34.2240
 1.3220	34.0080
 1.3230	33.7910
 1.3240	33.5690
 1.3250	33.3490
 1.3260	33.1260
 1.3270	32.9000
 1.3280	32.6740
 1.3290	32.4430
 1.3300	32.2110
 1.3310	31.9780
 1.3320	31.7420
 1.3330	31.5090
 1.3340	31.2770
 1.3350	31.0460
 1.3360	30.8160
 1.3370	30.5850
 1.3380	30.3570
 1.3390	30.1320
 1.3400	29.9090
 1.3410	29.6910
 1.3420	29.4750
 1.3430	29.2620
 1.3440	29.0540
 1.3450	28.8480
 1.3460	28.6450
 1.3470	28.4460
 1.3480	28.2500
 1.3490	28.0570
 1.3500	27.8700
 1.3510	27.6820
 1.3520	27.4950
 1.3530	27.3090
 1.3540	27.1240
 1.3550	26.9400
 1.3560	26.7560
 1.3570	26.5710
 1.3580	26.3850
 1.3590	26.1960
 1.3600	26.0030
 1.3610	25.8070
 1.3620	25.6020
 1.3630	25.3890
 1.3640	25.1700
 1.3650	24.9410
 1.3660	24.7070
 1.3670	24.4630
 1.3680	24.2040
 1.3690	23.9300
 1.3700	23.6390
 1.3710	23.3340
 1.3720	23.0150
 1.3730	22.6780
 1.3740	22.3280
 1.3750	21.9600
 1.3760	21.5710
 1.3770	21.1640
 1.3780	20.7350
 1.3790	20.2890
 1.3800	19.8280
 1.3810	19.3480
 1.3820	18.8620
 1.3830	18.3640
 1.3840	17.8610
 1.3850	17.3470
 1.3860	16.8380
 1.3870	16.3180
 1.3880	15.8110
 1.3890	15.3060
 1.3900	14.8070
 1.3910	14.3230
 1.3920	13.8480
 1.3930	13.3840
 1.3940	12.9390
 1.3950	12.5050
 1.3960	12.0920
 1.3970	11.6990
 1.3980	11.3240
 1.3990	10.9750
 1.4000	10.6470
 1.4010	10.3370
 1.4020	10.0490
 1.4030	 9.7800
 1.4040	 9.5290
 1.4050	 9.2980
 1.4060	 9.0850
 1.4070	 8.8920
 1.4080	 8.7140
 1.4090	 8.5500
 1.4100	 8.4010
 1.4110	 8.2650
 1.4120	 8.1400
 1.4130	 8.0270
 1.4140	 7.9240
 1.4150	 7.8310
 1.4160	 7.7470
 1.4170	 7.6710
 1.4180	 7.6030
 1.4190	 7.5410
 1.4200	 7.4850
 1.4210	 7.4350
 1.4220	 7.3900
 1.4230	 7.3500
 1.4240	 7.3150
 1.4250	 7.2820
 1.4260	 7.2540
 1.4270	 7.2290
 1.4280	 7.2070
 1.4290	 7.1870
 1.4300	 7.1700
 1.4310	 7.1560
 1.4320	 7.1460
 1.4330	 7.1370
 1.4340	 7.1300
 1.4350	 7.1250
 1.4360	 7.1200
 1.4370	 7.1170
 1.4380	 7.1170
 1.4390	 7.1170
 1.4400	 7.1200
 1.4410	 7.1230
 1.4420	 7.1280
 1.4430	 7.1320
 1.4440	 7.1380
 1.4450	 7.1450
 1.4460	 7.1520
 1.4470	 7.1600
 1.4480	 7.1690
 1.4490	 7.1780
 1.4500	 7.1880
 1.4510	 7.1980
 1.4520	 7.2090
 1.4530	 7.2200
 1.4540	 7.2310
 1.4550	 7.2450
 1.4560	 7.2600
 1.4570	 7.2750
 1.4580	 7.2930
 1.4590	 7.3120
 1.4600	 7.3330
 1.4610	 7.3550
 1.4620	 7.3790
 1.4630	 7.4060
 1.4640	 7.4350
 1.4650	 7.4660
 1.4660	 7.5000
 1.4670	 7.5350
 1.4680	 7.5730
 1.4690	 7.6130
 1.4700	 7.6550
