Name: Ficus macrophylla f. columnaris
Type: vegetation
Class: Tree
Genus: Ficus
Species: macrophylla_columnaris
Sample No.: JPL095
Owner: JPL
Wavelength Range: VSWIR
Origin: 34.12573; - 118.11237; WGS84
Collection Date: 2/2/2016
Description: Samples were collected at the Huntington Garden in San Marino California as part of a JPL Subcontract studying HyTES imagery. Samples were taken to JPL and processed within 48 hours of collection. The same leaves were processed in the Nicolet and then measured using the ASD.
Measurement: Bidirectional reflectance
First Column: X
Second Column: Y
X Units: Wavelength (micrometer)
Y Units: Reflectance (percentage)
First X Value: 0.35
Last X Value: 2.5
Number of X Values: 2151
Additional Information: 

 0.3500	10.3440
 0.3510	10.1120
 0.3520	10.0940
 0.3530	 9.4840
 0.3540	 8.3440
 0.3550	 9.8390
 0.3560	 9.7050
 0.3570	 8.6750
 0.3580	 9.5070
 0.3590	 9.1550
 0.3600	 8.7930
 0.3610	 8.9950
 0.3620	 8.9860
 0.3630	 8.9460
 0.3640	 8.7150
 0.3650	 8.3830
 0.3660	 9.4270
 0.3670	 9.5400
 0.3680	 8.7630
 0.3690	 8.7220
 0.3700	 8.5460
 0.3710	 8.4500
 0.3720	 8.5180
 0.3730	 8.3100
 0.3740	 8.9360
 0.3750	 9.6190
 0.3760	 9.3540
 0.3770	 9.0020
 0.3780	 8.9070
 0.3790	 8.9610
 0.3800	 8.7210
 0.3810	 8.6180
 0.3820	 8.3220
 0.3830	 7.8900
 0.3840	 8.4990
 0.3850	 9.3070
 0.3860	 9.6600
 0.3870	 9.1930
 0.3880	 8.6650
 0.3890	 8.4860
 0.3900	 8.6450
 0.3910	 8.7490
 0.3920	 8.5930
 0.3930	 8.5170
 0.3940	 8.7680
 0.3950	 9.1050
 0.3960	 8.9860
 0.3970	 8.7320
 0.3980	 8.9340
 0.3990	 8.8070
 0.4000	 8.7440
 0.4010	 8.8280
 0.4020	 8.5970
 0.4030	 8.4900
 0.4040	 8.5380
 0.4050	 8.6680
 0.4060	 8.8920
 0.4070	 8.7690
 0.4080	 8.5130
 0.4090	 8.6960
 0.4100	 8.7850
 0.4110	 8.6950
 0.4120	 8.5180
 0.4130	 8.5250
 0.4140	 8.7450
 0.4150	 8.9230
 0.4160	 8.8140
 0.4170	 8.6180
 0.4180	 8.7000
 0.4190	 8.9080
 0.4200	 8.6600
 0.4210	 8.7860
 0.4220	 8.9640
 0.4230	 8.8950
 0.4240	 8.8620
 0.4250	 8.8580
 0.4260	 8.8620
 0.4270	 8.8420
 0.4280	 8.8080
 0.4290	 8.7850
 0.4300	 8.7810
 0.4310	 8.7680
 0.4320	 8.7770
 0.4330	 8.7720
 0.4340	 8.7270
 0.4350	 8.7060
 0.4360	 8.7770
 0.4370	 8.8390
 0.4380	 8.7050
 0.4390	 8.7640
 0.4400	 8.8590
 0.4410	 8.8550
 0.4420	 8.8580
 0.4430	 8.8420
 0.4440	 8.7980
 0.4450	 8.7500
 0.4460	 8.8550
 0.4470	 8.9080
 0.4480	 8.8520
 0.4490	 8.8360
 0.4500	 8.8890
 0.4510	 8.8960
 0.4520	 8.7930
 0.4530	 8.8020
 0.4540	 8.8720
 0.4550	 8.8930
 0.4560	 8.7600
 0.4570	 8.7780
 0.4580	 8.7980
 0.4590	 8.7350
 0.4600	 8.7270
 0.4610	 8.7730
 0.4620	 8.8460
 0.4630	 8.8930
 0.4640	 8.8070
 0.4650	 8.7730
 0.4660	 8.8300
 0.4670	 8.8580
 0.4680	 8.8100
 0.4690	 8.8100
 0.4700	 8.8960
 0.4710	 8.7350
 0.4720	 8.7210
 0.4730	 8.8540
 0.4740	 8.9190
 0.4750	 8.8870
 0.4760	 8.7870
 0.4770	 8.7010
 0.4780	 8.7860
 0.4790	 8.8020
 0.4800	 8.7860
 0.4810	 8.8220
 0.4820	 8.8150
 0.4830	 8.7570
 0.4840	 8.7180
 0.4850	 8.8130
 0.4860	 8.7890
 0.4870	 8.7650
 0.4880	 8.8250
 0.4890	 8.7930
 0.4900	 8.7700
 0.4910	 8.7700
 0.4920	 8.7740
 0.4930	 8.7850
 0.4940	 8.8220
 0.4950	 8.8620
 0.4960	 8.8120
 0.4970	 8.8150
 0.4980	 8.8310
 0.4990	 8.8000
 0.5000	 8.7920
 0.5010	 8.8060
 0.5020	 8.8370
 0.5030	 8.8830
 0.5040	 8.9160
 0.5050	 8.9570
 0.5060	 9.0050
 0.5070	 9.0070
 0.5080	 8.9950
 0.5090	 9.0210
 0.5100	 9.1150
 0.5110	 9.1360
 0.5120	 9.1970
 0.5130	 9.3170
 0.5140	 9.3560
 0.5150	 9.4430
 0.5160	 9.5700
 0.5170	 9.6980
 0.5180	 9.8090
 0.5190	 9.9470
 0.5200	10.1100
 0.5210	10.2610
 0.5220	10.4030
 0.5230	10.5460
 0.5240	10.7020
 0.5250	10.8980
 0.5260	11.0870
 0.5270	11.2610
 0.5280	11.4290
 0.5290	11.5700
 0.5300	11.6840
 0.5310	11.7970
 0.5320	11.9730
 0.5330	12.0750
 0.5340	12.1300
 0.5350	12.1900
 0.5360	12.2440
 0.5370	12.3180
 0.5380	12.3910
 0.5390	12.4160
 0.5400	12.4560
 0.5410	12.4620
 0.5420	12.4220
 0.5430	12.4310
 0.5440	12.4490
 0.5450	12.4710
 0.5460	12.5010
 0.5470	12.5680
 0.5480	12.6280
 0.5490	12.6600
 0.5500	12.6740
 0.5510	12.7100
 0.5520	12.7340
 0.5530	12.7120
 0.5540	12.6900
 0.5550	12.6640
 0.5560	12.6130
 0.5570	12.5180
 0.5580	12.4820
 0.5590	12.4270
 0.5600	12.3060
 0.5610	12.1960
 0.5620	12.1070
 0.5630	12.0170
 0.5640	11.8980
 0.5650	11.7820
 0.5660	11.6690
 0.5670	11.5510
 0.5680	11.4110
 0.5690	11.2920
 0.5700	11.1820
 0.5710	11.0610
 0.5720	10.9300
 0.5730	10.8190
 0.5740	10.7300
 0.5750	10.6440
 0.5760	10.5650
 0.5770	10.4850
 0.5780	10.4050
 0.5790	10.3360
 0.5800	10.2680
 0.5810	10.2180
 0.5820	10.1960
 0.5830	10.1170
 0.5840	10.0510
 0.5850	10.0180
 0.5860	 9.9740
 0.5870	 9.9290
 0.5880	 9.9040
 0.5890	 9.9000
 0.5900	 9.8650
 0.5910	 9.8320
 0.5920	 9.8130
 0.5930	 9.8060
 0.5940	 9.7800
 0.5950	 9.7610
 0.5960	 9.7560
 0.5970	 9.7260
 0.5980	 9.7310
 0.5990	 9.7370
 0.6000	 9.7010
 0.6010	 9.6720
 0.6020	 9.6550
 0.6030	 9.6300
 0.6040	 9.5660
 0.6050	 9.5400
 0.6060	 9.5340
 0.6070	 9.5190
 0.6080	 9.4950
 0.6090	 9.4470
 0.6100	 9.3660
 0.6110	 9.2610
 0.6120	 9.2340
 0.6130	 9.2410
 0.6140	 9.2410
 0.6150	 9.2120
 0.6160	 9.1790
 0.6170	 9.1630
 0.6180	 9.1700
 0.6190	 9.1560
 0.6200	 9.1280
 0.6210	 9.1100
 0.6220	 9.1300
 0.6230	 9.1200
 0.6240	 9.0860
 0.6250	 9.0540
 0.6260	 9.0630
 0.6270	 9.0670
 0.6280	 9.0620
 0.6290	 9.0610
 0.6300	 9.0630
 0.6310	 9.0590
 0.6320	 9.0470
 0.6330	 9.0370
 0.6340	 9.0540
 0.6350	 9.0600
 0.6360	 9.0310
 0.6370	 9.0160
 0.6380	 8.9850
 0.6390	 8.9570
 0.6400	 8.9700
 0.6410	 8.9590
 0.6420	 8.9220
 0.6430	 8.8800
 0.6440	 8.8730
 0.6450	 8.8850
 0.6460	 8.8790
 0.6470	 8.8410
 0.6480	 8.8520
 0.6490	 8.8410
 0.6500	 8.8160
 0.6510	 8.8460
 0.6520	 8.8600
 0.6530	 8.8530
 0.6540	 8.8380
 0.6550	 8.8590
 0.6560	 8.8670
 0.6570	 8.8630
 0.6580	 8.8630
 0.6590	 8.8690
 0.6600	 8.8800
 0.6610	 8.8910
 0.6620	 8.8950
 0.6630	 8.8960
 0.6640	 8.8990
 0.6650	 8.9100
 0.6660	 8.9240
 0.6670	 8.9290
 0.6680	 8.9420
 0.6690	 8.9820
 0.6700	 8.9870
 0.6710	 9.0000
 0.6720	 9.0410
 0.6730	 9.0850
 0.6740	 9.0950
 0.6750	 9.1090
 0.6760	 9.1590
 0.6770	 9.1960
 0.6780	 9.2290
 0.6790	 9.2660
 0.6800	 9.3140
 0.6810	 9.3670
 0.6820	 9.4110
 0.6830	 9.4440
 0.6840	 9.4890
 0.6850	 9.5290
 0.6860	 9.5580
 0.6870	 9.5760
 0.6880	 9.5970
 0.6890	 9.6370
 0.6900	 9.6930
 0.6910	 9.7470
 0.6920	 9.8620
 0.6930	10.0360
 0.6940	10.2610
 0.6950	10.5370
 0.6960	10.8960
 0.6970	11.3260
 0.6980	11.8120
 0.6990	12.3820
 0.7000	13.0290
 0.7010	13.7460
 0.7020	14.5280
 0.7030	15.3320
 0.7040	16.1740
 0.7050	17.0630
 0.7060	17.9780
 0.7070	18.9380
 0.7080	19.9270
 0.7090	20.9240
 0.7100	21.9360
 0.7110	22.9920
 0.7120	24.0790
 0.7130	25.1430
 0.7140	26.2640
 0.7150	27.4220
 0.7160	28.5810
 0.7170	29.7210
 0.7180	30.8880
 0.7190	32.0760
 0.7200	33.2610
 0.7210	34.4290
 0.7220	35.6010
 0.7230	36.7760
 0.7240	37.9230
 0.7250	39.0400
 0.7260	40.1320
 0.7270	41.2050
 0.7280	42.2610
 0.7290	43.2790
 0.7300	44.2430
 0.7310	45.1510
 0.7320	46.0440
 0.7330	46.9130
 0.7340	47.7320
 0.7350	48.4660
 0.7360	49.1860
 0.7370	49.8850
 0.7380	50.5390
 0.7390	51.1420
 0.7400	51.7030
 0.7410	52.2300
 0.7420	52.7240
 0.7430	53.1650
 0.7440	53.5720
 0.7450	53.9480
 0.7460	54.2810
 0.7470	54.6030
 0.7480	54.8950
 0.7490	55.1470
 0.7500	55.3890
 0.7510	55.6030
 0.7520	55.7950
 0.7530	55.9770
 0.7540	56.1400
 0.7550	56.2700
 0.7560	56.3750
 0.7570	56.4770
 0.7580	56.5740
 0.7590	56.6760
 0.7600	56.7740
 0.7610	56.8250
 0.7620	56.8810
 0.7630	56.9310
 0.7640	56.9600
 0.7650	57.0080
 0.7660	57.0450
 0.7670	57.0650
 0.7680	57.0820
 0.7690	57.1000
 0.7700	57.1240
 0.7710	57.1450
 0.7720	57.1490
 0.7730	57.1430
 0.7740	57.1370
 0.7750	57.1420
 0.7760	57.1620
 0.7770	57.1630
 0.7780	57.1590
 0.7790	57.1770
 0.7800	57.1680
 0.7810	57.1670
 0.7820	57.1750
 0.7830	57.1580
 0.7840	57.1650
 0.7850	57.1650
 0.7860	57.1450
 0.7870	57.1680
 0.7880	57.1620
 0.7890	57.1400
 0.7900	57.1340
 0.7910	57.1390
 0.7920	57.1280
 0.7930	57.1110
 0.7940	57.1170
 0.7950	57.0990
 0.7960	57.0930
 0.7970	57.1020
 0.7980	57.0720
 0.7990	57.0510
 0.8000	57.0460
 0.8010	57.0450
 0.8020	57.0300
 0.8030	57.0290
 0.8040	57.0260
 0.8050	56.9970
 0.8060	56.9840
 0.8070	56.9840
 0.8080	56.9810
 0.8090	56.9540
 0.8100	56.9450
 0.8110	56.9410
 0.8120	56.9330
 0.8130	56.9340
 0.8140	56.9140
 0.8150	56.8860
 0.8160	56.8700
 0.8170	56.8560
 0.8180	56.8420
 0.8190	56.8350
 0.8200	56.8390
 0.8210	56.8280
 0.8220	56.8210
 0.8230	56.8130
 0.8240	56.7840
 0.8250	56.7640
 0.8260	56.7620
 0.8270	56.7660
 0.8280	56.7350
 0.8290	56.7360
 0.8300	56.7300
 0.8310	56.6860
 0.8320	56.6740
 0.8330	56.6810
 0.8340	56.6840
 0.8350	56.6680
 0.8360	56.6880
 0.8370	56.6950
 0.8380	56.6760
 0.8390	56.6590
 0.8400	56.6940
 0.8410	56.7070
 0.8420	56.6810
 0.8430	56.6930
 0.8440	56.6810
 0.8450	56.6780
 0.8460	56.7050
 0.8470	56.6960
 0.8480	56.7150
 0.8490	56.7280
 0.8500	56.7010
 0.8510	56.7280
 0.8520	56.7480
 0.8530	56.7440
 0.8540	56.7350
 0.8550	56.7570
 0.8560	56.7690
 0.8570	56.7660
 0.8580	56.7800
 0.8590	56.8020
 0.8600	56.8080
 0.8610	56.8030
 0.8620	56.8360
 0.8630	56.8260
 0.8640	56.8180
 0.8650	56.8590
 0.8660	56.9020
 0.8670	56.8900
 0.8680	56.8660
 0.8690	56.8880
 0.8700	56.8840
 0.8710	56.9020
 0.8720	56.9230
 0.8730	56.9020
 0.8740	56.9080
 0.8750	56.9150
 0.8760	56.9310
 0.8770	56.9890
 0.8780	56.9960
 0.8790	56.9930
 0.8800	57.0030
 0.8810	57.0050
 0.8820	57.0020
 0.8830	57.0020
 0.8840	57.0100
 0.8850	57.0220
 0.8860	57.0200
 0.8870	57.0380
 0.8880	57.0830
 0.8890	57.0290
 0.8900	57.0370
 0.8910	57.0780
 0.8920	57.0640
 0.8930	57.0770
 0.8940	57.0860
 0.8950	57.0770
 0.8960	57.0570
 0.8970	57.1020
 0.8980	57.1140
 0.8990	57.0800
 0.9000	57.0790
 0.9010	57.1070
 0.9020	57.1140
 0.9030	57.0930
 0.9040	57.1020
 0.9050	57.1160
 0.9060	57.1200
 0.9070	57.1070
 0.9080	57.0790
 0.9090	57.1020
 0.9100	57.1270
 0.9110	57.1110
 0.9120	57.1230
 0.9130	57.0900
 0.9140	57.0590
 0.9150	57.0830
 0.9160	57.1080
 0.9170	57.0470
 0.9180	56.9860
 0.9190	57.0320
 0.9200	56.9970
 0.9210	56.9680
 0.9220	56.9530
 0.9230	56.9230
 0.9240	56.9620
 0.9250	56.9800
 0.9260	56.9410
 0.9270	56.8670
 0.9280	56.8390
 0.9290	56.7970
 0.9300	56.7180
 0.9310	56.6380
 0.9320	56.6910
 0.9330	56.7150
 0.9340	56.6450
 0.9350	56.5890
 0.9360	56.5580
 0.9370	56.5120
 0.9380	56.4490
 0.9390	56.4240
 0.9400	56.3630
 0.9410	56.3250
 0.9420	56.3430
 0.9430	56.3670
 0.9440	56.2620
 0.9450	56.1690
 0.9460	56.1680
 0.9470	56.0790
 0.9480	55.9710
 0.9490	55.9050
 0.9500	55.8930
 0.9510	55.8360
 0.9520	55.6900
 0.9530	55.5610
 0.9540	55.5260
 0.9550	55.4440
 0.9560	55.2930
 0.9570	55.1570
 0.9580	55.1180
 0.9590	55.1260
 0.9600	55.0440
 0.9610	54.9630
 0.9620	54.9830
 0.9630	54.8840
 0.9640	54.8400
 0.9650	54.8080
 0.9660	54.7110
 0.9670	54.7270
 0.9680	54.7960
 0.9690	54.7960
 0.9700	54.6630
 0.9710	54.6870
 0.9720	54.7380
 0.9730	54.7280
 0.9740	54.6300
 0.9750	54.5420
 0.9760	54.5730
 0.9770	54.6250
 0.9780	54.5650
 0.9790	54.6080
 0.9800	54.7240
 0.9810	54.7890
 0.9820	54.7010
 0.9830	54.6520
 0.9840	54.6620
 0.9850	54.6670
 0.9860	54.6150
 0.9870	54.7010
 0.9880	54.7330
 0.9890	54.6960
 0.9900	54.6840
 0.9910	54.7630
 0.9920	54.7500
 0.9930	54.7050
 0.9940	54.7620
 0.9950	54.7820
 0.9960	54.7920
 0.9970	54.8220
 0.9980	54.8660
 0.9990	54.7890
 1.0000	54.7850
 1.0010	54.9260
 1.0020	54.9220
 1.0030	54.9210
 1.0040	54.9650
 1.0050	54.9650
 1.0060	55.0130
 1.0070	55.1060
 1.0080	55.1420
 1.0090	55.1590
 1.0100	55.1910
 1.0110	55.2040
 1.0120	55.2240
 1.0130	55.2760
 1.0140	55.3000
 1.0150	55.3180
 1.0160	55.2880
 1.0170	55.2620
 1.0180	55.2770
 1.0190	55.2990
 1.0200	55.3420
 1.0210	55.3840
 1.0220	55.4520
 1.0230	55.5090
 1.0240	55.5640
 1.0250	55.6070
 1.0260	55.6620
 1.0270	55.6890
 1.0280	55.6980
 1.0290	55.7070
 1.0300	55.6880
 1.0310	55.6910
 1.0320	55.7200
 1.0330	55.6990
 1.0340	55.6990
 1.0350	55.7290
 1.0360	55.7450
 1.0370	55.8030
 1.0380	55.8420
 1.0390	55.8950
 1.0400	55.9290
 1.0410	55.9540
 1.0420	55.9800
 1.0430	55.9990
 1.0440	56.0260
 1.0450	56.0520
 1.0460	56.0760
 1.0470	56.1160
 1.0480	56.1370
 1.0490	56.1290
 1.0500	56.1420
 1.0510	56.1670
 1.0520	56.1770
 1.0530	56.1830
 1.0540	56.1940
 1.0550	56.2070
 1.0560	56.2040
 1.0570	56.2150
 1.0580	56.2440
 1.0590	56.2660
 1.0600	56.2990
 1.0610	56.3010
 1.0620	56.2740
 1.0630	56.2800
 1.0640	56.2750
 1.0650	56.2810
 1.0660	56.3370
 1.0670	56.3610
 1.0680	56.3720
 1.0690	56.3660
 1.0700	56.3580
 1.0710	56.3200
 1.0720	56.3330
 1.0730	56.3640
 1.0740	56.3850
 1.0750	56.4380
 1.0760	56.4620
 1.0770	56.4670
 1.0780	56.4650
 1.0790	56.4520
 1.0800	56.4450
 1.0810	56.4250
 1.0820	56.4140
 1.0830	56.4140
 1.0840	56.4160
 1.0850	56.4240
 1.0860	56.4240
 1.0870	56.4220
 1.0880	56.4260
 1.0890	56.4170
 1.0900	56.3910
 1.0910	56.3820
 1.0920	56.3730
 1.0930	56.3680
 1.0940	56.3810
 1.0950	56.3720
 1.0960	56.3470
 1.0970	56.3290
 1.0980	56.3000
 1.0990	56.2800
 1.1000	56.2740
 1.1010	56.2610
 1.1020	56.2500
 1.1030	56.2320
 1.1040	56.2150
 1.1050	56.1870
 1.1060	56.1570
 1.1070	56.1070
 1.1080	56.0920
 1.1090	56.0940
 1.1100	56.0740
 1.1110	56.0600
 1.1120	56.0460
 1.1130	56.0160
 1.1140	55.9920
 1.1150	55.9890
 1.1160	55.9630
 1.1170	55.9250
 1.1180	55.8760
 1.1190	55.8010
 1.1200	55.7450
 1.1210	55.7150
 1.1220	55.6770
 1.1230	55.6480
 1.1240	55.6070
 1.1250	55.5460
 1.1260	55.4420
 1.1270	55.3700
 1.1280	55.3150
 1.1290	55.2340
 1.1300	55.1590
 1.1310	55.0610
 1.1320	54.9430
 1.1330	54.8120
 1.1340	54.6590
 1.1350	54.5090
 1.1360	54.3400
 1.1370	54.1780
 1.1380	54.0260
 1.1390	53.8630
 1.1400	53.6880
 1.1410	53.5190
 1.1420	53.3510
 1.1430	53.1810
 1.1440	53.0000
 1.1450	52.8120
 1.1460	52.6310
 1.1470	52.4330
 1.1480	52.2590
 1.1490	52.0990
 1.1500	51.9450
 1.1510	51.7990
 1.1520	51.6570
 1.1530	51.5160
 1.1540	51.3920
 1.1550	51.2680
 1.1560	51.1740
 1.1570	51.1010
 1.1580	51.0220
 1.1590	50.9540
 1.1600	50.8890
 1.1610	50.8250
 1.1620	50.7760
 1.1630	50.7310
 1.1640	50.6840
 1.1650	50.6440
 1.1660	50.6050
 1.1670	50.5700
 1.1680	50.5410
 1.1690	50.5140
 1.1700	50.4840
 1.1710	50.4620
 1.1720	50.4430
 1.1730	50.4310
 1.1740	50.4280
 1.1750	50.4270
 1.1760	50.4170
 1.1770	50.4010
 1.1780	50.3650
 1.1790	50.3220
 1.1800	50.2910
 1.1810	50.2640
 1.1820	50.2420
 1.1830	50.2230
 1.1840	50.2050
 1.1850	50.1850
 1.1860	50.1620
 1.1870	50.1380
 1.1880	50.1130
 1.1890	50.0720
 1.1900	50.0550
 1.1910	50.0510
 1.1920	50.0410
 1.1930	50.0400
 1.1940	50.0320
 1.1950	50.0100
 1.1960	50.0070
 1.1970	49.9980
 1.1980	50.0010
 1.1990	50.0120
 1.2000	50.0050
 1.2010	50.0040
 1.2020	50.0100
 1.2030	50.0080
 1.2040	50.0080
 1.2050	50.0090
 1.2060	50.0080
 1.2070	50.0200
 1.2080	50.0460
 1.2090	50.0810
 1.2100	50.1080
 1.2110	50.1230
 1.2120	50.1150
 1.2130	50.1260
 1.2140	50.1340
 1.2150	50.1600
 1.2160	50.2030
 1.2170	50.2460
 1.2180	50.2910
 1.2190	50.3220
 1.2200	50.3520
 1.2210	50.3930
 1.2220	50.4320
 1.2230	50.4710
 1.2240	50.5180
 1.2250	50.5640
 1.2260	50.6070
 1.2270	50.6450
 1.2280	50.6770
 1.2290	50.7060
 1.2300	50.7320
 1.2310	50.7590
 1.2320	50.7930
 1.2330	50.8250
 1.2340	50.8560
 1.2350	50.8890
 1.2360	50.9230
 1.2370	50.9590
 1.2380	50.9810
 1.2390	51.0110
 1.2400	51.0470
 1.2410	51.0540
 1.2420	51.0700
 1.2430	51.0880
 1.2440	51.0870
 1.2450	51.0930
 1.2460	51.1170
 1.2470	51.1470
 1.2480	51.1760
 1.2490	51.2140
 1.2500	51.2310
 1.2510	51.2350
 1.2520	51.2420
 1.2530	51.2490
 1.2540	51.2790
 1.2550	51.3090
 1.2560	51.3390
 1.2570	51.3650
 1.2580	51.3690
 1.2590	51.3860
 1.2600	51.4160
 1.2610	51.4250
 1.2620	51.4260
 1.2630	51.4300
 1.2640	51.4170
 1.2650	51.3970
 1.2660	51.4020
 1.2670	51.4070
 1.2680	51.4070
 1.2690	51.4120
 1.2700	51.4100
 1.2710	51.3960
 1.2720	51.3770
 1.2730	51.3610
 1.2740	51.3290
 1.2750	51.3020
 1.2760	51.2950
 1.2770	51.2830
 1.2780	51.2620
 1.2790	51.2460
 1.2800	51.2240
 1.2810	51.1900
 1.2820	51.1600
 1.2830	51.1280
 1.2840	51.1010
 1.2850	51.0760
 1.2860	51.0430
 1.2870	51.0090
 1.2880	50.9790
 1.2890	50.9290
 1.2900	50.8720
 1.2910	50.8360
 1.2920	50.7920
 1.2930	50.7470
 1.2940	50.7180
 1.2950	50.6730
 1.2960	50.6210
 1.2970	50.5630
 1.2980	50.5030
 1.2990	50.4470
 1.3000	50.3830
 1.3010	50.3170
 1.3020	50.2510
 1.3030	50.1700
 1.3040	50.0830
 1.3050	50.0060
 1.3060	49.9160
 1.3070	49.8110
 1.3080	49.7080
 1.3090	49.5950
 1.3100	49.4910
 1.3110	49.3900
 1.3120	49.2800
 1.3130	49.1680
 1.3140	49.0530
 1.3150	48.9280
 1.3160	48.8040
 1.3170	48.6790
 1.3180	48.5610
 1.3190	48.4370
 1.3200	48.3010
 1.3210	48.1590
 1.3220	48.0090
 1.3230	47.8490
 1.3240	47.6950
 1.3250	47.5370
 1.3260	47.3510
 1.3270	47.1690
 1.3280	46.9880
 1.3290	46.8100
 1.3300	46.6600
 1.3310	46.5030
 1.3320	46.3360
 1.3330	46.1680
 1.3340	45.9920
 1.3350	45.8170
 1.3360	45.6350
 1.3370	45.4600
 1.3380	45.2850
 1.3390	45.1110
 1.3400	44.9440
 1.3410	44.7720
 1.3420	44.5990
 1.3430	44.4230
 1.3440	44.2490
 1.3450	44.0850
 1.3460	43.9230
 1.3470	43.7680
 1.3480	43.6290
 1.3490	43.4790
 1.3500	43.3270
 1.3510	43.1780
 1.3520	43.0220
 1.3530	42.8630
 1.3540	42.7140
 1.3550	42.5640
 1.3560	42.4130
 1.3570	42.2620
 1.3580	42.1050
 1.3590	41.9330
 1.3600	41.7580
 1.3610	41.5880
 1.3620	41.4120
 1.3630	41.2400
 1.3640	41.0580
 1.3650	40.8580
 1.3660	40.6530
 1.3670	40.4280
 1.3680	40.1910
 1.3690	39.9460
 1.3700	39.6780
 1.3710	39.3960
 1.3720	39.0910
 1.3730	38.7660
 1.3740	38.4280
 1.3750	38.0640
 1.3760	37.6790
 1.3770	37.2710
 1.3780	36.8240
 1.3790	36.3540
 1.3800	35.8570
 1.3810	35.3290
 1.3820	34.7840
 1.3830	34.2190
 1.3840	33.6310
 1.3850	33.0190
 1.3860	32.3960
 1.3870	31.7440
 1.3880	31.0990
 1.3890	30.4460
 1.3900	29.7850
 1.3910	29.1290
 1.3920	28.4720
 1.3930	27.8160
 1.3940	27.1730
 1.3950	26.5400
 1.3960	25.9210
 1.3970	25.3210
 1.3980	24.7340
 1.3990	24.1660
 1.4000	23.6240
 1.4010	23.1070
 1.4020	22.6150
 1.4030	22.1490
 1.4040	21.7040
 1.4050	21.2800
 1.4060	20.8810
 1.4070	20.5150
 1.4080	20.1670
 1.4090	19.8420
 1.4100	19.5370
 1.4110	19.2520
 1.4120	18.9870
 1.4130	18.7420
 1.4140	18.5220
 1.4150	18.3140
 1.4160	18.1200
 1.4170	17.9400
 1.4180	17.7680
 1.4190	17.6110
 1.4200	17.4660
 1.4210	17.3280
 1.4220	17.2030
 1.4230	17.0860
 1.4240	16.9780
 1.4250	16.8800
 1.4260	16.7960
 1.4270	16.7110
 1.4280	16.6330
 1.4290	16.5600
 1.4300	16.4910
 1.4310	16.4320
 1.4320	16.3850
 1.4330	16.3360
 1.4340	16.2910
 1.4350	16.2520
 1.4360	16.2150
 1.4370	16.1820
 1.4380	16.1580
 1.4390	16.1360
 1.4400	16.1110
 1.4410	16.0930
 1.4420	16.0790
 1.4430	16.0640
 1.4440	16.0580
 1.4450	16.0540
 1.4460	16.0520
 1.4470	16.0540
 1.4480	16.0510
 1.4490	16.0500
 1.4500	16.0490
 1.4510	16.0510
 1.4520	16.0610
 1.4530	16.0750
 1.4540	16.0910
 1.4550	16.1100
 1.4560	16.1290
 1.4570	16.1520
 1.4580	16.1770
 1.4590	16.2020
 1.4600	16.2320
 1.4610	16.2630
 1.4620	16.3040
 1.4630	16.3500
 1.4640	16.3960
 1.4650	16.4540
 1.4660	16.5120
 1.4670	16.5690
 1.4680	16.6370
 1.4690	16.7050
 1.4700	16.7760
 1.4710	16.8570
 1.4720	16.9380
 1.4730	17.0180
 1.4740	17.1040
 1.4750	17.1900
 1.4760	17.2790
 1.4770	17.3760
 1.4780	17.4740
 1.4790	17.5760
 1.4800	17.6760
