Name: Pinus ponderosa 1
Type: vegetation
Class: Tree
Genus: Pinus
Species: ponderosa
Sample No.: VH058
Owner: UCSB
Wavelength Range: VSWIR
Origin: 37.0443; -119.3026; WGS84
Collection Date: 4/20/2013
Description: Samples were collected as part of the HyspIRI Airborne Campaign. 48 individual plants were sampled in three times in 2013 - spring  summer  and fall. The name of the sample includes a 1  2  or 3 which references a different individual of the species. Samples were taken to JPL and processed within 48 hours of collection. The same leaves were processed in the Nicolet and then measured using the ASD.
Measurement: Bidirectional reflectance
First Column: X
Second Column: Y
X Units: Wavelength (micrometers)
Y Units: Reflectance (percentage)
First X Value: 0.35
Last X Value: 2.5
Number of X Values: 2151
Additional Information: vegetation.tree.pinus.ponderosa.vswir.vh058.ucsb.asd.ancillary.txt

 0.3500	 4.6380
 0.3510	 4.4840
 0.3520	 4.5600
 0.3530	 4.5900
 0.3540	 4.3860
 0.3550	 4.4130
 0.3560	 4.5060
 0.3570	 4.5040
 0.3580	 4.3170
 0.3590	 4.3320
 0.3600	 4.3600
 0.3610	 4.3250
 0.3620	 4.3900
 0.3630	 4.4800
 0.3640	 4.4250
 0.3650	 4.1800
 0.3660	 4.2500
 0.3670	 4.3400
 0.3680	 4.3440
 0.3690	 4.3030
 0.3700	 4.2990
 0.3710	 4.2920
 0.3720	 4.2620
 0.3730	 4.2580
 0.3740	 4.2690
 0.3750	 4.2730
 0.3760	 4.2630
 0.3770	 4.3220
 0.3780	 4.3200
 0.3790	 4.2800
 0.3800	 4.3390
 0.3810	 4.2830
 0.3820	 4.2310
 0.3830	 4.2650
 0.3840	 4.2670
 0.3850	 4.2410
 0.3860	 4.2170
 0.3870	 4.2310
 0.3880	 4.2640
 0.3890	 4.2700
 0.3900	 4.2610
 0.3910	 4.3030
 0.3920	 4.2900
 0.3930	 4.2600
 0.3940	 4.2520
 0.3950	 4.2260
 0.3960	 4.2610
 0.3970	 4.2940
 0.3980	 4.2240
 0.3990	 4.2270
 0.4000	 4.2350
 0.4010	 4.2270
 0.4020	 4.2730
 0.4030	 4.3300
 0.4040	 4.3530
 0.4050	 4.3220
 0.4060	 4.3160
 0.4070	 4.3570
 0.4080	 4.4050
 0.4090	 4.3940
 0.4100	 4.4130
 0.4110	 4.4410
 0.4120	 4.4660
 0.4130	 4.5100
 0.4140	 4.5500
 0.4150	 4.5800
 0.4160	 4.6080
 0.4170	 4.6590
 0.4180	 4.7080
 0.4190	 4.7500
 0.4200	 4.7980
 0.4210	 4.8440
 0.4220	 4.8850
 0.4230	 4.9220
 0.4240	 4.9710
 0.4250	 5.0240
 0.4260	 5.0730
 0.4270	 5.1070
 0.4280	 5.1530
 0.4290	 5.2000
 0.4300	 5.2420
 0.4310	 5.2800
 0.4320	 5.3230
 0.4330	 5.3570
 0.4340	 5.3720
 0.4350	 5.4070
 0.4360	 5.4370
 0.4370	 5.4590
 0.4380	 5.4880
 0.4390	 5.5120
 0.4400	 5.5370
 0.4410	 5.5620
 0.4420	 5.5770
 0.4430	 5.5920
 0.4440	 5.6100
 0.4450	 5.6290
 0.4460	 5.6500
 0.4470	 5.6680
 0.4480	 5.6840
 0.4490	 5.7030
 0.4500	 5.7170
 0.4510	 5.7280
 0.4520	 5.7430
 0.4530	 5.7600
 0.4540	 5.7720
 0.4550	 5.7780
 0.4560	 5.7830
 0.4570	 5.8050
 0.4580	 5.8190
 0.4590	 5.8140
 0.4600	 5.8150
 0.4610	 5.8340
 0.4620	 5.8530
 0.4630	 5.8510
 0.4640	 5.8600
 0.4650	 5.8730
 0.4660	 5.8800
 0.4670	 5.8650
 0.4680	 5.8660
 0.4690	 5.8740
 0.4700	 5.8770
 0.4710	 5.8790
 0.4720	 5.8770
 0.4730	 5.8730
 0.4740	 5.8720
 0.4750	 5.8820
 0.4760	 5.8870
 0.4770	 5.8800
 0.4780	 5.8710
 0.4790	 5.8810
 0.4800	 5.8950
 0.4810	 5.8940
 0.4820	 5.8920
 0.4830	 5.8920
 0.4840	 5.8950
 0.4850	 5.8950
 0.4860	 5.9000
 0.4870	 5.9030
 0.4880	 5.9060
 0.4890	 5.9200
 0.4900	 5.9350
 0.4910	 5.9440
 0.4920	 5.9490
 0.4930	 5.9670
 0.4940	 5.9890
 0.4950	 6.0060
 0.4960	 6.0210
 0.4970	 6.0370
 0.4980	 6.0600
 0.4990	 6.0920
 0.5000	 6.1200
 0.5010	 6.1450
 0.5020	 6.1720
 0.5030	 6.2100
 0.5040	 6.2570
 0.5050	 6.3090
 0.5060	 6.3620
 0.5070	 6.4120
 0.5080	 6.4710
 0.5090	 6.5360
 0.5100	 6.6010
 0.5110	 6.6840
 0.5120	 6.7720
 0.5130	 6.8610
 0.5140	 6.9680
 0.5150	 7.0720
 0.5160	 7.1800
 0.5170	 7.3010
 0.5180	 7.4220
 0.5190	 7.5520
 0.5200	 7.6900
 0.5210	 7.8250
 0.5220	 7.9580
 0.5230	 8.0920
 0.5240	 8.2290
 0.5250	 8.3670
 0.5260	 8.4970
 0.5270	 8.6180
 0.5280	 8.7310
 0.5290	 8.8370
 0.5300	 8.9380
 0.5310	 9.0310
 0.5320	 9.1090
 0.5330	 9.1820
 0.5340	 9.2500
 0.5350	 9.3090
 0.5360	 9.3620
 0.5370	 9.4090
 0.5380	 9.4510
 0.5390	 9.4830
 0.5400	 9.5210
 0.5410	 9.5560
 0.5420	 9.5850
 0.5430	 9.6130
 0.5440	 9.6440
 0.5450	 9.6740
 0.5460	 9.6950
 0.5470	 9.7160
 0.5480	 9.7380
 0.5490	 9.7600
 0.5500	 9.7740
 0.5510	 9.7810
 0.5520	 9.7830
 0.5530	 9.7810
 0.5540	 9.7650
 0.5550	 9.7380
 0.5560	 9.7050
 0.5570	 9.6700
 0.5580	 9.6140
 0.5590	 9.5500
 0.5600	 9.4890
 0.5610	 9.4220
 0.5620	 9.3550
 0.5630	 9.2870
 0.5640	 9.2140
 0.5650	 9.1360
 0.5660	 9.0530
 0.5670	 8.9630
 0.5680	 8.8700
 0.5690	 8.7740
 0.5700	 8.6750
 0.5710	 8.5770
 0.5720	 8.4940
 0.5730	 8.4130
 0.5740	 8.3320
 0.5750	 8.2620
 0.5760	 8.1940
 0.5770	 8.1320
 0.5780	 8.0790
 0.5790	 8.0290
 0.5800	 7.9820
 0.5810	 7.9390
 0.5820	 7.9010
 0.5830	 7.8670
 0.5840	 7.8300
 0.5850	 7.7880
 0.5860	 7.7460
 0.5870	 7.7020
 0.5880	 7.6580
 0.5890	 7.6160
 0.5900	 7.5840
 0.5910	 7.5600
 0.5920	 7.5440
 0.5930	 7.5350
 0.5940	 7.5180
 0.5950	 7.5010
 0.5960	 7.4870
 0.5970	 7.4680
 0.5980	 7.4500
 0.5990	 7.4330
 0.6000	 7.4190
 0.6010	 7.4080
 0.6020	 7.3890
 0.6030	 7.3630
 0.6040	 7.3360
 0.6050	 7.3070
 0.6060	 7.2750
 0.6070	 7.2390
 0.6080	 7.2020
 0.6090	 7.1650
 0.6100	 7.1260
 0.6110	 7.0870
 0.6120	 7.0490
 0.6130	 7.0100
 0.6140	 6.9690
 0.6150	 6.9310
 0.6160	 6.8960
 0.6170	 6.8640
 0.6180	 6.8360
 0.6190	 6.8070
 0.6200	 6.7800
 0.6210	 6.7580
 0.6220	 6.7420
 0.6230	 6.7240
 0.6240	 6.7110
 0.6250	 6.7040
 0.6260	 6.6940
 0.6270	 6.6870
 0.6280	 6.6830
 0.6290	 6.6750
 0.6300	 6.6740
 0.6310	 6.6710
 0.6320	 6.6650
 0.6330	 6.6600
 0.6340	 6.6480
 0.6350	 6.6320
 0.6360	 6.6140
 0.6370	 6.5870
 0.6380	 6.5570
 0.6390	 6.5270
 0.6400	 6.4940
 0.6410	 6.4570
 0.6420	 6.4180
 0.6430	 6.3790
 0.6440	 6.3430
 0.6450	 6.3050
 0.6460	 6.2680
 0.6470	 6.2340
 0.6480	 6.2010
 0.6490	 6.1740
 0.6500	 6.1500
 0.6510	 6.1280
 0.6520	 6.1120
 0.6530	 6.0970
 0.6540	 6.0790
 0.6550	 6.0610
 0.6560	 6.0430
 0.6570	 6.0230
 0.6580	 6.0010
 0.6590	 5.9710
 0.6600	 5.9420
 0.6610	 5.9160
 0.6620	 5.8930
 0.6630	 5.8700
 0.6640	 5.8450
 0.6650	 5.8220
 0.6660	 5.8100
 0.6670	 5.7970
 0.6680	 5.7830
 0.6690	 5.7720
 0.6700	 5.7710
 0.6710	 5.7710
 0.6720	 5.7700
 0.6730	 5.7710
 0.6740	 5.7810
 0.6750	 5.7950
 0.6760	 5.8080
 0.6770	 5.8210
 0.6780	 5.8340
 0.6790	 5.8520
 0.6800	 5.8800
 0.6810	 5.9060
 0.6820	 5.9370
 0.6830	 5.9750
 0.6840	 6.0150
 0.6850	 6.0670
 0.6860	 6.1280
 0.6870	 6.1990
 0.6880	 6.2920
 0.6890	 6.4060
 0.6900	 6.5450
 0.6910	 6.7160
 0.6920	 6.9250
 0.6930	 7.1740
 0.6940	 7.4660
 0.6950	 7.7990
 0.6960	 8.1760
 0.6970	 8.5960
 0.6980	 9.0580
 0.6990	 9.5580
 0.7000	10.0930
 0.7010	10.6620
 0.7020	11.2620
 0.7030	11.8870
 0.7040	12.5380
 0.7050	13.2140
 0.7060	13.9040
 0.7070	14.6130
 0.7080	15.3450
 0.7090	16.1030
 0.7100	16.8740
 0.7110	17.6700
 0.7120	18.4910
 0.7130	19.3240
 0.7140	20.1810
 0.7150	21.0630
 0.7160	21.9700
 0.7170	22.8980
 0.7180	23.8410
 0.7190	24.8040
 0.7200	25.7930
 0.7210	26.7970
 0.7220	27.8100
 0.7230	28.8320
 0.7240	29.8720
 0.7250	30.9080
 0.7260	31.9410
 0.7270	32.9750
 0.7280	34.0050
 0.7290	35.0240
 0.7300	36.0300
 0.7310	37.0220
 0.7320	37.9940
 0.7330	38.9440
 0.7340	39.8730
 0.7350	40.7830
 0.7360	41.6620
 0.7370	42.5110
 0.7380	43.3300
 0.7390	44.1190
 0.7400	44.8830
 0.7410	45.6130
 0.7420	46.2970
 0.7430	46.9610
 0.7440	47.5910
 0.7450	48.1840
 0.7460	48.7470
 0.7470	49.2680
 0.7480	49.7580
 0.7490	50.2210
 0.7500	50.6500
 0.7510	51.0340
 0.7520	51.3870
 0.7530	51.7270
 0.7540	52.0370
 0.7550	52.3190
 0.7560	52.5790
 0.7570	52.8250
 0.7580	53.0420
 0.7590	53.2360
 0.7600	53.4160
 0.7610	53.5890
 0.7620	53.7380
 0.7630	53.8700
 0.7640	53.9980
 0.7650	54.1230
 0.7660	54.2320
 0.7670	54.3220
 0.7680	54.4000
 0.7690	54.4800
 0.7700	54.5600
 0.7710	54.6360
 0.7720	54.7000
 0.7730	54.7530
 0.7740	54.8040
 0.7750	54.8580
 0.7760	54.9130
 0.7770	54.9580
 0.7780	54.9970
 0.7790	55.0420
 0.7800	55.0790
 0.7810	55.1070
 0.7820	55.1360
 0.7830	55.1860
 0.7840	55.2220
 0.7850	55.2550
 0.7860	55.2930
 0.7870	55.3150
 0.7880	55.3450
 0.7890	55.3740
 0.7900	55.3910
 0.7910	55.4220
 0.7920	55.4470
 0.7930	55.4660
 0.7940	55.4970
 0.7950	55.5320
 0.7960	55.5570
 0.7970	55.5730
 0.7980	55.6020
 0.7990	55.6210
 0.8000	55.6390
 0.8010	55.6620
 0.8020	55.6730
 0.8030	55.6990
 0.8040	55.7330
 0.8050	55.7550
 0.8060	55.7770
 0.8070	55.7940
 0.8080	55.8090
 0.8090	55.8260
 0.8100	55.8430
 0.8110	55.8580
 0.8120	55.8750
 0.8130	55.9030
 0.8140	55.9300
 0.8150	55.9520
 0.8160	55.9670
 0.8170	55.9830
 0.8180	55.9990
 0.8190	56.0190
 0.8200	56.0480
 0.8210	56.0690
 0.8220	56.0910
 0.8230	56.1150
 0.8240	56.1350
 0.8250	56.1610
 0.8260	56.1820
 0.8270	56.1920
 0.8280	56.2030
 0.8290	56.2210
 0.8300	56.2330
 0.8310	56.2350
 0.8320	56.2610
 0.8330	56.2820
 0.8340	56.2980
 0.8350	56.3170
 0.8360	56.3350
 0.8370	56.3650
 0.8380	56.4010
 0.8390	56.4260
 0.8400	56.4600
 0.8410	56.4940
 0.8420	56.5230
 0.8430	56.5520
 0.8440	56.5820
 0.8450	56.6110
 0.8460	56.6380
 0.8470	56.6700
 0.8480	56.7060
 0.8490	56.7450
 0.8500	56.7830
 0.8510	56.7910
 0.8520	56.8090
 0.8530	56.8420
 0.8540	56.8790
 0.8550	56.9050
 0.8560	56.9290
 0.8570	56.9590
 0.8580	56.9950
 0.8590	57.0220
 0.8600	57.0380
 0.8610	57.0510
 0.8620	57.0840
 0.8630	57.1040
 0.8640	57.1170
 0.8650	57.1350
 0.8660	57.1690
 0.8670	57.1840
 0.8680	57.1880
 0.8690	57.2010
 0.8700	57.2280
 0.8710	57.2460
 0.8720	57.2580
 0.8730	57.2770
 0.8740	57.2930
 0.8750	57.3050
 0.8760	57.3110
 0.8770	57.3140
 0.8780	57.3310
 0.8790	57.3450
 0.8800	57.3480
 0.8810	57.3480
 0.8820	57.3530
 0.8830	57.3610
 0.8840	57.3660
 0.8850	57.3640
 0.8860	57.3690
 0.8870	57.3720
 0.8880	57.3630
 0.8890	57.3670
 0.8900	57.3610
 0.8910	57.3480
 0.8920	57.3390
 0.8930	57.3280
 0.8940	57.3190
 0.8950	57.3140
 0.8960	57.3070
 0.8970	57.3030
 0.8980	57.2930
 0.8990	57.2760
 0.9000	57.2640
 0.9010	57.2520
 0.9020	57.2460
 0.9030	57.2450
 0.9040	57.2360
 0.9050	57.2320
 0.9060	57.2240
 0.9070	57.2050
 0.9080	57.1720
 0.9090	57.1450
 0.9100	57.1290
 0.9110	57.1180
 0.9120	57.0970
 0.9130	57.0880
 0.9140	57.0820
 0.9150	57.0630
 0.9160	57.0350
 0.9170	57.0170
 0.9180	57.0020
 0.9190	56.9790
 0.9200	56.9650
 0.9210	56.9450
 0.9220	56.9110
 0.9230	56.8650
 0.9240	56.8360
 0.9250	56.8110
 0.9260	56.7700
 0.9270	56.7000
 0.9280	56.6490
 0.9290	56.6010
 0.9300	56.5500
 0.9310	56.5040
 0.9320	56.4270
 0.9330	56.3470
 0.9340	56.2780
 0.9350	56.2080
 0.9360	56.1290
 0.9370	56.0480
 0.9380	55.9650
 0.9390	55.8640
 0.9400	55.7730
 0.9410	55.6850
 0.9420	55.5880
 0.9430	55.4730
 0.9440	55.3500
 0.9450	55.2200
 0.9460	55.0770
 0.9470	54.9100
 0.9480	54.7480
 0.9490	54.5750
 0.9500	54.3760
 0.9510	54.1740
 0.9520	53.9730
 0.9530	53.7730
 0.9540	53.5660
 0.9550	53.3530
 0.9560	53.1400
 0.9570	52.9410
 0.9580	52.7590
 0.9590	52.5720
 0.9600	52.4060
 0.9610	52.2630
 0.9620	52.1360
 0.9630	52.0320
 0.9640	51.9270
 0.9650	51.8210
 0.9660	51.7280
 0.9670	51.6750
 0.9680	51.6050
 0.9690	51.5300
 0.9700	51.4850
 0.9710	51.4580
 0.9720	51.4080
 0.9730	51.3530
 0.9740	51.3260
 0.9750	51.2980
 0.9760	51.2780
 0.9770	51.2650
 0.9780	51.2560
 0.9790	51.2480
 0.9800	51.2380
 0.9810	51.2350
 0.9820	51.2500
 0.9830	51.2790
 0.9840	51.3160
 0.9850	51.3540
 0.9860	51.3870
 0.9870	51.4080
 0.9880	51.4490
 0.9890	51.4900
 0.9900	51.5120
 0.9910	51.5940
 0.9920	51.7050
 0.9930	51.8150
 0.9940	51.9260
 0.9950	52.0370
 0.9960	52.1480
 0.9970	52.2590
 0.9980	52.3690
 0.9990	52.4800
 1.0000	52.5910
 1.0010	52.7020
 1.0020	52.8130
 1.0030	52.9230
 1.0040	53.0340
 1.0050	53.1450
 1.0060	53.2560
 1.0070	53.3670
 1.0080	53.4770
 1.0090	53.5880
 1.0100	53.5880
 1.0110	53.6870
 1.0120	53.7860
 1.0130	53.8840
 1.0140	53.9830
 1.0150	54.0830
 1.0160	54.1840
 1.0170	54.2800
 1.0180	54.3800
 1.0190	54.4810
 1.0200	54.5830
 1.0210	54.6840
 1.0220	54.7840
 1.0230	54.8830
 1.0240	54.9780
 1.0250	55.0760
 1.0260	55.1760
 1.0270	55.2730
 1.0280	55.3720
 1.0290	55.4670
 1.0300	55.5600
 1.0310	55.6500
 1.0320	55.7370
 1.0330	55.8210
 1.0340	55.9070
 1.0350	55.9970
 1.0360	56.0890
 1.0370	56.1780
 1.0380	56.2630
 1.0390	56.3440
 1.0400	56.4240
 1.0410	56.5000
 1.0420	56.5740
 1.0430	56.6450
 1.0440	56.7180
 1.0450	56.7900
 1.0460	56.8600
 1.0470	56.9330
 1.0480	57.0010
 1.0490	57.0650
 1.0500	57.1290
 1.0510	57.1920
 1.0520	57.2530
 1.0530	57.3140
 1.0540	57.3750
 1.0550	57.4340
 1.0560	57.4910
 1.0570	57.5460
 1.0580	57.5990
 1.0590	57.6470
 1.0600	57.6890
 1.0610	57.7340
 1.0620	57.7760
 1.0630	57.8180
 1.0640	57.8650
 1.0650	57.9040
 1.0660	57.9390
 1.0670	57.9720
 1.0680	58.0020
 1.0690	58.0260
 1.0700	58.0520
 1.0710	58.0790
 1.0720	58.1000
 1.0730	58.1160
 1.0740	58.1340
 1.0750	58.1480
 1.0760	58.1630
 1.0770	58.1830
 1.0780	58.1940
 1.0790	58.2000
 1.0800	58.2050
 1.0810	58.2010
 1.0820	58.2000
 1.0830	58.2030
 1.0840	58.1990
 1.0850	58.1910
 1.0860	58.1840
 1.0870	58.1690
 1.0880	58.1460
 1.0890	58.1300
 1.0900	58.1130
 1.0910	58.0940
 1.0920	58.0780
 1.0930	58.0530
 1.0940	58.0220
 1.0950	57.9910
 1.0960	57.9580
 1.0970	57.9240
 1.0980	57.8900
 1.0990	57.8530
 1.1000	57.8120
 1.1010	57.7700
 1.1020	57.7260
 1.1030	57.6790
 1.1040	57.6320
 1.1050	57.5840
 1.1060	57.5320
 1.1070	57.4760
 1.1080	57.4190
 1.1090	57.3590
 1.1100	57.2960
 1.1110	57.2320
 1.1120	57.1640
 1.1130	57.0950
 1.1140	57.0180
 1.1150	56.9380
 1.1160	56.8520
 1.1170	56.7630
 1.1180	56.6620
 1.1190	56.5580
 1.1200	56.4410
 1.1210	56.3100
 1.1220	56.1670
 1.1230	56.0120
 1.1240	55.8490
 1.1250	55.6650
 1.1260	55.4690
 1.1270	55.2490
 1.1280	55.0100
 1.1290	54.7490
 1.1300	54.4690
 1.1310	54.1650
 1.1320	53.8390
 1.1330	53.4950
 1.1340	53.1250
 1.1350	52.7440
 1.1360	52.3470
 1.1370	51.9300
 1.1380	51.5030
 1.1390	51.0650
 1.1400	50.6150
 1.1410	50.1700
 1.1420	49.7240
 1.1430	49.2810
 1.1440	48.8490
 1.1450	48.4170
 1.1460	48.0040
 1.1470	47.5980
 1.1480	47.2120
 1.1490	46.8370
 1.1500	46.4850
 1.1510	46.1480
 1.1520	45.8350
 1.1530	45.5420
 1.1540	45.2710
 1.1550	45.0230
 1.1560	44.7940
 1.1570	44.5880
 1.1580	44.4000
 1.1590	44.2250
 1.1600	44.0650
 1.1610	43.9180
 1.1620	43.7810
 1.1630	43.6570
 1.1640	43.5440
 1.1650	43.4400
 1.1660	43.3480
 1.1670	43.2600
 1.1680	43.1810
 1.1690	43.1030
 1.1700	43.0330
 1.1710	42.9620
 1.1720	42.8930
 1.1730	42.8250
 1.1740	42.7560
 1.1750	42.6890
 1.1760	42.6210
 1.1770	42.5510
 1.1780	42.4790
 1.1790	42.4060
 1.1800	42.3340
 1.1810	42.2630
 1.1820	42.1900
 1.1830	42.1170
 1.1840	42.0420
 1.1850	41.9690
 1.1860	41.9000
 1.1870	41.8320
 1.1880	41.7690
 1.1890	41.7090
 1.1900	41.6550
 1.1910	41.6050
 1.1920	41.5620
 1.1930	41.5240
 1.1940	41.4910
 1.1950	41.4640
 1.1960	41.4430
 1.1970	41.4270
 1.1980	41.4180
 1.1990	41.4110
 1.2000	41.4100
 1.2010	41.4170
 1.2020	41.4280
 1.2030	41.4450
 1.2040	41.4690
 1.2050	41.4970
 1.2060	41.5310
 1.2070	41.5700
 1.2080	41.6130
 1.2090	41.6600
 1.2100	41.7100
 1.2110	41.7680
 1.2120	41.8310
 1.2130	41.8990
 1.2140	41.9740
 1.2150	42.0510
 1.2160	42.1320
 1.2170	42.2180
 1.2180	42.3070
 1.2190	42.3980
 1.2200	42.4920
 1.2210	42.5890
 1.2220	42.6880
 1.2230	42.7880
 1.2240	42.8910
 1.2250	42.9920
 1.2260	43.0900
 1.2270	43.1900
 1.2280	43.2850
 1.2290	43.3780
 1.2300	43.4730
 1.2310	43.5640
 1.2320	43.6530
 1.2330	43.7410
 1.2340	43.8270
 1.2350	43.9110
 1.2360	43.9920
 1.2370	44.0720
 1.2380	44.1500
 1.2390	44.2250
 1.2400	44.2990
 1.2410	44.3710
 1.2420	44.4400
 1.2430	44.5050
 1.2440	44.5700
 1.2450	44.6340
 1.2460	44.6970
 1.2470	44.7610
 1.2480	44.8190
 1.2490	44.8740
 1.2500	44.9240
 1.2510	44.9740
 1.2520	45.0250
 1.2530	45.0730
 1.2540	45.1190
 1.2550	45.1650
 1.2560	45.2070
 1.2570	45.2470
 1.2580	45.2850
 1.2590	45.3190
 1.2600	45.3490
 1.2610	45.3790
 1.2620	45.4070
 1.2630	45.4320
 1.2640	45.4540
 1.2650	45.4730
 1.2660	45.4880
 1.2670	45.5000
 1.2680	45.5120
 1.2690	45.5210
 1.2700	45.5280
 1.2710	45.5330
 1.2720	45.5330
 1.2730	45.5300
 1.2740	45.5270
 1.2750	45.5220
 1.2760	45.5120
 1.2770	45.4990
 1.2780	45.4810
 1.2790	45.4580
 1.2800	45.4350
 1.2810	45.4080
 1.2820	45.3770
 1.2830	45.3440
 1.2840	45.3040
 1.2850	45.2610
 1.2860	45.2170
 1.2870	45.1660
 1.2880	45.1110
 1.2890	45.0520
 1.2900	44.9880
 1.2910	44.9180
 1.2920	44.8460
 1.2930	44.7690
 1.2940	44.6860
 1.2950	44.5990
 1.2960	44.5030
 1.2970	44.4040
 1.2980	44.2990
 1.2990	44.1870
 1.3000	44.0710
 1.3010	43.9470
 1.3020	43.8170
 1.3030	43.6830
 1.3040	43.5420
 1.3050	43.3960
 1.3060	43.2450
 1.3070	43.0850
 1.3080	42.9230
 1.3090	42.7550
 1.3100	42.5770
 1.3110	42.3950
 1.3120	42.2020
 1.3130	42.0030
 1.3140	41.7990
 1.3150	41.5880
 1.3160	41.3720
 1.3170	41.1530
 1.3180	40.9300
 1.3190	40.6990
 1.3200	40.4660
 1.3210	40.2250
 1.3220	39.9790
 1.3230	39.7300
 1.3240	39.4760
 1.3250	39.2240
 1.3260	38.9670
 1.3270	38.7070
 1.3280	38.4460
 1.3290	38.1790
 1.3300	37.9120
 1.3310	37.6440
 1.3320	37.3740
 1.3330	37.1090
 1.3340	36.8460
 1.3350	36.5820
 1.3360	36.3220
 1.3370	36.0630
 1.3380	35.8060
 1.3390	35.5540
 1.3400	35.3040
 1.3410	35.0610
 1.3420	34.8210
 1.3430	34.5840
 1.3440	34.3540
 1.3450	34.1270
 1.3460	33.9040
 1.3470	33.6870
 1.3480	33.4740
 1.3490	33.2670
 1.3500	33.0650
 1.3510	32.8660
 1.3520	32.6690
 1.3530	32.4760
 1.3540	32.2840
 1.3550	32.0930
 1.3560	31.9040
 1.3570	31.7140
 1.3580	31.5240
 1.3590	31.3330
 1.3600	31.1400
 1.3610	30.9440
 1.3620	30.7430
 1.3630	30.5390
 1.3640	30.3290
 1.3650	30.1120
 1.3660	29.8900
 1.3670	29.6590
 1.3680	29.4160
 1.3690	29.1620
 1.3700	28.8950
 1.3710	28.6150
 1.3720	28.3220
 1.3730	28.0130
 1.3740	27.6930
 1.3750	27.3550
 1.3760	26.9970
 1.3770	26.6230
 1.3780	26.2270
 1.3790	25.8130
 1.3800	25.3850
 1.3810	24.9370
 1.3820	24.4780
 1.3830	24.0040
 1.3840	23.5210
 1.3850	23.0240
 1.3860	22.5250
 1.3870	22.0140
 1.3880	21.5090
 1.3890	21.0010
 1.3900	20.4940
 1.3910	19.9980
 1.3920	19.5050
 1.3930	19.0180
 1.3940	18.5450
 1.3950	18.0780
 1.3960	17.6250
 1.3970	17.1890
 1.3980	16.7680
 1.3990	16.3700
 1.4000	15.9870
 1.4010	15.6190
 1.4020	15.2700
 1.4030	14.9340
 1.4040	14.6170
 1.4050	14.3190
 1.4060	14.0370
 1.4070	13.7750
 1.4080	13.5280
 1.4090	13.2950
 1.4100	13.0780
 1.4110	12.8720
 1.4120	12.6800
 1.4130	12.5010
 1.4140	12.3320
 1.4150	12.1780
 1.4160	12.0330
 1.4170	11.8980
 1.4180	11.7720
 1.4190	11.6530
 1.4200	11.5430
 1.4210	11.4420
 1.4220	11.3470
 1.4230	11.2600
 1.4240	11.1790
 1.4250	11.1040
 1.4260	11.0340
 1.4270	10.9690
 1.4280	10.9090
 1.4290	10.8540
 1.4300	10.8030
 1.4310	10.7560
 1.4320	10.7120
 1.4330	10.6720
 1.4340	10.6360
 1.4350	10.6030
 1.4360	10.5740
 1.4370	10.5470
 1.4380	10.5240
 1.4390	10.5030
 1.4400	10.4850
 1.4410	10.4690
 1.4420	10.4550
 1.4430	10.4430
 1.4440	10.4330
 1.4450	10.4260
 1.4460	10.4200
 1.4470	10.4150
 1.4480	10.4120
 1.4490	10.4110
 1.4500	10.4110
 1.4510	10.4120
 1.4520	10.4140
 1.4530	10.4170
 1.4540	10.4220
 1.4550	10.4280
 1.4560	10.4350
 1.4570	10.4440
 1.4580	10.4540
 1.4590	10.4660
 1.4600	10.4820
 1.4610	10.5000
 1.4620	10.5200
 1.4630	10.5420
 1.4640	10.5640
 1.4650	10.5890
 1.4660	10.6180
 1.4670	10.6490
 1.4680	10.6830
 1.4690	10.7190
 1.4700	10.7580
