Name: Eucalyptus ficifolia
Type: vegetation
Class: Tree
Genus: Eucalyptus
Species: ficifolia
Sample No.: JPL157
Owner: JPL
Wavelength Range: VSWIR
Origin: 34.12506; -118.11349; WGS84
Collection Date: 9/14/2016
Description: Samples were collected at the Huntington Garden in San Marino California as part of a JPL Subcontract studying HyTES imagery. Samples were taken to JPL and processed within 48 hours of collection. The same leaves were processed in the Nicolet and then measured using the ASD.
Measurement: Bidirectional reflectance
First Column: X
Second Column: Y
X Units: Wavelength (micrometer)
Y Units: Reflectance (percentage)
First X Value: 0.35
Last X Value: 2.5
Number of X Values: 2151
Additional Information: vegetation.tree.eucalyptus.ficifolia.vswir.jpl157.jpl.asd.ancillary.txt

 0.3500	 5.1790
 0.3510	 5.0410
 0.3520	 5.0120
 0.3530	 5.0750
 0.3540	 5.1460
 0.3550	 5.1050
 0.3560	 5.0610
 0.3570	 5.0510
 0.3580	 5.0620
 0.3590	 5.0480
 0.3600	 5.0460
 0.3610	 5.0600
 0.3620	 5.0260
 0.3630	 5.0070
 0.3640	 4.9930
 0.3650	 4.9620
 0.3660	 4.9100
 0.3670	 4.9290
 0.3680	 4.9830
 0.3690	 4.9610
 0.3700	 4.9420
 0.3710	 4.9510
 0.3720	 4.9870
 0.3730	 5.0170
 0.3740	 4.9880
 0.3750	 4.9400
 0.3760	 4.9290
 0.3770	 4.8960
 0.3780	 4.9190
 0.3790	 4.9720
 0.3800	 4.9540
 0.3810	 4.9530
 0.3820	 4.9750
 0.3830	 4.9970
 0.3840	 4.9550
 0.3850	 4.9140
 0.3860	 4.9090
 0.3870	 4.9470
 0.3880	 4.9370
 0.3890	 4.9210
 0.3900	 4.9210
 0.3910	 4.9200
 0.3920	 4.9350
 0.3930	 4.9440
 0.3940	 4.9340
 0.3950	 4.9320
 0.3960	 4.9250
 0.3970	 4.9240
 0.3980	 4.9420
 0.3990	 4.9580
 0.4000	 4.9490
 0.4010	 4.9240
 0.4020	 4.9330
 0.4030	 4.9440
 0.4040	 4.9470
 0.4050	 4.9400
 0.4060	 4.9330
 0.4070	 4.9310
 0.4080	 4.9420
 0.4090	 4.9700
 0.4100	 4.9650
 0.4110	 4.9750
 0.4120	 5.0100
 0.4130	 5.0020
 0.4140	 5.0020
 0.4150	 5.0160
 0.4160	 5.0290
 0.4170	 5.0190
 0.4180	 5.0290
 0.4190	 5.0560
 0.4200	 5.0590
 0.4210	 5.0670
 0.4220	 5.0800
 0.4230	 5.0930
 0.4240	 5.1010
 0.4250	 5.1180
 0.4260	 5.1390
 0.4270	 5.1520
 0.4280	 5.1550
 0.4290	 5.1670
 0.4300	 5.1880
 0.4310	 5.1920
 0.4320	 5.1960
 0.4330	 5.2090
 0.4340	 5.2330
 0.4350	 5.2500
 0.4360	 5.2610
 0.4370	 5.2710
 0.4380	 5.2880
 0.4390	 5.3040
 0.4400	 5.3200
 0.4410	 5.3380
 0.4420	 5.3590
 0.4430	 5.3750
 0.4440	 5.3880
 0.4450	 5.4030
 0.4460	 5.4270
 0.4470	 5.4460
 0.4480	 5.4560
 0.4490	 5.4690
 0.4500	 5.4810
 0.4510	 5.4950
 0.4520	 5.5170
 0.4530	 5.5400
 0.4540	 5.5520
 0.4550	 5.5580
 0.4560	 5.5700
 0.4570	 5.5830
 0.4580	 5.5940
 0.4590	 5.6050
 0.4600	 5.6220
 0.4610	 5.6340
 0.4620	 5.6400
 0.4630	 5.6450
 0.4640	 5.6550
 0.4650	 5.6690
 0.4660	 5.6820
 0.4670	 5.6820
 0.4680	 5.6900
 0.4690	 5.6990
 0.4700	 5.7040
 0.4710	 5.7180
 0.4720	 5.7270
 0.4730	 5.7320
 0.4740	 5.7420
 0.4750	 5.7470
 0.4760	 5.7540
 0.4770	 5.7630
 0.4780	 5.7580
 0.4790	 5.7640
 0.4800	 5.7750
 0.4810	 5.7760
 0.4820	 5.7790
 0.4830	 5.7850
 0.4840	 5.7910
 0.4850	 5.7950
 0.4860	 5.8070
 0.4870	 5.8200
 0.4880	 5.8290
 0.4890	 5.8370
 0.4900	 5.8490
 0.4910	 5.8690
 0.4920	 5.8930
 0.4930	 5.9100
 0.4940	 5.9280
 0.4950	 5.9510
 0.4960	 5.9770
 0.4970	 6.0010
 0.4980	 6.0270
 0.4990	 6.0570
 0.5000	 6.0950
 0.5010	 6.1320
 0.5020	 6.1680
 0.5030	 6.2160
 0.5040	 6.2650
 0.5050	 6.3170
 0.5060	 6.3760
 0.5070	 6.4400
 0.5080	 6.5020
 0.5090	 6.5680
 0.5100	 6.6520
 0.5110	 6.7360
 0.5120	 6.8230
 0.5130	 6.9180
 0.5140	 7.0230
 0.5150	 7.1350
 0.5160	 7.2540
 0.5170	 7.3820
 0.5180	 7.5180
 0.5190	 7.6570
 0.5200	 7.7990
 0.5210	 7.9520
 0.5220	 8.1100
 0.5230	 8.2690
 0.5240	 8.4260
 0.5250	 8.5800
 0.5260	 8.7320
 0.5270	 8.8840
 0.5280	 9.0330
 0.5290	 9.1720
 0.5300	 9.3030
 0.5310	 9.4270
 0.5320	 9.5400
 0.5330	 9.6480
 0.5340	 9.7480
 0.5350	 9.8390
 0.5360	 9.9210
 0.5370	 9.9950
 0.5380	10.0630
 0.5390	10.1250
 0.5400	10.1840
 0.5410	10.2410
 0.5420	10.2930
 0.5430	10.3390
 0.5440	10.3800
 0.5450	10.4170
 0.5460	10.4500
 0.5470	10.4750
 0.5480	10.5000
 0.5490	10.5260
 0.5500	10.5480
 0.5510	10.5640
 0.5520	10.5720
 0.5530	10.5720
 0.5540	10.5600
 0.5550	10.5370
 0.5560	10.5050
 0.5570	10.4630
 0.5580	10.4110
 0.5590	10.3510
 0.5600	10.2840
 0.5610	10.2090
 0.5620	10.1300
 0.5630	10.0460
 0.5640	 9.9600
 0.5650	 9.8740
 0.5660	 9.7870
 0.5670	 9.6990
 0.5680	 9.6080
 0.5690	 9.5180
 0.5700	 9.4290
 0.5710	 9.3390
 0.5720	 9.2470
 0.5730	 9.1600
 0.5740	 9.0760
 0.5750	 8.9930
 0.5760	 8.9150
 0.5770	 8.8440
 0.5780	 8.7780
 0.5790	 8.7150
 0.5800	 8.6570
 0.5810	 8.6030
 0.5820	 8.5520
 0.5830	 8.5100
 0.5840	 8.4720
 0.5850	 8.4350
 0.5860	 8.4010
 0.5870	 8.3670
 0.5880	 8.3350
 0.5890	 8.3070
 0.5900	 8.2780
 0.5910	 8.2500
 0.5920	 8.2210
 0.5930	 8.1930
 0.5940	 8.1710
 0.5950	 8.1540
 0.5960	 8.1390
 0.5970	 8.1300
 0.5980	 8.1190
 0.5990	 8.1040
 0.6000	 8.0880
 0.6010	 8.0690
 0.6020	 8.0460
 0.6030	 8.0210
 0.6040	 7.9950
 0.6050	 7.9630
 0.6060	 7.9250
 0.6070	 7.8850
 0.6080	 7.8470
 0.6090	 7.8070
 0.6100	 7.7630
 0.6110	 7.7190
 0.6120	 7.6760
 0.6130	 7.6320
 0.6140	 7.5870
 0.6150	 7.5480
 0.6160	 7.5060
 0.6170	 7.4660
 0.6180	 7.4310
 0.6190	 7.4000
 0.6200	 7.3720
 0.6210	 7.3450
 0.6220	 7.3220
 0.6230	 7.3050
 0.6240	 7.2910
 0.6250	 7.2790
 0.6260	 7.2690
 0.6270	 7.2620
 0.6280	 7.2580
 0.6290	 7.2570
 0.6300	 7.2540
 0.6310	 7.2490
 0.6320	 7.2430
 0.6330	 7.2350
 0.6340	 7.2200
 0.6350	 7.2000
 0.6360	 7.1740
 0.6370	 7.1420
 0.6380	 7.1030
 0.6390	 7.0600
 0.6400	 7.0180
 0.6410	 6.9700
 0.6420	 6.9210
 0.6430	 6.8710
 0.6440	 6.8220
 0.6450	 6.7740
 0.6460	 6.7270
 0.6470	 6.6860
 0.6480	 6.6510
 0.6490	 6.6190
 0.6500	 6.5890
 0.6510	 6.5660
 0.6520	 6.5490
 0.6530	 6.5340
 0.6540	 6.5180
 0.6550	 6.5000
 0.6560	 6.4790
 0.6570	 6.4550
 0.6580	 6.4280
 0.6590	 6.3970
 0.6600	 6.3650
 0.6610	 6.3330
 0.6620	 6.3030
 0.6630	 6.2730
 0.6640	 6.2450
 0.6650	 6.2210
 0.6660	 6.1950
 0.6670	 6.1770
 0.6680	 6.1660
 0.6690	 6.1560
 0.6700	 6.1530
 0.6710	 6.1560
 0.6720	 6.1620
 0.6730	 6.1710
 0.6740	 6.1880
 0.6750	 6.2100
 0.6760	 6.2310
 0.6770	 6.2580
 0.6780	 6.2920
 0.6790	 6.3320
 0.6800	 6.3760
 0.6810	 6.4290
 0.6820	 6.4880
 0.6830	 6.5530
 0.6840	 6.6250
 0.6850	 6.7060
 0.6860	 6.8000
 0.6870	 6.9080
 0.6880	 7.0300
 0.6890	 7.1770
 0.6900	 7.3550
 0.6910	 7.5700
 0.6920	 7.8270
 0.6930	 8.1340
 0.6940	 8.4990
 0.6950	 8.9240
 0.6960	 9.4040
 0.6970	 9.9410
 0.6980	10.5360
 0.6990	11.1810
 0.7000	11.8710
 0.7010	12.6010
 0.7020	13.3610
 0.7030	14.1460
 0.7040	14.9490
 0.7050	15.7650
 0.7060	16.5870
 0.7070	17.4140
 0.7080	18.2440
 0.7090	19.0780
 0.7100	19.9070
 0.7110	20.7380
 0.7120	21.5690
 0.7130	22.3930
 0.7140	23.2090
 0.7150	24.0170
 0.7160	24.8170
 0.7170	25.6060
 0.7180	26.3800
 0.7190	27.1360
 0.7200	27.8760
 0.7210	28.5960
 0.7220	29.2940
 0.7230	29.9660
 0.7240	30.6120
 0.7250	31.2300
 0.7260	31.8200
 0.7270	32.3820
 0.7280	32.9160
 0.7290	33.4200
 0.7300	33.8940
 0.7310	34.3400
 0.7320	34.7600
 0.7330	35.1540
 0.7340	35.5220
 0.7350	35.8630
 0.7360	36.1800
 0.7370	36.4750
 0.7380	36.7480
 0.7390	37.0020
 0.7400	37.2340
 0.7410	37.4460
 0.7420	37.6420
 0.7430	37.8220
 0.7440	37.9840
 0.7450	38.1290
 0.7460	38.2560
 0.7470	38.3720
 0.7480	38.4770
 0.7490	38.5710
 0.7500	38.6530
 0.7510	38.7280
 0.7520	38.7940
 0.7530	38.8520
 0.7540	38.9050
 0.7550	38.9530
 0.7560	38.9950
 0.7570	39.0290
 0.7580	39.0620
 0.7590	39.0930
 0.7600	39.1210
 0.7610	39.1420
 0.7620	39.1610
 0.7630	39.1800
 0.7640	39.1970
 0.7650	39.2090
 0.7660	39.2180
 0.7670	39.2260
 0.7680	39.2330
 0.7690	39.2370
 0.7700	39.2420
 0.7710	39.2500
 0.7720	39.2550
 0.7730	39.2600
 0.7740	39.2640
 0.7750	39.2660
 0.7760	39.2690
 0.7770	39.2750
 0.7780	39.2810
 0.7790	39.2830
 0.7800	39.2870
 0.7810	39.2890
 0.7820	39.2930
 0.7830	39.3000
 0.7840	39.3040
 0.7850	39.3060
 0.7860	39.3100
 0.7870	39.3120
 0.7880	39.3120
 0.7890	39.3130
 0.7900	39.3140
 0.7910	39.3170
 0.7920	39.3180
 0.7930	39.3180
 0.7940	39.3190
 0.7950	39.3170
 0.7960	39.3150
 0.7970	39.3140
 0.7980	39.3090
 0.7990	39.3040
 0.8000	39.3010
 0.8010	39.2980
 0.8020	39.2940
 0.8030	39.2910
 0.8040	39.2880
 0.8050	39.2830
 0.8060	39.2750
 0.8070	39.2670
 0.8080	39.2590
 0.8090	39.2510
 0.8100	39.2440
 0.8110	39.2380
 0.8120	39.2300
 0.8130	39.2200
 0.8140	39.2120
 0.8150	39.2020
 0.8160	39.1910
 0.8170	39.1860
 0.8180	39.1750
 0.8190	39.1630
 0.8200	39.1540
 0.8210	39.1450
 0.8220	39.1350
 0.8230	39.1240
 0.8240	39.1140
 0.8250	39.1050
 0.8260	39.0950
 0.8270	39.0840
 0.8280	39.0710
 0.8290	39.0600
 0.8300	39.0500
 0.8310	39.0400
 0.8320	39.0280
 0.8330	39.0180
 0.8340	39.0100
 0.8350	39.0000
 0.8360	38.9920
 0.8370	38.9830
 0.8380	38.9740
 0.8390	38.9690
 0.8400	38.9650
 0.8410	38.9600
 0.8420	38.9530
 0.8430	38.9500
 0.8440	38.9460
 0.8450	38.9410
 0.8460	38.9370
 0.8470	38.9320
 0.8480	38.9290
 0.8490	38.9280
 0.8500	38.9270
 0.8510	38.9250
 0.8520	38.9240
 0.8530	38.9220
 0.8540	38.9190
 0.8550	38.9180
 0.8560	38.9170
 0.8570	38.9170
 0.8580	38.9220
 0.8590	38.9250
 0.8600	38.9270
 0.8610	38.9300
 0.8620	38.9300
 0.8630	38.9280
 0.8640	38.9290
 0.8650	38.9330
 0.8660	38.9400
 0.8670	38.9450
 0.8680	38.9470
 0.8690	38.9520
 0.8700	38.9540
 0.8710	38.9580
 0.8720	38.9620
 0.8730	38.9690
 0.8740	38.9740
 0.8750	38.9790
 0.8760	38.9840
 0.8770	38.9860
 0.8780	38.9920
 0.8790	39.0010
 0.8800	39.0070
 0.8810	39.0050
 0.8820	39.0130
 0.8830	39.0200
 0.8840	39.0190
 0.8850	39.0230
 0.8860	39.0300
 0.8870	39.0380
 0.8880	39.0430
 0.8890	39.0500
 0.8900	39.0540
 0.8910	39.0570
 0.8920	39.0640
 0.8930	39.0720
 0.8940	39.0750
 0.8950	39.0760
 0.8960	39.0800
 0.8970	39.0830
 0.8980	39.0880
 0.8990	39.0920
 0.9000	39.0940
 0.9010	39.0970
 0.9020	39.1000
 0.9030	39.1020
 0.9040	39.1020
 0.9050	39.1070
 0.9060	39.1100
 0.9070	39.1090
 0.9080	39.1110
 0.9090	39.1190
 0.9100	39.1250
 0.9110	39.1210
 0.9120	39.1190
 0.9130	39.1140
 0.9140	39.1090
 0.9150	39.1070
 0.9160	39.1050
 0.9170	39.1070
 0.9180	39.1050
 0.9190	39.0920
 0.9200	39.0920
 0.9210	39.0930
 0.9220	39.0870
 0.9230	39.0780
 0.9240	39.0680
 0.9250	39.0590
 0.9260	39.0480
 0.9270	39.0350
 0.9280	39.0240
 0.9290	39.0070
 0.9300	38.9850
 0.9310	38.9700
 0.9320	38.9580
 0.9330	38.9430
 0.9340	38.9230
 0.9350	38.9050
 0.9360	38.8820
 0.9370	38.8570
 0.9380	38.8330
 0.9390	38.8070
 0.9400	38.7810
 0.9410	38.7580
 0.9420	38.7360
 0.9430	38.6980
 0.9440	38.6660
 0.9450	38.6360
 0.9460	38.6010
 0.9470	38.5590
 0.9480	38.5060
 0.9490	38.4540
 0.9500	38.4090
 0.9510	38.3680
 0.9520	38.3130
 0.9530	38.2550
 0.9540	38.2050
 0.9550	38.1420
 0.9560	38.0870
 0.9570	38.0350
 0.9580	37.9830
 0.9590	37.9370
 0.9600	37.8920
 0.9610	37.8470
 0.9620	37.8070
 0.9630	37.7740
 0.9640	37.7520
 0.9650	37.7270
 0.9660	37.6880
 0.9670	37.6660
 0.9680	37.6580
 0.9690	37.6450
 0.9700	37.6150
 0.9710	37.6010
 0.9720	37.5810
 0.9730	37.5650
 0.9740	37.5640
 0.9750	37.5350
 0.9760	37.5250
 0.9770	37.5280
 0.9780	37.5160
 0.9790	37.5100
 0.9800	37.5110
 0.9810	37.5120
 0.9820	37.5080
 0.9830	37.5130
 0.9840	37.5080
 0.9850	37.4950
 0.9860	37.4900
 0.9870	37.4990
 0.9880	37.5040
 0.9890	37.5050
 0.9900	37.5130
 0.9910	37.5370
 0.9920	37.5510
 0.9930	37.5570
 0.9940	37.5650
 0.9950	37.5750
 0.9960	37.5820
 0.9970	37.5880
 0.9980	37.5980
 0.9990	37.6070
 1.0000	37.6310
 1.0010	37.6440
 1.0020	37.6590
 1.0030	37.6740
 1.0040	37.6940
 1.0050	37.7130
 1.0060	37.7280
 1.0070	37.7430
 1.0080	37.7600
 1.0090	37.7780
 1.0100	37.7940
 1.0110	37.8110
 1.0120	37.8290
 1.0130	37.8460
 1.0140	37.8630
 1.0150	37.8830
 1.0160	37.9000
 1.0170	37.9160
 1.0180	37.9300
 1.0190	37.9450
 1.0200	37.9620
 1.0210	37.9800
 1.0220	37.9980
 1.0230	38.0150
 1.0240	38.0340
 1.0250	38.0500
 1.0260	38.0620
 1.0270	38.0770
 1.0280	38.0890
 1.0290	38.1060
 1.0300	38.1270
 1.0310	38.1440
 1.0320	38.1620
 1.0330	38.1800
 1.0340	38.1900
 1.0350	38.2030
 1.0360	38.2160
 1.0370	38.2260
 1.0380	38.2380
 1.0390	38.2530
 1.0400	38.2670
 1.0410	38.2830
 1.0420	38.2970
 1.0430	38.3090
 1.0440	38.3210
 1.0450	38.3320
 1.0460	38.3430
 1.0470	38.3540
 1.0480	38.3640
 1.0490	38.3730
 1.0500	38.3820
 1.0510	38.3900
 1.0520	38.3970
 1.0530	38.4060
 1.0540	38.4130
 1.0550	38.4230
 1.0560	38.4350
 1.0570	38.4440
 1.0580	38.4550
 1.0590	38.4630
 1.0600	38.4680
 1.0610	38.4750
 1.0620	38.4830
 1.0630	38.4890
 1.0640	38.4980
 1.0650	38.5020
 1.0660	38.5020
 1.0670	38.5050
 1.0680	38.5090
 1.0690	38.5130
 1.0700	38.5180
 1.0710	38.5270
 1.0720	38.5310
 1.0730	38.5330
 1.0740	38.5360
 1.0750	38.5400
 1.0760	38.5400
 1.0770	38.5370
 1.0780	38.5360
 1.0790	38.5310
 1.0800	38.5310
 1.0810	38.5380
 1.0820	38.5410
 1.0830	38.5450
 1.0840	38.5460
 1.0850	38.5410
 1.0860	38.5360
 1.0870	38.5320
 1.0880	38.5270
 1.0890	38.5230
 1.0900	38.5210
 1.0910	38.5180
 1.0920	38.5160
 1.0930	38.5110
 1.0940	38.5060
 1.0950	38.4990
 1.0960	38.4880
 1.0970	38.4800
 1.0980	38.4720
 1.0990	38.4640
 1.1000	38.4610
 1.1010	38.4530
 1.1020	38.4440
 1.1030	38.4340
 1.1040	38.4230
 1.1050	38.4110
 1.1060	38.3990
 1.1070	38.3870
 1.1080	38.3750
 1.1090	38.3610
 1.1100	38.3490
 1.1110	38.3370
 1.1120	38.3240
 1.1130	38.3110
 1.1140	38.2950
 1.1150	38.2790
 1.1160	38.2600
 1.1170	38.2400
 1.1180	38.2170
 1.1190	38.1910
 1.1200	38.1640
 1.1210	38.1360
 1.1220	38.1050
 1.1230	38.0730
 1.1240	38.0360
 1.1250	37.9940
 1.1260	37.9490
 1.1270	37.9000
 1.1280	37.8480
 1.1290	37.7890
 1.1300	37.7260
 1.1310	37.6560
 1.1320	37.5800
 1.1330	37.4980
 1.1340	37.4110
 1.1350	37.3180
 1.1360	37.2180
 1.1370	37.1130
 1.1380	37.0030
 1.1390	36.8880
 1.1400	36.7690
 1.1410	36.6490
 1.1420	36.5250
 1.1430	36.4000
 1.1440	36.2750
 1.1450	36.1450
 1.1460	36.0210
 1.1470	35.8950
 1.1480	35.7740
 1.1490	35.6560
 1.1500	35.5420
 1.1510	35.4300
 1.1520	35.3250
 1.1530	35.2240
 1.1540	35.1320
 1.1550	35.0460
 1.1560	34.9670
 1.1570	34.8940
 1.1580	34.8270
 1.1590	34.7640
 1.1600	34.7050
 1.1610	34.6510
 1.1620	34.6010
 1.1630	34.5560
 1.1640	34.5150
 1.1650	34.4770
 1.1660	34.4410
 1.1670	34.4080
 1.1680	34.3780
 1.1690	34.3480
 1.1700	34.3200
 1.1710	34.2930
 1.1720	34.2670
 1.1730	34.2420
 1.1740	34.2160
 1.1750	34.1940
 1.1760	34.1720
 1.1770	34.1470
 1.1780	34.1240
 1.1790	34.1000
 1.1800	34.0740
 1.1810	34.0490
 1.1820	34.0230
 1.1830	33.9970
 1.1840	33.9740
 1.1850	33.9520
 1.1860	33.9300
 1.1870	33.9100
 1.1880	33.8890
 1.1890	33.8680
 1.1900	33.8510
 1.1910	33.8360
 1.1920	33.8210
 1.1930	33.8080
 1.1940	33.7980
 1.1950	33.7880
 1.1960	33.7790
 1.1970	33.7740
 1.1980	33.7720
 1.1990	33.7680
 1.2000	33.7670
 1.2010	33.7680
 1.2020	33.7700
 1.2030	33.7740
 1.2040	33.7810
 1.2050	33.7890
 1.2060	33.7980
 1.2070	33.8090
 1.2080	33.8220
 1.2090	33.8370
 1.2100	33.8540
 1.2110	33.8720
 1.2120	33.8900
 1.2130	33.9110
 1.2140	33.9330
 1.2150	33.9570
 1.2160	33.9820
 1.2170	34.0080
 1.2180	34.0360
 1.2190	34.0640
 1.2200	34.0930
 1.2210	34.1220
 1.2220	34.1510
 1.2230	34.1810
 1.2240	34.2090
 1.2250	34.2390
 1.2260	34.2690
 1.2270	34.2990
 1.2280	34.3290
 1.2290	34.3570
 1.2300	34.3840
 1.2310	34.4070
 1.2320	34.4300
 1.2330	34.4550
 1.2340	34.4780
 1.2350	34.4980
 1.2360	34.5200
 1.2370	34.5430
 1.2380	34.5620
 1.2390	34.5820
 1.2400	34.6030
 1.2410	34.6220
 1.2420	34.6390
 1.2430	34.6570
 1.2440	34.6740
 1.2450	34.6910
 1.2460	34.7090
 1.2470	34.7250
 1.2480	34.7390
 1.2490	34.7530
 1.2500	34.7660
 1.2510	34.7790
 1.2520	34.7920
 1.2530	34.8040
 1.2540	34.8150
 1.2550	34.8270
 1.2560	34.8360
 1.2570	34.8460
 1.2580	34.8560
 1.2590	34.8630
 1.2600	34.8670
 1.2610	34.8720
 1.2620	34.8760
 1.2630	34.8780
 1.2640	34.8820
 1.2650	34.8830
 1.2660	34.8830
 1.2670	34.8830
 1.2680	34.8830
 1.2690	34.8810
 1.2700	34.8780
 1.2710	34.8740
 1.2720	34.8690
 1.2730	34.8630
 1.2740	34.8560
 1.2750	34.8460
 1.2760	34.8360
 1.2770	34.8250
 1.2780	34.8130
 1.2790	34.8010
 1.2800	34.7900
 1.2810	34.7770
 1.2820	34.7650
 1.2830	34.7480
 1.2840	34.7300
 1.2850	34.7110
 1.2860	34.6910
 1.2870	34.6700
 1.2880	34.6480
 1.2890	34.6260
 1.2900	34.6000
 1.2910	34.5730
 1.2920	34.5420
 1.2930	34.5100
 1.2940	34.4760
 1.2950	34.4410
 1.2960	34.4060
 1.2970	34.3690
 1.2980	34.3290
 1.2990	34.2870
 1.3000	34.2420
 1.3010	34.1960
 1.3020	34.1460
 1.3030	34.0950
 1.3040	34.0440
 1.3050	33.9890
 1.3060	33.9330
 1.3070	33.8740
 1.3080	33.8110
 1.3090	33.7470
 1.3100	33.6800
 1.3110	33.6080
 1.3120	33.5350
 1.3130	33.4580
 1.3140	33.3780
 1.3150	33.2950
 1.3160	33.2100
 1.3170	33.1220
 1.3180	33.0320
 1.3190	32.9390
 1.3200	32.8440
 1.3210	32.7460
 1.3220	32.6450
 1.3230	32.5400
 1.3240	32.4330
 1.3250	32.3240
 1.3260	32.2120
 1.3270	32.0960
 1.3280	31.9790
 1.3290	31.8600
 1.3300	31.7390
 1.3310	31.6170
 1.3320	31.4920
 1.3330	31.3670
 1.3340	31.2420
 1.3350	31.1140
 1.3360	30.9870
 1.3370	30.8580
 1.3380	30.7280
 1.3390	30.5990
 1.3400	30.4700
 1.3410	30.3440
 1.3420	30.2200
 1.3430	30.0960
 1.3440	29.9730
 1.3450	29.8510
 1.3460	29.7250
 1.3470	29.6050
 1.3480	29.4860
 1.3490	29.3690
 1.3500	29.2550
 1.3510	29.1420
 1.3520	29.0270
 1.3530	28.9140
 1.3540	28.8010
 1.3550	28.6880
 1.3560	28.5740
 1.3570	28.4600
 1.3580	28.3450
 1.3590	28.2280
 1.3600	28.1090
 1.3610	27.9890
 1.3620	27.8620
 1.3630	27.7310
 1.3640	27.5960
 1.3650	27.4540
 1.3660	27.3090
 1.3670	27.1580
 1.3680	26.9970
 1.3690	26.8260
 1.3700	26.6430
 1.3710	26.4490
 1.3720	26.2430
 1.3730	26.0230
 1.3740	25.7910
 1.3750	25.5430
 1.3760	25.2760
 1.3770	24.9910
 1.3780	24.6850
 1.3790	24.3580
 1.3800	24.0130
 1.3810	23.6450
 1.3820	23.2620
 1.3830	22.8610
 1.3840	22.4420
 1.3850	22.0030
 1.3860	21.5540
 1.3870	21.0860
 1.3880	20.6160
 1.3890	20.1360
 1.3900	19.6490
 1.3910	19.1630
 1.3920	18.6750
 1.3930	18.1840
 1.3940	17.6990
 1.3950	17.2140
 1.3960	16.7370
 1.3970	16.2730
 1.3980	15.8190
 1.3990	15.3840
 1.4000	14.9640
 1.4010	14.5570
 1.4020	14.1690
 1.4030	13.7950
 1.4040	13.4410
 1.4050	13.1060
 1.4060	12.7880
 1.4070	12.4910
 1.4080	12.2100
 1.4090	11.9460
 1.4100	11.7010
 1.4110	11.4700
 1.4120	11.2540
 1.4130	11.0530
 1.4140	10.8650
 1.4150	10.6920
 1.4160	10.5320
 1.4170	10.3810
 1.4180	10.2430
 1.4190	10.1130
 1.4200	 9.9920
 1.4210	 9.8820
 1.4220	 9.7780
 1.4230	 9.6830
 1.4240	 9.5950
 1.4250	 9.5130
 1.4260	 9.4380
 1.4270	 9.3680
 1.4280	 9.3030
 1.4290	 9.2420
 1.4300	 9.1870
 1.4310	 9.1360
 1.4320	 9.0910
 1.4330	 9.0480
 1.4340	 9.0090
 1.4350	 8.9740
 1.4360	 8.9420
 1.4370	 8.9120
 1.4380	 8.8870
 1.4390	 8.8640
 1.4400	 8.8450
 1.4410	 8.8280
 1.4420	 8.8130
 1.4430	 8.7990
 1.4440	 8.7880
 1.4450	 8.7770
 1.4460	 8.7690
 1.4470	 8.7640
 1.4480	 8.7610
 1.4490	 8.7600
 1.4500	 8.7590
 1.4510	 8.7600
 1.4520	 8.7610
 1.4530	 8.7630
 1.4540	 8.7670
 1.4550	 8.7720
 1.4560	 8.7800
 1.4570	 8.7890
 1.4580	 8.8010
 1.4590	 8.8150
 1.4600	 8.8310
 1.4610	 8.8490
 1.4620	 8.8710
 1.4630	 8.8960
 1.4640	 8.9230
 1.4650	 8.9520
 1.4660	 8.9860
 1.4670	 9.0210
 1.4680	 9.0610
 1.4690	 9.1030
 1.4700	 9.1480
 1.4710	 9.1970
 1.4720	 9.2490
 1.4730	 9.3040
 1.4740	 9.3610
 1.4750	 9.4190
 1.4760	 9.4790
 1.4770	 9.5420
