Name: Umbellularia californica 3
Type: vegetation
Class: Shrub
Genus: Umbellularia
Species: californica
Sample No.: VH240
Owner: UCSB
Wavelength Range: VSWIR
Origin: 34.5075; -119.763; WGS84
Collection Date: 10/13/2013
Description: Samples were collected as part of the HyspIRI Airborne Campaign. 48 individual plants were sampled in three times in 2013 - spring  summer  and fall. The name of the sample includes a 1  2  or 3 which references a different individual of the species. Samples were taken to JPL and processed within 48 hours of collection. The same leaves were processed in the Nicolet and then measured using the ASD.
Measurement: Bidirectional reflectance
First Column: X
Second Column: Y
X Units: Wavelength (micrometers)
Y Units: Reflectance (percentage)
First X Value: 0.35
Last X Value: 2.5
Number of X Values: 2151
Additional Information: vegetation.shrub.umbellularia.californica.vswir.vh240.ucsb.asd.ancillary.txt

 0.3500	 8.8830
 0.3510	 9.0940
 0.3520	 8.9800
 0.3530	 8.7320
 0.3540	 8.6230
 0.3550	 8.4990
 0.3560	 8.4890
 0.3570	 8.5890
 0.3580	 8.6990
 0.3590	 8.6030
 0.3600	 8.4800
 0.3610	 8.4230
 0.3620	 8.3310
 0.3630	 8.3550
 0.3640	 8.4770
 0.3650	 8.5890
 0.3660	 8.4220
 0.3670	 8.3060
 0.3680	 8.3030
 0.3690	 8.2850
 0.3700	 8.3640
 0.3710	 8.3660
 0.3720	 8.2780
 0.3730	 8.4450
 0.3740	 8.5380
 0.3750	 8.4480
 0.3760	 8.2210
 0.3770	 8.2120
 0.3780	 8.3600
 0.3790	 8.5050
 0.3800	 8.4520
 0.3810	 8.4200
 0.3820	 8.4280
 0.3830	 8.4210
 0.3840	 8.2360
 0.3850	 8.2030
 0.3860	 8.2800
 0.3870	 8.3070
 0.3880	 8.3610
 0.3890	 8.3600
 0.3900	 8.3120
 0.3910	 8.3210
 0.3920	 8.2640
 0.3930	 8.2480
 0.3940	 8.3270
 0.3950	 8.3010
 0.3960	 8.3560
 0.3970	 8.4020
 0.3980	 8.2780
 0.3990	 8.2810
 0.4000	 8.3480
 0.4010	 8.3910
 0.4020	 8.3340
 0.4030	 8.3290
 0.4040	 8.3550
 0.4050	 8.3610
 0.4060	 8.3840
 0.4070	 8.3750
 0.4080	 8.3690
 0.4090	 8.4380
 0.4100	 8.4590
 0.4110	 8.4760
 0.4120	 8.5060
 0.4130	 8.4770
 0.4140	 8.4870
 0.4150	 8.5310
 0.4160	 8.5710
 0.4170	 8.5830
 0.4180	 8.5970
 0.4190	 8.6220
 0.4200	 8.6450
 0.4210	 8.6950
 0.4220	 8.7260
 0.4230	 8.7230
 0.4240	 8.7680
 0.4250	 8.8080
 0.4260	 8.8360
 0.4270	 8.8650
 0.4280	 8.9010
 0.4290	 8.9200
 0.4300	 8.9210
 0.4310	 8.9450
 0.4320	 8.9690
 0.4330	 8.9960
 0.4340	 9.0240
 0.4350	 9.0200
 0.4360	 9.0280
 0.4370	 9.0520
 0.4380	 9.0710
 0.4390	 9.0820
 0.4400	 9.1130
 0.4410	 9.1700
 0.4420	 9.1930
 0.4430	 9.2040
 0.4440	 9.2180
 0.4450	 9.2460
 0.4460	 9.2820
 0.4470	 9.3020
 0.4480	 9.3070
 0.4490	 9.3220
 0.4500	 9.3360
 0.4510	 9.3560
 0.4520	 9.3840
 0.4530	 9.4090
 0.4540	 9.4370
 0.4550	 9.4620
 0.4560	 9.4760
 0.4570	 9.4870
 0.4580	 9.4880
 0.4590	 9.4840
 0.4600	 9.5080
 0.4610	 9.5250
 0.4620	 9.5290
 0.4630	 9.5290
 0.4640	 9.5550
 0.4650	 9.5710
 0.4660	 9.5660
 0.4670	 9.5620
 0.4680	 9.5630
 0.4690	 9.5710
 0.4700	 9.5860
 0.4710	 9.6020
 0.4720	 9.6220
 0.4730	 9.6330
 0.4740	 9.6190
 0.4750	 9.6130
 0.4760	 9.6180
 0.4770	 9.6290
 0.4780	 9.6370
 0.4790	 9.6430
 0.4800	 9.6490
 0.4810	 9.6560
 0.4820	 9.6670
 0.4830	 9.6760
 0.4840	 9.6800
 0.4850	 9.6790
 0.4860	 9.6880
 0.4870	 9.7110
 0.4880	 9.7390
 0.4890	 9.7440
 0.4900	 9.7750
 0.4910	 9.8160
 0.4920	 9.8340
 0.4930	 9.8870
 0.4940	 9.9410
 0.4950	 9.9830
 0.4960	10.0470
 0.4970	10.1120
 0.4980	10.1830
 0.4990	10.2630
 0.5000	10.3390
 0.5010	10.4150
 0.5020	10.5060
 0.5030	10.6310
 0.5040	10.7520
 0.5050	10.8830
 0.5060	11.0390
 0.5070	11.2050
 0.5080	11.3800
 0.5090	11.5660
 0.5100	11.7710
 0.5110	11.9890
 0.5120	12.2310
 0.5130	12.4960
 0.5140	12.7590
 0.5150	13.0510
 0.5160	13.3590
 0.5170	13.6690
 0.5180	13.9910
 0.5190	14.3260
 0.5200	14.6700
 0.5210	15.0180
 0.5220	15.3590
 0.5230	15.7000
 0.5240	16.0400
 0.5250	16.3590
 0.5260	16.6620
 0.5270	16.9570
 0.5280	17.2530
 0.5290	17.5140
 0.5300	17.7580
 0.5310	17.9920
 0.5320	18.2000
 0.5330	18.3960
 0.5340	18.5780
 0.5350	18.7430
 0.5360	18.8910
 0.5370	19.0270
 0.5380	19.1540
 0.5390	19.2640
 0.5400	19.3520
 0.5410	19.4330
 0.5420	19.5150
 0.5430	19.5830
 0.5440	19.6630
 0.5450	19.7500
 0.5460	19.8310
 0.5470	19.9390
 0.5480	20.0390
 0.5490	20.1120
 0.5500	20.1630
 0.5510	20.1990
 0.5520	20.2230
 0.5530	20.2360
 0.5540	20.2310
 0.5550	20.2000
 0.5560	20.1500
 0.5570	20.0890
 0.5580	20.0000
 0.5590	19.8930
 0.5600	19.7790
 0.5610	19.6480
 0.5620	19.5040
 0.5630	19.3490
 0.5640	19.1820
 0.5650	19.0020
 0.5660	18.8100
 0.5670	18.6100
 0.5680	18.4050
 0.5690	18.1970
 0.5700	17.9840
 0.5710	17.7660
 0.5720	17.5510
 0.5730	17.3550
 0.5740	17.1790
 0.5750	17.0160
 0.5760	16.8510
 0.5770	16.6960
 0.5780	16.5600
 0.5790	16.4300
 0.5800	16.3110
 0.5810	16.1970
 0.5820	16.0790
 0.5830	15.9660
 0.5840	15.8600
 0.5850	15.7640
 0.5860	15.6760
 0.5870	15.5850
 0.5880	15.4950
 0.5890	15.4160
 0.5900	15.3450
 0.5910	15.2820
 0.5920	15.2240
 0.5930	15.1680
 0.5940	15.1230
 0.5950	15.0890
 0.5960	15.0590
 0.5970	15.0140
 0.5980	14.9690
 0.5990	14.9200
 0.6000	14.8590
 0.6010	14.8000
 0.6020	14.7360
 0.6030	14.6660
 0.6040	14.5930
 0.6050	14.5100
 0.6060	14.4180
 0.6070	14.3220
 0.6080	14.2180
 0.6090	14.1000
 0.6100	13.9650
 0.6110	13.8250
 0.6120	13.7250
 0.6130	13.6460
 0.6140	13.5660
 0.6150	13.4770
 0.6160	13.3850
 0.6170	13.2980
 0.6180	13.2210
 0.6190	13.1500
 0.6200	13.0820
 0.6210	13.0210
 0.6220	12.9740
 0.6230	12.9360
 0.6240	12.9060
 0.6250	12.8830
 0.6260	12.8600
 0.6270	12.8410
 0.6280	12.8260
 0.6290	12.8190
 0.6300	12.8060
 0.6310	12.7930
 0.6320	12.7830
 0.6330	12.7650
 0.6340	12.7380
 0.6350	12.6980
 0.6360	12.6420
 0.6370	12.5760
 0.6380	12.4950
 0.6390	12.3960
 0.6400	12.2800
 0.6410	12.1620
 0.6420	12.0430
 0.6430	11.9190
 0.6440	11.7870
 0.6450	11.6630
 0.6460	11.5440
 0.6470	11.4280
 0.6480	11.3190
 0.6490	11.2250
 0.6500	11.1450
 0.6510	11.0710
 0.6520	11.0110
 0.6530	10.9560
 0.6540	10.8990
 0.6550	10.8430
 0.6560	10.7790
 0.6570	10.7130
 0.6580	10.6490
 0.6590	10.5740
 0.6600	10.4970
 0.6610	10.4240
 0.6620	10.3570
 0.6630	10.2910
 0.6640	10.2320
 0.6650	10.1830
 0.6660	10.1300
 0.6670	10.0960
 0.6680	10.0750
 0.6690	10.0500
 0.6700	10.0370
 0.6710	10.0360
 0.6720	10.0420
 0.6730	10.0470
 0.6740	10.0610
 0.6750	10.0830
 0.6760	10.1070
 0.6770	10.1340
 0.6780	10.1710
 0.6790	10.2160
 0.6800	10.2650
 0.6810	10.3290
 0.6820	10.4000
 0.6830	10.4780
 0.6840	10.5780
 0.6850	10.7120
 0.6860	10.8760
 0.6870	11.0690
 0.6880	11.3120
 0.6890	11.6220
 0.6900	12.0050
 0.6910	12.4690
 0.6920	13.0220
 0.6930	13.6760
 0.6940	14.4380
 0.6950	15.3170
 0.6960	16.2960
 0.6970	17.3690
 0.6980	18.5310
 0.6990	19.7790
 0.7000	21.0860
 0.7010	22.4360
 0.7020	23.8250
 0.7030	25.2340
 0.7040	26.6440
 0.7050	28.0370
 0.7060	29.4130
 0.7070	30.7730
 0.7080	32.1100
 0.7090	33.4240
 0.7100	34.7150
 0.7110	35.9570
 0.7120	37.1540
 0.7130	38.3380
 0.7140	39.4800
 0.7150	40.5860
 0.7160	41.6600
 0.7170	42.6840
 0.7180	43.6790
 0.7190	44.6370
 0.7200	45.5460
 0.7210	46.4190
 0.7220	47.2620
 0.7230	48.0790
 0.7240	48.8690
 0.7250	49.6180
 0.7260	50.3140
 0.7270	50.9630
 0.7280	51.6140
 0.7290	52.2230
 0.7300	52.7830
 0.7310	53.3020
 0.7320	53.8110
 0.7330	54.2850
 0.7340	54.7260
 0.7350	55.1610
 0.7360	55.5570
 0.7370	55.9180
 0.7380	56.2540
 0.7390	56.5710
 0.7400	56.8880
 0.7410	57.1860
 0.7420	57.4400
 0.7430	57.6850
 0.7440	57.9070
 0.7450	58.1100
 0.7460	58.3180
 0.7470	58.4950
 0.7480	58.6460
 0.7490	58.7820
 0.7500	58.9200
 0.7510	59.0360
 0.7520	59.1320
 0.7530	59.2200
 0.7540	59.3310
 0.7550	59.4150
 0.7560	59.4740
 0.7570	59.5490
 0.7580	59.6030
 0.7590	59.6480
 0.7600	59.6900
 0.7610	59.7210
 0.7620	59.7600
 0.7630	59.8000
 0.7640	59.8280
 0.7650	59.8390
 0.7660	59.8600
 0.7670	59.8810
 0.7680	59.8810
 0.7690	59.9010
 0.7700	59.9190
 0.7710	59.9220
 0.7720	59.9240
 0.7730	59.9370
 0.7740	59.9490
 0.7750	59.9480
 0.7760	59.9450
 0.7770	59.9370
 0.7780	59.9360
 0.7790	59.9560
 0.7800	59.9730
 0.7810	59.9670
 0.7820	59.9550
 0.7830	59.9810
 0.7840	59.9930
 0.7850	59.9890
 0.7860	59.9820
 0.7870	60.0000
 0.7880	60.0050
 0.7890	60.0050
 0.7900	60.0130
 0.7910	60.0080
 0.7920	60.0050
 0.7930	60.0100
 0.7940	60.0180
 0.7950	60.0290
 0.7960	60.0320
 0.7970	60.0230
 0.7980	60.0150
 0.7990	60.0280
 0.8000	60.0450
 0.8010	60.0490
 0.8020	60.0520
 0.8030	60.0570
 0.8040	60.0610
 0.8050	60.0560
 0.8060	60.0690
 0.8070	60.0580
 0.8080	60.0380
 0.8090	60.0660
 0.8100	60.1020
 0.8110	60.1030
 0.8120	60.0740
 0.8130	60.0900
 0.8140	60.0910
 0.8150	60.0840
 0.8160	60.0870
 0.8170	60.0800
 0.8180	60.1030
 0.8190	60.1370
 0.8200	60.1410
 0.8210	60.1150
 0.8220	60.1150
 0.8230	60.1370
 0.8240	60.1280
 0.8250	60.1350
 0.8260	60.1430
 0.8270	60.1450
 0.8280	60.1560
 0.8290	60.1640
 0.8300	60.1650
 0.8310	60.1580
 0.8320	60.1530
 0.8330	60.1500
 0.8340	60.1580
 0.8350	60.1810
 0.8360	60.1840
 0.8370	60.1830
 0.8380	60.1900
 0.8390	60.2060
 0.8400	60.2100
 0.8410	60.2060
 0.8420	60.2010
 0.8430	60.2010
 0.8440	60.2020
 0.8450	60.2130
 0.8460	60.2340
 0.8470	60.2390
 0.8480	60.2450
 0.8490	60.2400
 0.8500	60.2230
 0.8510	60.2670
 0.8520	60.2970
 0.8530	60.2890
 0.8540	60.2650
 0.8550	60.2790
 0.8560	60.3010
 0.8570	60.3050
 0.8580	60.2830
 0.8590	60.2730
 0.8600	60.2890
 0.8610	60.3160
 0.8620	60.3000
 0.8630	60.2750
 0.8640	60.2750
 0.8650	60.3080
 0.8660	60.3210
 0.8670	60.3160
 0.8680	60.3010
 0.8690	60.2890
 0.8700	60.2980
 0.8710	60.3060
 0.8720	60.2960
 0.8730	60.2670
 0.8740	60.2910
 0.8750	60.3130
 0.8760	60.3110
 0.8770	60.2990
 0.8780	60.2790
 0.8790	60.2760
 0.8800	60.2900
 0.8810	60.2920
 0.8820	60.2870
 0.8830	60.2730
 0.8840	60.2530
 0.8850	60.2470
 0.8860	60.2440
 0.8870	60.2410
 0.8880	60.2440
 0.8890	60.2480
 0.8900	60.2620
 0.8910	60.2700
 0.8920	60.2550
 0.8930	60.2490
 0.8940	60.2340
 0.8950	60.2110
 0.8960	60.1990
 0.8970	60.2200
 0.8980	60.2260
 0.8990	60.2040
 0.9000	60.1860
 0.9010	60.1760
 0.9020	60.1590
 0.9030	60.1490
 0.9040	60.1850
 0.9050	60.1840
 0.9060	60.1520
 0.9070	60.1190
 0.9080	60.1250
 0.9090	60.1320
 0.9100	60.1360
 0.9110	60.1310
 0.9120	60.0940
 0.9130	60.0910
 0.9140	60.1130
 0.9150	60.1240
 0.9160	60.0890
 0.9170	60.0670
 0.9180	60.0730
 0.9190	60.0920
 0.9200	60.1000
 0.9210	60.0770
 0.9220	60.0380
 0.9230	60.0140
 0.9240	60.0120
 0.9250	60.0220
 0.9260	60.0280
 0.9270	60.0130
 0.9280	59.9860
 0.9290	59.9620
 0.9300	59.9360
 0.9310	59.8940
 0.9320	59.8900
 0.9330	59.8940
 0.9340	59.8910
 0.9350	59.8930
 0.9360	59.8670
 0.9370	59.8190
 0.9380	59.7720
 0.9390	59.7580
 0.9400	59.7710
 0.9410	59.7720
 0.9420	59.7360
 0.9430	59.6810
 0.9440	59.6250
 0.9450	59.5930
 0.9460	59.5910
 0.9470	59.6020
 0.9480	59.5790
 0.9490	59.5240
 0.9500	59.4590
 0.9510	59.4010
 0.9520	59.3480
 0.9530	59.2960
 0.9540	59.2410
 0.9550	59.1700
 0.9560	59.1360
 0.9570	59.1120
 0.9580	59.0600
 0.9590	59.0200
 0.9600	58.9770
 0.9610	58.9310
 0.9620	58.8890
 0.9630	58.8730
 0.9640	58.8340
 0.9650	58.8090
 0.9660	58.8290
 0.9670	58.7650
 0.9680	58.7240
 0.9690	58.7260
 0.9700	58.7390
 0.9710	58.7280
 0.9720	58.7140
 0.9730	58.7000
 0.9740	58.6880
 0.9750	58.7170
 0.9760	58.6970
 0.9770	58.6610
 0.9780	58.6820
 0.9790	58.7110
 0.9800	58.7490
 0.9810	58.7450
 0.9820	58.6710
 0.9830	58.7070
 0.9840	58.7320
 0.9850	58.7340
 0.9860	58.7610
 0.9870	58.8160
 0.9880	58.8350
 0.9890	58.8290
 0.9900	58.8420
 0.9910	58.8600
 0.9920	58.9220
 0.9930	58.9850
 0.9940	59.0470
 0.9950	59.1100
 0.9960	59.1730
 0.9970	59.2350
 0.9980	59.2980
 0.9990	59.3600
 1.0000	59.4230
 1.0010	59.4850
 1.0020	59.5480
 1.0030	59.6100
 1.0040	59.6730
 1.0050	59.7350
 1.0060	59.7980
 1.0070	59.8600
 1.0080	59.9230
 1.0090	59.9850
 1.0100	59.9850
 1.0110	59.9930
 1.0120	60.0080
 1.0130	60.0350
 1.0140	60.0560
 1.0150	60.0860
 1.0160	60.0920
 1.0170	60.0900
 1.0180	60.1130
 1.0190	60.1420
 1.0200	60.1620
 1.0210	60.1910
 1.0220	60.2130
 1.0230	60.2310
 1.0240	60.2390
 1.0250	60.2560
 1.0260	60.2740
 1.0270	60.2890
 1.0280	60.3150
 1.0290	60.3210
 1.0300	60.3010
 1.0310	60.3060
 1.0320	60.3190
 1.0330	60.3230
 1.0340	60.3390
 1.0350	60.3750
 1.0360	60.3890
 1.0370	60.3890
 1.0380	60.3990
 1.0390	60.4140
 1.0400	60.4190
 1.0410	60.4200
 1.0420	60.4270
 1.0430	60.4330
 1.0440	60.4360
 1.0450	60.4420
 1.0460	60.4450
 1.0470	60.4410
 1.0480	60.4400
 1.0490	60.4380
 1.0500	60.4400
 1.0510	60.4400
 1.0520	60.4470
 1.0530	60.4510
 1.0540	60.4590
 1.0550	60.4650
 1.0560	60.4710
 1.0570	60.4690
 1.0580	60.4650
 1.0590	60.4620
 1.0600	60.4460
 1.0610	60.4450
 1.0620	60.4550
 1.0630	60.4600
 1.0640	60.4720
 1.0650	60.4800
 1.0660	60.4880
 1.0670	60.4920
 1.0680	60.4930
 1.0690	60.4930
 1.0700	60.4900
 1.0710	60.4840
 1.0720	60.4750
 1.0730	60.4630
 1.0740	60.4540
 1.0750	60.4400
 1.0760	60.4340
 1.0770	60.4350
 1.0780	60.4360
 1.0790	60.4430
 1.0800	60.4440
 1.0810	60.4450
 1.0820	60.4420
 1.0830	60.4310
 1.0840	60.4270
 1.0850	60.4280
 1.0860	60.4230
 1.0870	60.4210
 1.0880	60.4260
 1.0890	60.4210
 1.0900	60.4070
 1.0910	60.4030
 1.0920	60.4050
 1.0930	60.3960
 1.0940	60.3860
 1.0950	60.3760
 1.0960	60.3580
 1.0970	60.3450
 1.0980	60.3430
 1.0990	60.3290
 1.1000	60.3040
 1.1010	60.2850
 1.1020	60.2630
 1.1030	60.2410
 1.1040	60.2310
 1.1050	60.2190
 1.1060	60.2080
 1.1070	60.2030
 1.1080	60.1900
 1.1090	60.1730
 1.1100	60.1570
 1.1110	60.1380
 1.1120	60.1200
 1.1130	60.1030
 1.1140	60.0850
 1.1150	60.0700
 1.1160	60.0470
 1.1170	60.0240
 1.1180	59.9940
 1.1190	59.9540
 1.1200	59.9150
 1.1210	59.8750
 1.1220	59.8310
 1.1230	59.7920
 1.1240	59.7490
 1.1250	59.7030
 1.1260	59.6580
 1.1270	59.6060
 1.1280	59.5500
 1.1290	59.4860
 1.1300	59.4170
 1.1310	59.3410
 1.1320	59.2580
 1.1330	59.1690
 1.1340	59.0730
 1.1350	58.9730
 1.1360	58.8690
 1.1370	58.7550
 1.1380	58.6330
 1.1390	58.5100
 1.1400	58.3800
 1.1410	58.2490
 1.1420	58.1160
 1.1430	57.9840
 1.1440	57.8490
 1.1450	57.7100
 1.1460	57.5730
 1.1470	57.4320
 1.1480	57.3020
 1.1490	57.1740
 1.1500	57.0530
 1.1510	56.9380
 1.1520	56.8340
 1.1530	56.7340
 1.1540	56.6450
 1.1550	56.5710
 1.1560	56.4990
 1.1570	56.4250
 1.1580	56.3620
 1.1590	56.3020
 1.1600	56.2440
 1.1610	56.1980
 1.1620	56.1570
 1.1630	56.1190
 1.1640	56.0900
 1.1650	56.0590
 1.1660	56.0310
 1.1670	56.0050
 1.1680	55.9800
 1.1690	55.9570
 1.1700	55.9380
 1.1710	55.9160
 1.1720	55.8900
 1.1730	55.8710
 1.1740	55.8550
 1.1750	55.8390
 1.1760	55.8270
 1.1770	55.8150
 1.1780	55.7930
 1.1790	55.7710
 1.1800	55.7500
 1.1810	55.7200
 1.1820	55.6910
 1.1830	55.6630
 1.1840	55.6320
 1.1850	55.6030
 1.1860	55.5780
 1.1870	55.5570
 1.1880	55.5350
 1.1890	55.5160
 1.1900	55.4990
 1.1910	55.4820
 1.1920	55.4660
 1.1930	55.4560
 1.1940	55.4440
 1.1950	55.4320
 1.1960	55.4180
 1.1970	55.4050
 1.1980	55.3940
 1.1990	55.3900
 1.2000	55.3920
 1.2010	55.4010
 1.2020	55.4110
 1.2030	55.4250
 1.2040	55.4470
 1.2050	55.4690
 1.2060	55.4970
 1.2070	55.5240
 1.2080	55.5470
 1.2090	55.5770
 1.2100	55.6110
 1.2110	55.6450
 1.2120	55.6830
 1.2130	55.7210
 1.2140	55.7630
 1.2150	55.8020
 1.2160	55.8400
 1.2170	55.8800
 1.2180	55.9200
 1.2190	55.9540
 1.2200	55.9920
 1.2210	56.0320
 1.2220	56.0690
 1.2230	56.1080
 1.2240	56.1440
 1.2250	56.1800
 1.2260	56.2160
 1.2270	56.2490
 1.2280	56.2890
 1.2290	56.3290
 1.2300	56.3730
 1.2310	56.4180
 1.2320	56.4500
 1.2330	56.4830
 1.2340	56.5180
 1.2350	56.5510
 1.2360	56.5840
 1.2370	56.6220
 1.2380	56.6540
 1.2390	56.6810
 1.2400	56.6970
 1.2410	56.7190
 1.2420	56.7460
 1.2430	56.7690
 1.2440	56.7960
 1.2450	56.8190
 1.2460	56.8360
 1.2470	56.8490
 1.2480	56.8550
 1.2490	56.8700
 1.2500	56.8860
 1.2510	56.9030
 1.2520	56.9250
 1.2530	56.9350
 1.2540	56.9380
 1.2550	56.9450
 1.2560	56.9480
 1.2570	56.9500
 1.2580	56.9580
 1.2590	56.9660
 1.2600	56.9720
 1.2610	56.9820
 1.2620	56.9990
 1.2630	57.0090
 1.2640	57.0060
 1.2650	57.0150
 1.2660	57.0180
 1.2670	57.0050
 1.2680	57.0010
 1.2690	56.9930
 1.2700	56.9820
 1.2710	56.9780
 1.2720	56.9700
 1.2730	56.9560
 1.2740	56.9390
 1.2750	56.9180
 1.2760	56.9030
 1.2770	56.8910
 1.2780	56.8710
 1.2790	56.8500
 1.2800	56.8340
 1.2810	56.8130
 1.2820	56.7900
 1.2830	56.7730
 1.2840	56.7490
 1.2850	56.7250
 1.2860	56.7080
 1.2870	56.6860
 1.2880	56.6600
 1.2890	56.6350
 1.2900	56.6120
 1.2910	56.5760
 1.2920	56.5440
 1.2930	56.5120
 1.2940	56.4730
 1.2950	56.4470
 1.2960	56.4180
 1.2970	56.3880
 1.2980	56.3630
 1.2990	56.3240
 1.3000	56.2800
 1.3010	56.2380
 1.3020	56.1890
 1.3030	56.1410
 1.3040	56.0930
 1.3050	56.0410
 1.3060	55.9880
 1.3070	55.9270
 1.3080	55.8570
 1.3090	55.7900
 1.3100	55.7130
 1.3110	55.6320
 1.3120	55.5540
 1.3130	55.4680
 1.3140	55.3820
 1.3150	55.2980
 1.3160	55.2070
 1.3170	55.1130
 1.3180	55.0170
 1.3190	54.9160
 1.3200	54.8050
 1.3210	54.6910
 1.3220	54.5770
 1.3230	54.4620
 1.3240	54.3460
 1.3250	54.2330
 1.3260	54.1150
 1.3270	53.9860
 1.3280	53.8560
 1.3290	53.7210
 1.3300	53.5810
 1.3310	53.4470
 1.3320	53.3070
 1.3330	53.1630
 1.3340	53.0160
 1.3350	52.8680
 1.3360	52.7170
 1.3370	52.5660
 1.3380	52.4170
 1.3390	52.2650
 1.3400	52.1100
 1.3410	51.9590
 1.3420	51.8100
 1.3430	51.6580
 1.3440	51.5090
 1.3450	51.3620
 1.3460	51.2180
 1.3470	51.0740
 1.3480	50.9320
 1.3490	50.7900
 1.3500	50.6490
 1.3510	50.5070
 1.3520	50.3650
 1.3530	50.2270
 1.3540	50.0860
 1.3550	49.9410
 1.3560	49.7940
 1.3570	49.6480
 1.3580	49.5010
 1.3590	49.3520
 1.3600	49.1970
 1.3610	49.0330
 1.3620	48.8670
 1.3630	48.6990
 1.3640	48.5220
 1.3650	48.3410
 1.3660	48.1500
 1.3670	47.9430
 1.3680	47.7210
 1.3690	47.4890
 1.3700	47.2440
 1.3710	46.9860
 1.3720	46.7160
 1.3730	46.4260
 1.3740	46.1150
 1.3750	45.7850
 1.3760	45.4340
 1.3770	45.0580
 1.3780	44.6590
 1.3790	44.2380
 1.3800	43.7930
 1.3810	43.3220
 1.3820	42.8260
 1.3830	42.3090
 1.3840	41.7630
 1.3850	41.1880
 1.3860	40.5990
 1.3870	39.9840
 1.3880	39.3610
 1.3890	38.7230
 1.3900	38.0720
 1.3910	37.4150
 1.3920	36.7470
 1.3930	36.0750
 1.3940	35.4020
 1.3950	34.7240
 1.3960	34.0540
 1.3970	33.3980
 1.3980	32.7520
 1.3990	32.1280
 1.4000	31.5190
 1.4010	30.9200
 1.4020	30.3440
 1.4030	29.7860
 1.4040	29.2530
 1.4050	28.7500
 1.4060	28.2660
 1.4070	27.8150
 1.4080	27.3890
 1.4090	26.9820
 1.4100	26.6050
 1.4110	26.2450
 1.4120	25.9080
 1.4130	25.6040
 1.4140	25.3250
 1.4150	25.0720
 1.4160	24.8420
 1.4170	24.6300
 1.4180	24.4360
 1.4190	24.2590
 1.4200	24.0990
 1.4210	23.9560
 1.4220	23.8290
 1.4230	23.7150
 1.4240	23.6130
 1.4250	23.5220
 1.4260	23.4420
 1.4270	23.3690
 1.4280	23.3060
 1.4290	23.2540
 1.4300	23.2130
 1.4310	23.1770
 1.4320	23.1540
 1.4330	23.1330
 1.4340	23.1150
 1.4350	23.1060
 1.4360	23.1060
 1.4370	23.1080
 1.4380	23.1160
 1.4390	23.1310
 1.4400	23.1480
 1.4410	23.1670
 1.4420	23.1890
 1.4430	23.2130
 1.4440	23.2420
 1.4450	23.2740
 1.4460	23.3080
 1.4470	23.3460
 1.4480	23.3800
 1.4490	23.4120
 1.4500	23.4490
 1.4510	23.4860
 1.4520	23.5250
 1.4530	23.5680
 1.4540	23.6080
 1.4550	23.6490
 1.4560	23.6920
 1.4570	23.7390
 1.4580	23.7950
 1.4590	23.8560
 1.4600	23.9220
 1.4610	23.9920
 1.4620	24.0650
 1.4630	24.1440
 1.4640	24.2300
 1.4650	24.3240
 1.4660	24.4210
 1.4670	24.5220
 1.4680	24.6280
 1.4690	24.7380
