Name: Pinus lambertiana 2
Type: vegetation
Class: Tree
Genus: Pinus
Species: lambertiana
Sample No.: VH162
Owner: UCSB
Wavelength Range: TIR
Origin: 37.0422; -119.3028; WGS84
Collection Date: 6/8/2013
Description: Samples were collected as part of the HyspIRI Airborne Campaign. 48 individual plants were sampled in three times in 2013 - spring  summer  and fall. The name of the sample includes a 1  2  or 3 which references a different individual of the species. Samples were taken to JPL and processed within 48 hours of collection. The same leaves were processed in the Nicolet and then measured using the ASD.
Measurement: Hemispherical reflectance
First Column: X
Second Column: Y
X Units: Wavelength (micrometers)
Y Units: Reflectance (percentage)
First X Value: 2.501
Last X Value: 15.387
Number of X Values: 1737
Additional Information: vegetation.tree.pinus.lambertiana.tir.vh162.ucsb.nicolet.ancillary.txt

 2.5010	 4.5140
 2.5030	 4.1520
 2.5040	 4.2580
 2.5050	 4.3520
 2.5060	 4.2320
 2.5070	 4.2560
 2.5090	 4.4660
 2.5100	 4.5110
 2.5110	 4.6160
 2.5120	 4.4400
 2.5140	 4.3320
 2.5150	 4.3400
 2.5160	 4.3850
 2.5170	 4.3040
 2.5180	 4.3870
 2.5200	 4.4590
 2.5210	 4.4860
 2.5220	 4.3840
 2.5230	 4.2980
 2.5250	 4.2200
 2.5260	 4.4350
 2.5270	 4.5220
 2.5280	 4.4140
 2.5290	 4.3170
 2.5310	 4.3370
 2.5320	 4.2910
 2.5330	 4.3480
 2.5340	 4.3640
 2.5360	 4.3580
 2.5370	 4.2990
 2.5380	 4.4070
 2.5390	 4.5270
 2.5410	 4.5490
 2.5420	 4.3610
 2.5430	 4.3540
 2.5440	 4.4560
 2.5460	 4.5730
 2.5470	 4.4950
 2.5480	 4.5060
 2.5490	 4.5290
 2.5510	 4.5200
 2.5520	 4.4680
 2.5530	 4.4770
 2.5540	 4.3720
 2.5560	 4.3840
 2.5570	 4.3550
 2.5580	 4.3740
 2.5590	 4.3650
 2.5610	 4.3670
 2.5620	 4.3550
 2.5630	 4.3950
 2.5640	 4.3490
 2.5660	 4.3390
 2.5670	 4.3450
 2.5680	 4.3910
 2.5700	 4.3310
 2.5710	 4.3970
 2.5720	 4.4920
 2.5730	 4.5810
 2.5750	 4.3430
 2.5760	 4.1550
 2.5770	 4.2450
 2.5790	 4.4310
 2.5800	 4.3460
 2.5810	 4.3580
 2.5820	 4.2790
 2.5840	 4.2670
 2.5850	 4.2400
 2.5860	 4.3260
 2.5880	 4.3620
 2.5890	 4.4650
 2.5900	 4.4260
 2.5910	 4.1800
 2.5930	 3.9700
 2.5940	 4.2000
 2.5950	 4.2700
 2.5970	 4.2460
 2.5980	 4.3030
 2.5990	 4.3830
 2.6000	 4.2300
 2.6020	 4.2310
 2.6030	 4.1970
 2.6040	 4.3030
 2.6060	 4.3410
 2.6070	 4.2340
 2.6080	 4.1040
 2.6100	 4.1580
 2.6110	 4.1980
 2.6120	 4.2470
 2.6140	 4.0800
 2.6150	 4.0790
 2.6160	 4.1110
 2.6180	 4.2140
 2.6190	 4.2360
 2.6200	 4.2210
 2.6220	 4.2470
 2.6230	 4.1120
 2.6240	 3.9610
 2.6260	 4.0020
 2.6270	 4.1160
 2.6280	 4.1530
 2.6300	 4.0230
 2.6310	 4.0640
 2.6320	 3.9790
 2.6340	 4.0010
 2.6350	 4.0280
 2.6360	 3.9790
 2.6380	 3.9160
 2.6390	 3.9260
 2.6400	 3.8960
 2.6420	 3.9900
 2.6430	 3.9080
 2.6440	 3.9420
 2.6460	 3.8640
 2.6470	 3.6750
 2.6480	 3.6680
 2.6500	 3.7750
 2.6510	 3.8630
 2.6520	 3.9360
 2.6540	 3.8490
 2.6550	 3.7660
 2.6560	 3.7610
 2.6580	 3.7900
 2.6590	 3.6080
 2.6610	 3.5900
 2.6620	 3.5530
 2.6630	 3.6280
 2.6650	 3.6310
 2.6660	 3.6860
 2.6670	 3.5260
 2.6690	 3.4550
 2.6700	 3.3630
 2.6720	 3.4580
 2.6730	 3.5530
 2.6740	 3.6290
 2.6760	 3.5920
 2.6770	 3.5330
 2.6780	 3.3850
 2.6800	 3.3380
 2.6810	 3.4330
 2.6830	 3.5820
 2.6840	 3.5020
 2.6850	 3.5500
 2.6870	 3.3540
 2.6880	 3.3820
 2.6900	 3.3830
 2.6910	 3.3990
 2.6920	 3.3200
 2.6940	 3.1960
 2.6950	 3.2180
 2.6970	 3.3170
 2.6980	 3.3020
 2.6990	 3.3120
 2.7010	 3.1870
 2.7020	 3.2370
 2.7040	 3.2460
 2.7050	 3.2120
 2.7060	 3.0180
 2.7080	 3.0430
 2.7090	 2.9930
 2.7110	 2.9500
 2.7120	 3.0110
 2.7130	 2.9610
 2.7150	 2.8360
 2.7160	 2.9140
 2.7180	 3.0010
 2.7190	 2.9660
 2.7210	 2.7670
 2.7220	 2.7060
 2.7230	 2.6610
 2.7250	 2.6970
 2.7260	 2.7330
 2.7280	 2.8280
 2.7290	 2.9010
 2.7310	 2.8870
 2.7320	 2.5550
 2.7330	 2.5600
 2.7350	 2.7360
 2.7360	 2.8300
 2.7380	 2.8880
 2.7390	 2.7890
 2.7410	 2.5690
 2.7420	 2.6770
 2.7440	 2.7620
 2.7450	 2.8050
 2.7470	 2.5700
 2.7480	 2.4820
 2.7490	 2.4930
 2.7510	 2.5800
 2.7520	 2.5600
 2.7540	 2.7220
 2.7550	 2.9450
 2.7570	 3.0030
 2.7580	 2.6710
 2.7600	 2.6480
 2.7610	 2.6450
 2.7630	 2.5730
 2.7640	 2.5390
 2.7660	 2.6290
 2.7670	 2.6910
 2.7680	 2.6660
 2.7700	 2.5730
 2.7710	 2.7400
 2.7730	 2.7770
 2.7740	 2.6720
 2.7760	 2.6290
 2.7770	 2.7390
 2.7790	 2.8650
 2.7800	 2.9480
 2.7820	 2.6870
 2.7830	 2.7010
 2.7850	 2.7310
 2.7860	 2.7790
 2.7880	 2.7190
 2.7890	 2.7200
 2.7910	 2.7050
 2.7920	 2.7680
 2.7940	 2.5970
 2.7950	 2.5310
 2.7970	 2.6150
 2.7980	 2.7200
 2.8000	 2.6140
 2.8010	 2.7210
 2.8030	 2.7210
 2.8040	 2.6960
 2.8060	 2.6340
 2.8070	 2.6550
 2.8090	 2.5430
 2.8110	 2.4840
 2.8120	 2.5570
 2.8140	 2.6340
 2.8150	 2.6680
 2.8170	 2.6680
 2.8180	 2.4600
 2.8200	 2.3920
 2.8210	 2.3740
 2.8230	 2.5460
 2.8240	 2.6660
 2.8260	 2.8600
 2.8270	 2.6150
 2.8290	 2.4700
 2.8300	 2.5960
 2.8320	 2.7590
 2.8340	 2.7100
 2.8350	 2.7810
 2.8370	 2.7080
 2.8380	 2.6870
 2.8400	 2.6810
 2.8410	 2.6670
 2.8430	 2.5400
 2.8440	 2.4700
 2.8460	 2.5940
 2.8480	 2.6540
 2.8490	 2.5840
 2.8510	 2.6840
 2.8520	 2.7810
 2.8540	 2.7800
 2.8550	 2.6730
 2.8570	 2.7100
 2.8590	 2.5430
 2.8600	 2.5570
 2.8620	 2.6680
 2.8630	 2.7850
 2.8650	 2.7370
 2.8660	 2.7040
 2.8680	 2.6360
 2.8700	 2.6750
 2.8710	 2.7560
 2.8730	 2.7440
 2.8740	 2.5950
 2.8760	 2.6030
 2.8780	 2.6400
 2.8790	 2.6540
 2.8810	 2.6930
 2.8820	 2.8570
 2.8840	 2.9160
 2.8860	 2.9440
 2.8870	 2.8930
 2.8890	 2.8010
 2.8900	 2.6840
 2.8920	 2.7260
 2.8940	 2.7360
 2.8950	 2.6720
 2.8970	 2.6290
 2.8980	 2.7030
 2.9000	 2.7270
 2.9020	 2.7630
 2.9030	 2.7690
 2.9050	 2.7180
 2.9070	 2.7330
 2.9080	 2.9130
 2.9100	 2.8300
 2.9120	 2.6920
 2.9130	 2.6740
 2.9150	 2.8330
 2.9160	 2.8360
 2.9180	 2.7690
 2.9200	 2.6460
 2.9210	 2.6730
 2.9230	 2.6300
 2.9250	 2.6690
 2.9260	 2.7610
 2.9280	 2.6560
 2.9300	 2.5400
 2.9310	 2.6010
 2.9330	 2.6300
 2.9350	 2.6960
 2.9360	 2.7530
 2.9380	 2.8000
 2.9400	 2.8030
 2.9410	 2.8120
 2.9430	 2.9800
 2.9450	 2.9970
 2.9460	 2.6100
 2.9480	 2.4970
 2.9500	 3.0020
 2.9510	 2.8850
 2.9530	 2.5830
 2.9550	 2.8810
 2.9560	 2.6640
 2.9580	 2.0170
 2.9600	 2.1430
 2.9610	 1.9900
 2.9630	 2.1220
 2.9650	 2.9790
 2.9660	 3.2660
 2.9680	 2.6340
 2.9700	 1.8200
 2.9720	 2.0360
 2.9730	 2.8880
 2.9750	 3.2560
 2.9770	 2.3410
 2.9780	 1.5790
 2.9800	 3.8310
 2.9820	 4.9880
 2.9840	 3.5580
 2.9850	 2.7050
 2.9870	 2.6240
 2.9890	 3.0080
 2.9900	 3.1570
 2.9920	 2.5930
 2.9940	 2.6320
 2.9960	 4.1170
 2.9970	 4.2180
 2.9990	 3.5290
 3.0010	 3.6980
 3.0030	 3.1060
 3.0040	 2.5730
 3.0060	 3.0100
 3.0080	 2.8470
 3.0100	 2.5000
 3.0110	 2.2640
 3.0130	 2.1530
 3.0150	 2.6180
 3.0170	 2.8890
 3.0180	 2.3660
 3.0200	 2.1650
 3.0220	 2.2590
 3.0240	 2.7180
 3.0250	 2.8890
 3.0270	 2.8180
 3.0290	 2.7310
 3.0310	 2.8170
 3.0320	 2.9350
 3.0340	 2.5560
 3.0360	 2.6880
 3.0380	 3.2000
 3.0400	 2.6370
 3.0410	 2.7960
 3.0430	 3.0200
 3.0450	 1.0610
 3.0470	 1.5080
 3.0480	 1.8630
 3.0500	 1.5280
 3.0520	 2.4110
 3.0540	 3.2490
 3.0560	 2.6470
 3.0570	 1.5560
 3.0590	 2.6000
 3.0610	 2.7790
 3.0630	 1.9980
 3.0650	 1.8660
 3.0660	 3.0930
 3.0680	 3.1770
 3.0700	 3.0500
 3.0720	 2.8750
 3.0740	 2.8300
 3.0760	 2.8660
 3.0770	 2.8780
 3.0790	 2.6260
 3.0810	 2.9230
 3.0830	 2.9300
 3.0850	 3.0580
 3.0870	 3.0560
 3.0880	 3.1030
 3.0900	 2.9600
 3.0920	 3.0300
 3.0940	 2.9360
 3.0960	 2.9370
 3.0980	 2.8620
 3.0990	 2.9890
 3.1010	 2.9340
 3.1030	 2.9830
 3.1050	 2.7740
 3.1070	 2.7830
 3.1090	 3.2100
 3.1110	 3.4450
 3.1120	 2.9900
 3.1140	 2.4640
 3.1160	 2.5400
 3.1180	 3.0360
 3.1200	 2.9970
 3.1220	 2.9770
 3.1240	 2.6740
 3.1260	 2.6120
 3.1270	 3.0200
 3.1290	 3.3390
 3.1310	 3.2350
 3.1330	 3.4380
 3.1350	 3.2240
 3.1370	 3.2070
 3.1390	 3.3250
 3.1410	 3.7840
 3.1430	 3.3540
 3.1450	 2.8780
 3.1460	 2.5730
 3.1480	 2.7110
 3.1500	 3.1010
 3.1520	 3.0550
 3.1540	 3.2040
 3.1560	 3.2170
 3.1580	 2.6570
 3.1600	 2.3050
 3.1620	 2.5680
 3.1640	 3.4220
 3.1660	 4.8910
 3.1680	 5.4500
 3.1700	 3.5030
 3.1710	 1.7310
 3.1730	 1.5380
 3.1750	 2.2330
 3.1770	 1.7280
 3.1790	 0.6640
 3.1810	 0.9040
 3.1830	 1.7650
 3.1850	 2.4760
 3.1870	 2.6600
 3.1890	 2.7970
 3.1910	 2.8440
 3.1930	 2.8750
 3.1950	 2.9070
 3.1970	 2.8070
 3.1990	 3.0000
 3.2010	 3.0830
 3.2030	 2.9430
 3.2050	 2.8260
 3.2070	 2.9770
 3.2090	 3.1710
 3.2110	 3.0520
 3.2130	 2.8880
 3.2150	 2.7160
 3.2170	 2.7270
 3.2190	 2.9900
 3.2210	 2.9330
 3.2230	 3.0170
 3.2250	 3.0440
 3.2270	 3.0430
 3.2290	 2.7770
 3.2310	 2.5710
 3.2330	 2.6600
 3.2350	 2.8650
 3.2370	 2.8520
 3.2390	 2.9130
 3.2410	 2.9600
 3.2430	 2.9940
 3.2450	 2.8250
 3.2470	 2.8700
 3.2490	 2.9120
 3.2510	 2.8640
 3.2530	 2.8260
 3.2550	 2.8540
 3.2570	 2.6810
 3.2590	 2.6460
 3.2610	 2.5160
 3.2630	 2.5440
 3.2650	 2.3660
 3.2670	 2.4080
 3.2690	 2.4220
 3.2720	 2.5620
 3.2740	 2.8950
 3.2760	 2.9930
 3.2780	 2.9210
 3.2800	 2.9640
 3.2820	 2.8610
 3.2840	 2.9140
 3.2860	 2.9370
 3.2880	 2.9430
 3.2900	 2.9410
 3.2920	 2.8670
 3.2940	 2.7180
 3.2960	 2.7450
 3.2990	 2.8940
 3.3010	 3.1360
 3.3030	 2.9580
 3.3050	 2.7940
 3.3070	 2.8900
 3.3090	 2.9480
 3.3110	 2.8720
 3.3130	 3.0190
 3.3150	 2.9330
 3.3180	 2.8480
 3.3200	 2.9330
 3.3220	 2.9230
 3.3240	 2.8960
 3.3260	 2.9910
 3.3280	 2.8870
 3.3300	 2.6660
 3.3330	 2.6090
 3.3350	 2.8700
 3.3370	 2.8930
 3.3390	 2.7930
 3.3410	 2.7460
 3.3430	 2.7990
 3.3450	 2.7690
 3.3480	 2.8220
 3.3500	 2.8610
 3.3520	 2.8510
 3.3540	 2.7730
 3.3560	 2.6380
 3.3580	 2.4830
 3.3610	 2.6260
 3.3630	 2.7330
 3.3650	 2.8470
 3.3670	 2.7020
 3.3690	 2.6380
 3.3720	 2.6070
 3.3740	 2.5740
 3.3760	 2.6290
 3.3780	 2.5930
 3.3800	 2.4770
 3.3830	 2.4820
 3.3850	 2.6430
 3.3870	 2.8200
 3.3890	 2.6840
 3.3910	 2.6060
 3.3940	 2.5820
 3.3960	 2.5870
 3.3980	 2.5300
 3.4000	 2.6680
 3.4020	 2.7710
 3.4050	 2.6830
 3.4070	 2.6030
 3.4090	 2.7700
 3.4110	 2.9630
 3.4140	 3.1360
 3.4160	 3.2200
 3.4180	 3.3760
 3.4200	 3.5920
 3.4230	 3.9790
 3.4250	 4.2500
 3.4270	 4.5760
 3.4290	 4.9110
 3.4320	 4.9400
 3.4340	 4.5120
 3.4360	 4.1230
 3.4390	 3.8400
 3.4410	 3.8030
 3.4430	 3.8340
 3.4450	 3.7240
 3.4480	 3.3780
 3.4500	 3.3970
 3.4520	 3.6300
 3.4550	 3.6930
 3.4570	 3.6360
 3.4590	 3.4100
 3.4620	 3.3520
 3.4640	 3.5120
 3.4660	 3.4490
 3.4680	 3.2850
 3.4710	 3.1770
 3.4730	 3.1950
 3.4750	 3.1920
 3.4780	 3.2270
 3.4800	 3.1210
 3.4820	 3.1270
 3.4850	 3.0630
 3.4870	 3.1080
 3.4890	 3.1880
 3.4920	 3.1980
 3.4940	 3.1170
 3.4970	 3.1490
 3.4990	 3.2080
 3.5010	 3.2690
 3.5040	 3.3350
 3.5060	 3.8520
 3.5080	 4.4420
 3.5110	 4.8330
 3.5130	 4.7610
 3.5160	 4.4410
 3.5180	 4.1380
 3.5200	 4.0470
 3.5230	 3.8730
 3.5250	 3.7640
 3.5270	 3.7950
 3.5300	 3.8180
 3.5320	 3.7290
 3.5350	 3.6330
 3.5370	 3.4880
 3.5400	 3.4680
 3.5420	 3.3430
 3.5440	 3.3940
 3.5470	 3.4860
 3.5490	 3.5700
 3.5520	 3.5180
 3.5540	 3.5590
 3.5570	 3.6190
 3.5590	 3.4670
 3.5610	 3.3680
 3.5640	 3.4440
 3.5660	 3.4290
 3.5690	 3.3620
 3.5710	 3.2290
 3.5740	 3.3350
 3.5760	 3.4090
 3.5790	 3.3880
 3.5810	 3.4260
 3.5840	 3.4900
 3.5860	 3.3750
 3.5890	 3.3950
 3.5910	 3.5970
 3.5930	 3.8050
 3.5960	 3.5350
 3.5980	 3.4700
 3.6010	 3.4840
 3.6030	 3.3760
 3.6060	 3.3970
 3.6080	 3.4540
 3.6110	 3.3410
 3.6140	 3.3370
 3.6160	 3.3470
 3.6190	 3.3810
 3.6210	 3.3980
 3.6240	 3.3870
 3.6260	 3.4190
 3.6290	 3.4680
 3.6310	 3.4970
 3.6340	 3.5310
 3.6360	 3.4450
 3.6390	 3.4220
 3.6410	 3.2310
 3.6440	 3.1220
 3.6470	 3.2330
 3.6490	 3.4270
 3.6520	 3.4100
 3.6540	 3.3540
 3.6570	 3.3500
 3.6590	 3.3880
 3.6620	 3.3360
 3.6650	 3.3460
 3.6670	 3.3330
 3.6700	 3.2540
 3.6720	 3.2220
 3.6750	 3.3380
 3.6780	 3.3560
 3.6800	 3.3200
 3.6830	 3.3920
 3.6850	 3.4240
 3.6880	 3.3550
 3.6910	 3.3590
 3.6930	 3.3420
 3.6960	 3.3830
 3.6990	 3.3990
 3.7010	 3.3980
 3.7040	 3.3310
 3.7060	 3.3150
 3.7090	 3.2870
 3.7120	 3.3480
 3.7140	 3.3670
 3.7170	 3.3550
 3.7200	 3.3020
 3.7220	 3.3120
 3.7250	 3.4210
 3.7280	 3.4690
 3.7300	 3.3190
 3.7330	 3.2700
 3.7360	 3.2330
 3.7390	 3.2960
 3.7410	 3.2880
 3.7440	 3.2670
 3.7470	 3.3820
 3.7490	 3.4680
 3.7520	 3.3600
 3.7550	 3.4200
 3.7580	 3.3970
 3.7600	 3.4270
 3.7630	 3.4200
 3.7660	 3.4510
 3.7680	 3.5060
 3.7710	 3.4190
 3.7740	 3.3060
 3.7770	 3.3810
 3.7790	 3.3960
 3.7820	 3.4020
 3.7850	 3.3550
 3.7880	 3.4300
 3.7900	 3.4570
 3.7930	 3.4440
 3.7960	 3.4510
 3.7990	 3.4770
 3.8020	 3.4400
 3.8040	 3.4560
 3.8070	 3.4630
 3.8100	 3.5620
 3.8130	 3.6450
 3.8160	 3.5840
 3.8180	 3.3960
 3.8210	 3.3990
 3.8240	 3.4210
 3.8270	 3.4670
 3.8300	 3.4830
 3.8330	 3.4590
 3.8350	 3.3850
 3.8380	 3.4890
 3.8410	 3.5460
 3.8440	 3.4890
 3.8470	 3.3850
 3.8500	 3.3290
 3.8520	 3.4290
 3.8550	 3.4680
 3.8580	 3.4400
 3.8610	 3.4330
 3.8640	 3.4280
 3.8670	 3.4920
 3.8700	 3.4310
 3.8730	 3.4660
 3.8750	 3.5150
 3.8780	 3.4890
 3.8810	 3.4990
 3.8840	 3.5000
 3.8870	 3.4340
 3.8900	 3.4720
 3.8930	 3.4900
 3.8960	 3.4900
 3.8990	 3.4720
 3.9020	 3.4830
 3.9050	 3.4090
 3.9080	 3.4310
 3.9110	 3.4510
 3.9140	 3.4700
 3.9160	 3.4690
 3.9190	 3.4750
 3.9220	 3.4620
 3.9250	 3.5280
 3.9280	 3.5150
 3.9310	 3.5330
 3.9340	 3.5180
 3.9370	 3.4290
 3.9400	 3.3960
 3.9430	 3.4400
 3.9460	 3.4060
 3.9490	 3.4510
 3.9520	 3.4720
 3.9550	 3.4880
 3.9580	 3.4630
 3.9610	 3.4610
 3.9640	 3.4650
 3.9670	 3.3940
 3.9700	 3.3540
 3.9730	 3.3920
 3.9770	 3.4600
 3.9800	 3.4500
 3.9830	 3.4020
 3.9860	 3.4140
 3.9890	 3.4140
 3.9920	 3.4870
 3.9950	 3.5050
 3.9980	 3.4770
 4.0010	 3.4530
 4.0040	 3.4360
 4.0070	 3.4000
 4.0100	 3.4180
 4.0130	 3.4030
 4.0170	 3.3950
 4.0200	 3.4810
 4.0230	 3.5040
 4.0260	 3.4250
 4.0290	 3.4070
 4.0320	 3.4490
 4.0350	 3.5350
 4.0380	 3.4650
 4.0420	 3.4260
 4.0450	 3.4320
 4.0480	 3.4810
 4.0510	 3.4420
 4.0540	 3.3930
 4.0570	 3.3570
 4.0610	 3.3710
 4.0640	 3.3800
 4.0670	 3.4410
 4.0700	 3.4860
 4.0730	 3.4560
 4.0770	 3.4440
 4.0800	 3.4570
 4.0830	 3.4870
 4.0860	 3.5080
 4.0890	 3.4320
 4.0930	 3.4090
 4.0960	 3.3810
 4.0990	 3.3910
 4.1020	 3.4000
 4.1060	 3.4640
 4.1090	 3.5460
 4.1120	 3.4990
 4.1150	 3.4480
 4.1190	 3.4870
 4.1220	 3.4470
 4.1250	 3.4310
 4.1280	 3.3950
 4.1320	 3.4400
 4.1350	 3.4500
 4.1380	 3.4730
 4.1420	 3.4690
 4.1450	 3.4730
 4.1480	 3.4870
 4.1520	 3.4600
 4.1550	 3.4230
 4.1580	 3.3810
 4.1620	 3.3720
 4.1650	 3.3910
 4.1680	 3.4140
 4.1720	 3.4440
 4.1750	 3.4330
 4.1780	 3.4330
 4.1820	 3.3760
 4.1850	 3.3940
 4.1890	 3.4350
 4.1920	 3.4210
 4.1950	 3.3610
 4.1990	 3.4340
 4.2020	 3.5700
 4.2060	 3.7160
 4.2090	 3.6770
 4.2120	 3.6750
 4.2160	 3.6620
 4.2190	 3.7170
 4.2230	 3.6380
 4.2260	 3.6050
 4.2300	 3.5260
 4.2330	 3.7590
 4.2360	 3.9500
 4.2400	 3.9690
 4.2430	 3.5720
 4.2470	 3.2410
 4.2500	 3.3860
 4.2540	 3.5940
 4.2570	 3.5570
 4.2610	 3.5250
 4.2640	 3.5460
 4.2680	 3.6390
 4.2710	 3.4680
 4.2750	 3.5340
 4.2780	 3.7640
 4.2820	 3.8200
 4.2850	 3.7100
 4.2890	 3.6850
 4.2930	 3.8090
 4.2960	 3.8180
 4.3000	 3.6490
 4.3030	 3.5510
 4.3070	 3.5100
 4.3100	 3.5500
 4.3140	 3.6110
 4.3180	 3.5940
 4.3210	 3.4580
 4.3250	 3.4070
 4.3280	 3.4110
 4.3320	 3.4170
 4.3360	 3.4020
 4.3390	 3.4120
 4.3430	 3.4300
 4.3470	 3.3900
 4.3500	 3.3260
 4.3540	 3.3140
 4.3570	 3.3080
 4.3610	 3.3320
 4.3650	 3.3220
 4.3680	 3.2350
 4.3720	 3.2460
 4.3760	 3.3330
 4.3800	 3.2680
 4.3830	 3.2370
 4.3870	 3.2720
 4.3910	 3.2770
 4.3940	 3.2770
 4.3980	 3.2660
 4.4020	 3.2310
 4.4060	 3.2140
 4.4090	 3.2060
 4.4130	 3.2320
 4.4170	 3.2670
 4.4210	 3.2390
 4.4240	 3.1450
 4.4280	 3.1620
 4.4320	 3.2690
 4.4360	 3.2880
 4.4400	 3.2400
 4.4430	 3.2340
 4.4470	 3.2080
 4.4510	 3.2400
 4.4550	 3.2560
 4.4590	 3.2020
 4.4620	 3.1830
 4.4660	 3.2130
 4.4700	 3.1960
 4.4740	 3.1240
 4.4780	 3.0710
 4.4820	 3.1120
 4.4860	 3.1250
 4.4900	 3.1240
 4.4930	 3.1150
 4.4970	 3.1350
 4.5010	 3.1230
 4.5050	 3.1210
 4.5090	 3.1130
 4.5130	 3.0960
 4.5170	 3.1130
 4.5210	 3.1280
 4.5250	 3.1570
 4.5290	 3.1710
 4.5330	 3.1380
 4.5370	 3.0790
 4.5410	 3.0540
 4.5450	 3.1260
 4.5490	 3.1650
 4.5530	 3.1660
 4.5570	 3.1580
 4.5610	 3.1870
 4.5650	 3.1410
 4.5690	 3.1130
 4.5730	 3.0930
 4.5770	 3.0940
 4.5810	 3.1630
 4.5850	 3.1100
 4.5890	 3.0550
 4.5930	 3.1120
 4.5970	 3.1580
 4.6010	 3.1130
 4.6050	 3.0460
 4.6090	 3.0300
 4.6130	 2.9880
 4.6170	 3.1170
 4.6220	 3.0340
 4.6260	 3.0030
 4.6300	 3.1730
 4.6340	 3.1920
 4.6380	 3.1730
 4.6420	 3.1050
 4.6460	 3.0440
 4.6510	 3.0690
 4.6550	 3.0780
 4.6590	 3.0100
 4.6630	 3.0270
 4.6670	 3.0650
 4.6720	 3.0860
 4.6760	 3.1020
 4.6800	 3.0290
 4.6840	 3.0780
 4.6880	 3.1600
 4.6930	 3.0550
 4.6970	 3.0380
 4.7010	 3.0940
 4.7050	 3.0900
 4.7100	 3.0350
 4.7140	 2.9940
 4.7180	 3.0430
 4.7230	 3.1430
 4.7270	 3.0860
 4.7310	 3.0570
 4.7360	 3.0540
 4.7400	 3.0920
 4.7440	 3.1380
 4.7490	 3.1230
 4.7530	 3.0020
 4.7570	 2.9740
 4.7620	 3.0180
 4.7660	 3.0910
 4.7700	 3.0030
 4.7750	 2.9920
 4.7790	 2.9360
 4.7840	 2.7810
 4.7880	 2.9240
 4.7920	 2.9720
 4.7970	 2.8320
 4.8010	 2.9690
 4.8060	 3.0920
 4.8100	 3.0790
 4.8150	 3.0430
 4.8190	 3.0550
 4.8240	 3.1130
 4.8280	 3.1530
 4.8330	 3.0800
 4.8370	 3.0570
 4.8420	 3.1110
 4.8460	 3.1070
 4.8510	 3.1250
 4.8550	 3.1330
 4.8600	 3.0590
 4.8640	 3.0630
 4.8690	 3.0580
 4.8730	 3.0740
 4.8780	 3.0780
 4.8830	 3.0590
 4.8870	 3.0530
 4.8920	 3.0740
 4.8960	 3.0910
 4.9010	 3.0810
 4.9060	 3.0660
 4.9100	 3.1090
 4.9150	 3.0520
 4.9200	 3.0770
 4.9240	 3.1130
 4.9290	 3.0880
 4.9340	 3.0520
 4.9380	 3.0510
 4.9430	 3.0870
 4.9480	 3.1590
 4.9530	 3.1340
 4.9570	 3.1120
 4.9620	 3.0830
 4.9670	 3.1160
 4.9720	 3.1420
 4.9760	 3.1270
 4.9810	 3.1310
 4.9860	 3.1790
 4.9910	 3.1210
 4.9960	 3.0790
 5.0000	 3.0850
 5.0050	 3.1140
 5.0100	 3.0860
 5.0150	 3.0680
 5.0200	 3.0670
 5.0250	 3.0600
 5.0290	 3.0680
 5.0340	 3.1060
 5.0390	 3.1080
 5.0440	 3.1450
 5.0490	 3.1260
 5.0540	 3.0870
 5.0590	 3.0870
 5.0640	 3.1120
 5.0690	 3.1250
 5.0740	 3.1650
 5.0790	 3.1660
 5.0840	 3.1460
 5.0890	 3.1100
 5.0940	 3.1140
 5.0990	 3.1140
 5.1040	 3.1130
 5.1090	 3.1320
 5.1140	 3.1940
 5.1190	 3.2200
 5.1240	 3.1660
 5.1290	 3.1590
 5.1340	 3.1290
 5.1390	 3.0860
 5.1440	 3.1740
 5.1490	 3.1830
 5.1540	 3.1440
 5.1600	 3.1310
 5.1650	 3.1730
 5.1700	 3.1610
 5.1750	 3.2280
 5.1800	 3.2430
 5.1850	 3.2380
 5.1910	 3.2500
 5.1960	 3.2300
 5.2010	 3.1670
 5.2060	 3.0970
 5.2110	 3.0840
 5.2170	 3.1830
 5.2220	 3.2430
 5.2270	 3.2240
 5.2320	 3.1570
 5.2380	 3.1340
 5.2430	 3.1470
 5.2480	 3.1990
 5.2540	 3.1800
 5.2590	 3.1680
 5.2640	 3.1420
 5.2700	 3.1430
 5.2750	 3.1830
 5.2800	 3.2410
 5.2860	 3.2660
 5.2910	 3.2360
 5.2970	 3.1240
 5.3020	 3.1230
 5.3070	 3.1270
 5.3130	 3.0910
 5.3180	 3.0690
 5.3240	 3.1350
 5.3290	 3.1400
 5.3350	 3.1400
 5.3400	 3.1360
 5.3460	 3.1570
 5.3510	 3.0830
 5.3570	 3.0790
 5.3620	 3.1280
 5.3680	 3.1490
 5.3730	 3.0830
 5.3790	 3.0720
 5.3850	 3.0820
 5.3900	 3.1260
 5.3960	 3.1150
 5.4010	 3.1210
 5.4070	 3.1100
 5.4130	 3.1170
 5.4180	 3.1170
 5.4240	 3.1870
 5.4300	 3.1390
 5.4350	 3.1210
 5.4410	 3.0560
