Name: Ficus thonningii
Type: vegetation
Class: Tree
Genus: Ficus
Species: thonningii
Sample No.: JPL101
Owner: JPL
Wavelength Range: VSWIR
Origin: 34.12633; - 118.11185; WGS84
Collection Date: 2/2/2016
Description: Samples were collected at the Huntington Garden in San Marino California as part of a JPL Subcontract studying HyTES imagery. Samples were taken to JPL and processed within 48 hours of collection. The same leaves were processed in the Nicolet and then measured using the ASD.
Measurement: Bidirectional reflectance
First Column: X
Second Column: Y
X Units: Wavelength (micrometer)
Y Units: Reflectance (percentage)
First X Value: 0.35
Last X Value: 2.5
Number of X Values: 2151
Additional Information: 

 0.3500	13.0760
 0.3510	13.3710
 0.3520	12.7010
 0.3530	11.8100
 0.3540	11.5270
 0.3550	12.2440
 0.3560	12.5660
 0.3570	12.3330
 0.3580	12.1180
 0.3590	12.3140
 0.3600	12.2270
 0.3610	11.8070
 0.3620	12.0370
 0.3630	12.1990
 0.3640	12.5800
 0.3650	13.3540
 0.3660	13.4580
 0.3670	13.0250
 0.3680	12.4120
 0.3690	12.1300
 0.3700	12.4890
 0.3710	12.7410
 0.3720	12.6330
 0.3730	13.0910
 0.3740	13.2090
 0.3750	12.8680
 0.3760	12.3940
 0.3770	12.8190
 0.3780	12.9390
 0.3790	12.5410
 0.3800	12.3700
 0.3810	12.9660
 0.3820	13.1480
 0.3830	12.3900
 0.3840	12.0170
 0.3850	12.6340
 0.3860	13.2370
 0.3870	12.6180
 0.3880	12.4380
 0.3890	12.6280
 0.3900	12.8230
 0.3910	12.5200
 0.3920	12.4660
 0.3930	12.5970
 0.3940	12.7310
 0.3950	12.8580
 0.3960	12.8790
 0.3970	12.8640
 0.3980	12.9180
 0.3990	12.7240
 0.4000	12.5860
 0.4010	12.6420
 0.4020	12.7480
 0.4030	12.5110
 0.4040	12.3420
 0.4050	12.5990
 0.4060	12.7610
 0.4070	12.9250
 0.4080	12.9430
 0.4090	12.5590
 0.4100	12.2350
 0.4110	12.2550
 0.4120	12.6050
 0.4130	12.8840
 0.4140	12.7000
 0.4150	12.4840
 0.4160	12.7150
 0.4170	12.6810
 0.4180	12.5550
 0.4190	12.4990
 0.4200	12.6140
 0.4210	12.6710
 0.4220	12.6450
 0.4230	12.5740
 0.4240	12.5360
 0.4250	12.5240
 0.4260	12.5540
 0.4270	12.6200
 0.4280	12.5280
 0.4290	12.4950
 0.4300	12.5640
 0.4310	12.4930
 0.4320	12.4360
 0.4330	12.4300
 0.4340	12.4530
 0.4350	12.3670
 0.4360	12.3170
 0.4370	12.3570
 0.4380	12.4520
 0.4390	12.4020
 0.4400	12.3800
 0.4410	12.4890
 0.4420	12.5330
 0.4430	12.5990
 0.4440	12.6350
 0.4450	12.5670
 0.4460	12.4680
 0.4470	12.4950
 0.4480	12.6260
 0.4490	12.6350
 0.4500	12.6160
 0.4510	12.6150
 0.4520	12.6360
 0.4530	12.5850
 0.4540	12.5310
 0.4550	12.5350
 0.4560	12.6370
 0.4570	12.6330
 0.4580	12.6110
 0.4590	12.6250
 0.4600	12.5900
 0.4610	12.6520
 0.4620	12.7120
 0.4630	12.6400
 0.4640	12.6610
 0.4650	12.6830
 0.4660	12.6610
 0.4670	12.6070
 0.4680	12.6420
 0.4690	12.6860
 0.4700	12.6710
 0.4710	12.7030
 0.4720	12.6670
 0.4730	12.5970
 0.4740	12.6000
 0.4750	12.7240
 0.4760	12.7740
 0.4770	12.7000
 0.4780	12.7110
 0.4790	12.6400
 0.4800	12.6140
 0.4810	12.7510
 0.4820	12.7320
 0.4830	12.6580
 0.4840	12.6030
 0.4850	12.6020
 0.4860	12.5750
 0.4870	12.5730
 0.4880	12.6070
 0.4890	12.5100
 0.4900	12.4750
 0.4910	12.5430
 0.4920	12.6580
 0.4930	12.6740
 0.4940	12.6490
 0.4950	12.6350
 0.4960	12.6400
 0.4970	12.6460
 0.4980	12.6760
 0.4990	12.7410
 0.5000	12.7770
 0.5010	12.7820
 0.5020	12.7770
 0.5030	12.8020
 0.5040	12.8400
 0.5050	12.8270
 0.5060	12.7670
 0.5070	12.8520
 0.5080	12.9210
 0.5090	12.9710
 0.5100	13.0520
 0.5110	13.0920
 0.5120	13.1340
 0.5130	13.1810
 0.5140	13.1790
 0.5150	13.2500
 0.5160	13.3480
 0.5170	13.4150
 0.5180	13.5430
 0.5190	13.6610
 0.5200	13.7500
 0.5210	13.8360
 0.5220	13.9930
 0.5230	14.1350
 0.5240	14.2210
 0.5250	14.3640
 0.5260	14.5150
 0.5270	14.6420
 0.5280	14.7320
 0.5290	14.8330
 0.5300	14.9510
 0.5310	15.0690
 0.5320	15.1410
 0.5330	15.2220
 0.5340	15.3000
 0.5350	15.3550
 0.5360	15.3820
 0.5370	15.4340
 0.5380	15.4860
 0.5390	15.4670
 0.5400	15.4250
 0.5410	15.3420
 0.5420	15.2280
 0.5430	15.1560
 0.5440	15.1570
 0.5450	15.2220
 0.5460	15.3190
 0.5470	15.4330
 0.5480	15.5300
 0.5490	15.5950
 0.5500	15.6490
 0.5510	15.6840
 0.5520	15.6950
 0.5530	15.6850
 0.5540	15.6900
 0.5550	15.6940
 0.5560	15.6850
 0.5570	15.6510
 0.5580	15.6130
 0.5590	15.5660
 0.5600	15.5020
 0.5610	15.4050
 0.5620	15.3190
 0.5630	15.2500
 0.5640	15.1850
 0.5650	15.0850
 0.5660	14.9700
 0.5670	14.8680
 0.5680	14.8120
 0.5690	14.7420
 0.5700	14.6460
 0.5710	14.5380
 0.5720	14.4520
 0.5730	14.3710
 0.5740	14.2880
 0.5750	14.2110
 0.5760	14.1750
 0.5770	14.1380
 0.5780	14.0670
 0.5790	13.9640
 0.5800	13.9070
 0.5810	13.8850
 0.5820	13.8530
 0.5830	13.7890
 0.5840	13.7550
 0.5850	13.7570
 0.5860	13.7310
 0.5870	13.6920
 0.5880	13.6680
 0.5890	13.6730
 0.5900	13.6920
 0.5910	13.6750
 0.5920	13.6300
 0.5930	13.6030
 0.5940	13.6290
 0.5950	13.6600
 0.5960	13.6620
 0.5970	13.6380
 0.5980	13.6260
 0.5990	13.6210
 0.6000	13.6030
 0.6010	13.5640
 0.6020	13.5660
 0.6030	13.5970
 0.6040	13.5770
 0.6050	13.5430
 0.6060	13.5090
 0.6070	13.4830
 0.6080	13.4730
 0.6090	13.4080
 0.6100	13.2580
 0.6110	13.0550
 0.6120	13.0360
 0.6130	13.1130
 0.6140	13.1930
 0.6150	13.2130
 0.6160	13.2300
 0.6170	13.2380
 0.6180	13.2190
 0.6190	13.1970
 0.6200	13.1810
 0.6210	13.1730
 0.6220	13.1740
 0.6230	13.1790
 0.6240	13.1810
 0.6250	13.1790
 0.6260	13.1950
 0.6270	13.1970
 0.6280	13.1910
 0.6290	13.1920
 0.6300	13.1740
 0.6310	13.1710
 0.6320	13.1880
 0.6330	13.1990
 0.6340	13.2170
 0.6350	13.2220
 0.6360	13.2060
 0.6370	13.2090
 0.6380	13.1880
 0.6390	13.1540
 0.6400	13.1480
 0.6410	13.1510
 0.6420	13.1610
 0.6430	13.1680
 0.6440	13.1470
 0.6450	13.1190
 0.6460	13.1060
 0.6470	13.1180
 0.6480	13.1320
 0.6490	13.1460
 0.6500	13.1460
 0.6510	13.1120
 0.6520	13.1000
 0.6530	13.1100
 0.6540	13.1330
 0.6550	13.1620
 0.6560	13.1640
 0.6570	13.1580
 0.6580	13.1730
 0.6590	13.1680
 0.6600	13.1720
 0.6610	13.1900
 0.6620	13.2040
 0.6630	13.2030
 0.6640	13.2000
 0.6650	13.2100
 0.6660	13.2260
 0.6670	13.2500
 0.6680	13.2680
 0.6690	13.2650
 0.6700	13.2740
 0.6710	13.3000
 0.6720	13.3310
 0.6730	13.3360
 0.6740	13.3630
 0.6750	13.4040
 0.6760	13.4380
 0.6770	13.4680
 0.6780	13.4990
 0.6790	13.5360
 0.6800	13.5760
 0.6810	13.6200
 0.6820	13.6580
 0.6830	13.6900
 0.6840	13.7370
 0.6850	13.7720
 0.6860	13.7950
 0.6870	13.8190
 0.6880	13.8710
 0.6890	13.9370
 0.6900	14.0060
 0.6910	14.0730
 0.6920	14.1600
 0.6930	14.2760
 0.6940	14.4380
 0.6950	14.6910
 0.6960	14.9800
 0.6970	15.3100
 0.6980	15.7070
 0.6990	16.1940
 0.7000	16.7580
 0.7010	17.3860
 0.7020	18.0660
 0.7030	18.7720
 0.7040	19.5200
 0.7050	20.3210
 0.7060	21.1610
 0.7070	22.0120
 0.7080	22.8850
 0.7090	23.7970
 0.7100	24.7340
 0.7110	25.6910
 0.7120	26.6680
 0.7130	27.6690
 0.7140	28.6930
 0.7150	29.7230
 0.7160	30.7550
 0.7170	31.8150
 0.7180	32.8820
 0.7190	33.9510
 0.7200	35.0160
 0.7210	36.0740
 0.7220	37.1200
 0.7230	38.1610
 0.7240	39.2120
 0.7250	40.2180
 0.7260	41.2010
 0.7270	42.1810
 0.7280	43.1190
 0.7290	44.0170
 0.7300	44.8810
 0.7310	45.7200
 0.7320	46.5390
 0.7330	47.3170
 0.7340	48.0410
 0.7350	48.7180
 0.7360	49.3680
 0.7370	49.9890
 0.7380	50.5730
 0.7390	51.1200
 0.7400	51.6360
 0.7410	52.1150
 0.7420	52.5520
 0.7430	52.9540
 0.7440	53.3290
 0.7450	53.6750
 0.7460	53.9880
 0.7470	54.2570
 0.7480	54.5190
 0.7490	54.7890
 0.7500	55.0080
 0.7510	55.2000
 0.7520	55.3750
 0.7530	55.5370
 0.7540	55.6720
 0.7550	55.7950
 0.7560	55.9150
 0.7570	56.0340
 0.7580	56.1160
 0.7590	56.1860
 0.7600	56.2610
 0.7610	56.3300
 0.7620	56.3870
 0.7630	56.4270
 0.7640	56.4540
 0.7650	56.4860
 0.7660	56.5180
 0.7670	56.5460
 0.7680	56.5660
 0.7690	56.5640
 0.7700	56.5810
 0.7710	56.6160
 0.7720	56.6070
 0.7730	56.5890
 0.7740	56.5860
 0.7750	56.6050
 0.7760	56.6240
 0.7770	56.6180
 0.7780	56.6070
 0.7790	56.6220
 0.7800	56.6220
 0.7810	56.6250
 0.7820	56.6280
 0.7830	56.6050
 0.7840	56.5940
 0.7850	56.5950
 0.7860	56.5990
 0.7870	56.5860
 0.7880	56.5880
 0.7890	56.5890
 0.7900	56.5700
 0.7910	56.5610
 0.7920	56.5460
 0.7930	56.5280
 0.7940	56.5250
 0.7950	56.5150
 0.7960	56.5060
 0.7970	56.5030
 0.7980	56.5050
 0.7990	56.4840
 0.8000	56.4470
 0.8010	56.4130
 0.8020	56.4240
 0.8030	56.4050
 0.8040	56.3750
 0.8050	56.3770
 0.8060	56.3670
 0.8070	56.3360
 0.8080	56.3010
 0.8090	56.2990
 0.8100	56.2940
 0.8110	56.2790
 0.8120	56.2580
 0.8130	56.2400
 0.8140	56.2410
 0.8150	56.2410
 0.8160	56.2240
 0.8170	56.2020
 0.8180	56.1830
 0.8190	56.1720
 0.8200	56.1680
 0.8210	56.1420
 0.8220	56.1200
 0.8230	56.1130
 0.8240	56.1120
 0.8250	56.1090
 0.8260	56.0950
 0.8270	56.0720
 0.8280	56.0540
 0.8290	56.0400
 0.8300	56.0290
 0.8310	56.0250
 0.8320	56.0380
 0.8330	56.0270
 0.8340	56.0060
 0.8350	56.0010
 0.8360	56.0020
 0.8370	55.9910
 0.8380	55.9790
 0.8390	55.9930
 0.8400	55.9600
 0.8410	55.9330
 0.8420	55.9440
 0.8430	55.9740
 0.8440	55.9820
 0.8450	55.9930
 0.8460	56.0190
 0.8470	56.0020
 0.8480	55.9880
 0.8490	56.0000
 0.8500	56.0340
 0.8510	56.0180
 0.8520	56.0150
 0.8530	56.0340
 0.8540	56.0460
 0.8550	56.0270
 0.8560	56.0200
 0.8570	56.0420
 0.8580	56.0700
 0.8590	56.0970
 0.8600	56.1010
 0.8610	56.0860
 0.8620	56.0980
 0.8630	56.1090
 0.8640	56.1250
 0.8650	56.1530
 0.8660	56.1630
 0.8670	56.1720
 0.8680	56.1850
 0.8690	56.2030
 0.8700	56.2160
 0.8710	56.2220
 0.8720	56.2280
 0.8730	56.2390
 0.8740	56.2260
 0.8750	56.2430
 0.8760	56.2800
 0.8770	56.2730
 0.8780	56.2750
 0.8790	56.2890
 0.8800	56.2960
 0.8810	56.2680
 0.8820	56.2970
 0.8830	56.3450
 0.8840	56.3630
 0.8850	56.3480
 0.8860	56.3510
 0.8870	56.3570
 0.8880	56.3560
 0.8890	56.4120
 0.8900	56.4220
 0.8910	56.4030
 0.8920	56.4150
 0.8930	56.4150
 0.8940	56.4040
 0.8950	56.4010
 0.8960	56.4260
 0.8970	56.4470
 0.8980	56.4510
 0.8990	56.4520
 0.9000	56.4770
 0.9010	56.5100
 0.9020	56.5000
 0.9030	56.4650
 0.9040	56.5080
 0.9050	56.4940
 0.9060	56.4870
 0.9070	56.5190
 0.9080	56.4810
 0.9090	56.5010
 0.9100	56.5290
 0.9110	56.5150
 0.9120	56.5400
 0.9130	56.5320
 0.9140	56.4960
 0.9150	56.4720
 0.9160	56.5100
 0.9170	56.4720
 0.9180	56.4320
 0.9190	56.5020
 0.9200	56.5010
 0.9210	56.5040
 0.9220	56.5130
 0.9230	56.4930
 0.9240	56.4810
 0.9250	56.4460
 0.9260	56.4070
 0.9270	56.4100
 0.9280	56.3640
 0.9290	56.3440
 0.9300	56.3580
 0.9310	56.3390
 0.9320	56.3650
 0.9330	56.3610
 0.9340	56.3010
 0.9350	56.2370
 0.9360	56.2330
 0.9370	56.2040
 0.9380	56.1470
 0.9390	56.1980
 0.9400	56.1250
 0.9410	56.0560
 0.9420	56.0750
 0.9430	56.0660
 0.9440	56.0170
 0.9450	55.9790
 0.9460	55.9720
 0.9470	55.9210
 0.9480	55.8710
 0.9490	55.8320
 0.9500	55.8030
 0.9510	55.7860
 0.9520	55.7420
 0.9530	55.6870
 0.9540	55.6460
 0.9550	55.6260
 0.9560	55.5630
 0.9570	55.4900
 0.9580	55.4550
 0.9590	55.4450
 0.9600	55.4220
 0.9610	55.3460
 0.9620	55.2320
 0.9630	55.2800
 0.9640	55.2540
 0.9650	55.1840
 0.9660	55.1870
 0.9670	55.2470
 0.9680	55.2490
 0.9690	55.1960
 0.9700	55.1510
 0.9710	55.1680
 0.9720	55.1540
 0.9730	55.1260
 0.9740	55.1340
 0.9750	55.1130
 0.9760	55.1000
 0.9770	55.1440
 0.9780	55.2520
 0.9790	55.2680
 0.9800	55.1710
 0.9810	55.0710
 0.9820	55.1060
 0.9830	55.2330
 0.9840	55.1870
 0.9850	55.0870
 0.9860	55.1780
 0.9870	55.2610
 0.9880	55.2380
 0.9890	55.1970
 0.9900	55.2550
 0.9910	55.2010
 0.9920	55.1700
 0.9930	55.1590
 0.9940	55.1140
 0.9950	55.1050
 0.9960	55.1520
 0.9970	55.2740
 0.9980	55.4230
 0.9990	55.3090
 1.0000	55.2160
 1.0010	55.5140
 1.0020	55.5170
 1.0030	55.5000
 1.0040	55.5060
 1.0050	55.4830
 1.0060	55.5080
 1.0070	55.5700
 1.0080	55.5900
 1.0090	55.5900
 1.0100	55.6160
 1.0110	55.6380
 1.0120	55.6540
 1.0130	55.6930
 1.0140	55.7210
 1.0150	55.7390
 1.0160	55.7350
 1.0170	55.7560
 1.0180	55.7690
 1.0190	55.7730
 1.0200	55.7720
 1.0210	55.7820
 1.0220	55.7880
 1.0230	55.7940
 1.0240	55.7900
 1.0250	55.8090
 1.0260	55.8540
 1.0270	55.8690
 1.0280	55.8760
 1.0290	55.8840
 1.0300	55.8610
 1.0310	55.8610
 1.0320	55.8740
 1.0330	55.9080
 1.0340	55.9220
 1.0350	55.9380
 1.0360	55.9490
 1.0370	55.9650
 1.0380	55.9770
 1.0390	55.9930
 1.0400	55.9980
 1.0410	55.9870
 1.0420	55.9920
 1.0430	55.9990
 1.0440	56.0070
 1.0450	56.0340
 1.0460	56.0410
 1.0470	56.0200
 1.0480	56.0290
 1.0490	56.0510
 1.0500	56.0630
 1.0510	56.1000
 1.0520	56.1200
 1.0530	56.1190
 1.0540	56.0870
 1.0550	56.0840
 1.0560	56.0710
 1.0570	56.0800
 1.0580	56.1150
 1.0590	56.1360
 1.0600	56.1740
 1.0610	56.1830
 1.0620	56.1560
 1.0630	56.1650
 1.0640	56.1830
 1.0650	56.1880
 1.0660	56.2270
 1.0670	56.2290
 1.0680	56.2100
 1.0690	56.1430
 1.0700	56.1350
 1.0710	56.1370
 1.0720	56.1370
 1.0730	56.1580
 1.0740	56.1770
 1.0750	56.1950
 1.0760	56.2030
 1.0770	56.2270
 1.0780	56.2280
 1.0790	56.1930
 1.0800	56.1780
 1.0810	56.1650
 1.0820	56.1570
 1.0830	56.1650
 1.0840	56.1610
 1.0850	56.1410
 1.0860	56.1490
 1.0870	56.1420
 1.0880	56.1340
 1.0890	56.1170
 1.0900	56.0800
 1.0910	56.0860
 1.0920	56.1140
 1.0930	56.1200
 1.0940	56.1610
 1.0950	56.1630
 1.0960	56.1070
 1.0970	56.0940
 1.0980	56.0990
 1.0990	56.0970
 1.1000	56.1100
 1.1010	56.1120
 1.1020	56.1100
 1.1030	56.0930
 1.1040	56.0730
 1.1050	56.0750
 1.1060	56.0670
 1.1070	56.0500
 1.1080	56.0490
 1.1090	56.0570
 1.1100	56.0640
 1.1110	56.0880
 1.1120	56.0920
 1.1130	56.0910
 1.1140	56.0780
 1.1150	56.0390
 1.1160	56.0180
 1.1170	55.9920
 1.1180	55.9750
 1.1190	55.9710
 1.1200	55.9710
 1.1210	55.9550
 1.1220	55.9420
 1.1230	55.9240
 1.1240	55.9080
 1.1250	55.8830
 1.1260	55.8640
 1.1270	55.8200
 1.1280	55.7470
 1.1290	55.7020
 1.1300	55.6570
 1.1310	55.6150
 1.1320	55.6050
 1.1330	55.5560
 1.1340	55.4890
 1.1350	55.4180
 1.1360	55.3260
 1.1370	55.2340
 1.1380	55.1620
 1.1390	55.0790
 1.1400	55.0060
 1.1410	54.9420
 1.1420	54.8490
 1.1430	54.7520
 1.1440	54.6560
 1.1450	54.5370
 1.1460	54.4510
 1.1470	54.3850
 1.1480	54.3120
 1.1490	54.2550
 1.1500	54.1820
 1.1510	54.0910
 1.1520	54.0230
 1.1530	53.9500
 1.1540	53.9000
 1.1550	53.8820
 1.1560	53.8480
 1.1570	53.8010
 1.1580	53.7660
 1.1590	53.7280
 1.1600	53.6940
 1.1610	53.6770
 1.1620	53.6520
 1.1630	53.6150
 1.1640	53.5850
 1.1650	53.5700
 1.1660	53.5710
 1.1670	53.5630
 1.1680	53.5630
 1.1690	53.5550
 1.1700	53.5330
 1.1710	53.5200
 1.1720	53.5100
 1.1730	53.5020
 1.1740	53.4970
 1.1750	53.4900
 1.1760	53.4910
 1.1770	53.4910
 1.1780	53.4920
 1.1790	53.4970
 1.1800	53.4990
 1.1810	53.5030
 1.1820	53.4990
 1.1830	53.4900
 1.1840	53.4710
 1.1850	53.4610
 1.1860	53.4590
 1.1870	53.4460
 1.1880	53.4360
 1.1890	53.4270
 1.1900	53.4200
 1.1910	53.4160
 1.1920	53.4180
 1.1930	53.4300
 1.1940	53.4340
 1.1950	53.4400
 1.1960	53.4380
 1.1970	53.4350
 1.1980	53.4390
 1.1990	53.4440
 1.2000	53.4510
 1.2010	53.4540
 1.2020	53.4720
 1.2030	53.4850
 1.2040	53.4930
 1.2050	53.5070
 1.2060	53.5020
 1.2070	53.4960
 1.2080	53.4950
 1.2090	53.4990
 1.2100	53.5150
 1.2110	53.5290
 1.2120	53.5550
 1.2130	53.5780
 1.2140	53.5960
 1.2150	53.6100
 1.2160	53.6250
 1.2170	53.6350
 1.2180	53.6420
 1.2190	53.6700
 1.2200	53.6940
 1.2210	53.7030
 1.2220	53.7190
 1.2230	53.7280
 1.2240	53.7370
 1.2250	53.7580
 1.2260	53.7540
 1.2270	53.7520
 1.2280	53.7700
 1.2290	53.7920
 1.2300	53.8160
 1.2310	53.8320
 1.2320	53.8470
 1.2330	53.8530
 1.2340	53.8610
 1.2350	53.8840
 1.2360	53.8910
 1.2370	53.8810
 1.2380	53.8850
 1.2390	53.9160
 1.2400	53.9340
 1.2410	53.9690
 1.2420	53.9980
 1.2430	53.9940
 1.2440	53.9990
 1.2450	54.0130
 1.2460	54.0090
 1.2470	54.0110
 1.2480	54.0190
 1.2490	54.0160
 1.2500	54.0380
 1.2510	54.0590
 1.2520	54.0570
 1.2530	54.0620
 1.2540	54.0660
 1.2550	54.0550
 1.2560	54.0430
 1.2570	54.0470
 1.2580	54.0380
 1.2590	54.0310
 1.2600	54.0410
 1.2610	54.0480
 1.2620	54.0460
 1.2630	54.0530
 1.2640	54.0680
 1.2650	54.0620
 1.2660	54.0570
 1.2670	54.0370
 1.2680	54.0240
 1.2690	54.0280
 1.2700	54.0270
 1.2710	54.0350
 1.2720	54.0370
 1.2730	54.0240
 1.2740	54.0150
 1.2750	54.0100
 1.2760	54.0040
 1.2770	53.9930
 1.2780	53.9730
 1.2790	53.9580
 1.2800	53.9430
 1.2810	53.9310
 1.2820	53.9180
 1.2830	53.8900
 1.2840	53.8610
 1.2850	53.8420
 1.2860	53.8230
 1.2870	53.8030
 1.2880	53.7880
 1.2890	53.7750
 1.2900	53.7370
 1.2910	53.7060
 1.2920	53.6900
 1.2930	53.6530
 1.2940	53.6270
 1.2950	53.5990
 1.2960	53.5440
 1.2970	53.5080
 1.2980	53.4720
 1.2990	53.4290
 1.3000	53.4080
 1.3010	53.3720
 1.3020	53.3270
 1.3030	53.2840
 1.3040	53.2320
 1.3050	53.1840
 1.3060	53.1320
 1.3070	53.0730
 1.3080	53.0190
 1.3090	52.9530
 1.3100	52.8910
 1.3110	52.8300
 1.3120	52.7570
 1.3130	52.6900
 1.3140	52.6230
 1.3150	52.5560
 1.3160	52.4920
 1.3170	52.4310
 1.3180	52.3650
 1.3190	52.3060
 1.3200	52.2470
 1.3210	52.1850
 1.3220	52.1270
 1.3230	52.0570
 1.3240	51.9670
 1.3250	51.8810
 1.3260	51.7870
 1.3270	51.6790
 1.3280	51.5950
 1.3290	51.5120
 1.3300	51.4190
 1.3310	51.3390
 1.3320	51.2480
 1.3330	51.1480
 1.3340	51.0590
 1.3350	50.9640
 1.3360	50.8630
 1.3370	50.7810
 1.3380	50.7050
 1.3390	50.6220
 1.3400	50.5410
 1.3410	50.4480
 1.3420	50.3380
 1.3430	50.2430
 1.3440	50.1570
 1.3450	50.0690
 1.3460	49.9930
 1.3470	49.9090
 1.3480	49.8140
 1.3490	49.7260
 1.3500	49.6400
 1.3510	49.5560
 1.3520	49.4780
 1.3530	49.4070
 1.3540	49.3390
 1.3550	49.2640
 1.3560	49.1840
 1.3570	49.0990
 1.3580	49.0030
 1.3590	48.9010
 1.3600	48.8030
 1.3610	48.6940
 1.3620	48.5870
 1.3630	48.4780
 1.3640	48.3590
 1.3650	48.2390
 1.3660	48.1020
 1.3670	47.9580
 1.3680	47.8050
 1.3690	47.6390
 1.3700	47.4660
 1.3710	47.2790
 1.3720	47.0820
 1.3730	46.8640
 1.3740	46.6240
 1.3750	46.3710
 1.3760	46.0960
 1.3770	45.8000
 1.3780	45.4800
 1.3790	45.1380
 1.3800	44.7780
 1.3810	44.3970
 1.3820	43.9960
 1.3830	43.5760
 1.3840	43.1410
 1.3850	42.6860
 1.3860	42.2110
 1.3870	41.7220
 1.3880	41.2150
 1.3890	40.6850
 1.3900	40.1440
 1.3910	39.6080
 1.3920	39.0620
 1.3930	38.5100
 1.3940	37.9640
 1.3950	37.4080
 1.3960	36.8590
 1.3970	36.3220
 1.3980	35.7960
 1.3990	35.3010
 1.4000	34.8140
 1.4010	34.3430
 1.4020	33.8910
 1.4030	33.4430
 1.4040	33.0150
 1.4050	32.6110
 1.4060	32.2320
 1.4070	31.8750
 1.4080	31.5380
 1.4090	31.2280
 1.4100	30.9310
 1.4110	30.6490
 1.4120	30.3920
 1.4130	30.1470
 1.4140	29.9190
 1.4150	29.7170
 1.4160	29.5300
 1.4170	29.3540
 1.4180	29.1920
 1.4190	29.0390
 1.4200	28.8980
 1.4210	28.7760
 1.4220	28.6610
 1.4230	28.5500
 1.4240	28.4520
 1.4250	28.3600
 1.4260	28.2720
 1.4270	28.1950
 1.4280	28.1330
 1.4290	28.0690
 1.4300	28.0080
 1.4310	27.9540
 1.4320	27.9020
 1.4330	27.8600
 1.4340	27.8280
 1.4350	27.7950
 1.4360	27.7660
 1.4370	27.7430
 1.4380	27.7210
 1.4390	27.7080
 1.4400	27.7070
 1.4410	27.7090
 1.4420	27.7130
 1.4430	27.7160
 1.4440	27.7170
 1.4450	27.7180
 1.4460	27.7210
 1.4470	27.7290
 1.4480	27.7420
 1.4490	27.7550
 1.4500	27.7720
 1.4510	27.7880
 1.4520	27.8030
 1.4530	27.8230
 1.4540	27.8400
 1.4550	27.8630
 1.4560	27.8960
 1.4570	27.9330
 1.4580	27.9750
 1.4590	28.0200
 1.4600	28.0660
 1.4610	28.1150
 1.4620	28.1710
 1.4630	28.2390
 1.4640	28.3120
 1.4650	28.3870
 1.4660	28.4680
 1.4670	28.5470
 1.4680	28.6360
 1.4690	28.7350
 1.4700	28.8330
 1.4710	28.9390
 1.4720	29.0450
 1.4730	29.1490
 1.4740	29.2600
 1.4750	29.3710
 1.4760	29.4860
 1.4770	29.6100
 1.4780	29.7360
 1.4790	29.8600
 1.4800	29.9860
 1.4810	30.1160
