Name: Baccharis pilularis 3
Type: vegetation
Class: Shrub
Genus: Baccharis
Species: pilularis
Sample No.: VH102
Owner: UCSB
Wavelength Range: TIR
Origin: 34.418; -119.8456; WGS84
Collection Date: 6/3/2013
Description: Samples were collected as part of the HyspIRI Airborne Campaign. 48 individual plants were sampled in three times in 2013 - spring  summer  and fall. The name of the sample includes a 1  2  or 3 which references a different individual of the species. Samples were taken to JPL and processed within 48 hours of collection. The same leaves were processed in the Nicolet and then measured using the ASD.
Measurement: Hemispherical reflectance
First Column: X
Second Column: Y
X Units: Wavelength (micrometers)
Y Units: Reflectance (percentage)
First X Value: 2.501
Last X Value: 15.387
Number of X Values: 1737
Additional Information: vegetation.shrub.baccharis.pilularis.tir.vh102.ucsb.nicolet.ancillary.txt

 2.5010	 2.6450
 2.5030	 2.6370
 2.5040	 2.6420
 2.5050	 2.6420
 2.5060	 2.6660
 2.5070	 2.6430
 2.5090	 2.6260
 2.5100	 2.5910
 2.5110	 2.6080
 2.5120	 2.6330
 2.5140	 2.6580
 2.5150	 2.6090
 2.5160	 2.6290
 2.5170	 2.6610
 2.5180	 2.6620
 2.5200	 2.6270
 2.5210	 2.6770
 2.5220	 2.6420
 2.5230	 2.6020
 2.5250	 2.6280
 2.5260	 2.6840
 2.5270	 2.6560
 2.5280	 2.6980
 2.5290	 2.7260
 2.5310	 2.7090
 2.5320	 2.6490
 2.5330	 2.6220
 2.5340	 2.5860
 2.5360	 2.6220
 2.5370	 2.6770
 2.5380	 2.7510
 2.5390	 2.7230
 2.5410	 2.7160
 2.5420	 2.6810
 2.5430	 2.6890
 2.5440	 2.7210
 2.5460	 2.7660
 2.5470	 2.7350
 2.5480	 2.7240
 2.5490	 2.6920
 2.5510	 2.7280
 2.5520	 2.7500
 2.5530	 2.7360
 2.5540	 2.7090
 2.5560	 2.7200
 2.5570	 2.6820
 2.5580	 2.7270
 2.5590	 2.8000
 2.5610	 2.7880
 2.5620	 2.7080
 2.5630	 2.7290
 2.5640	 2.7610
 2.5660	 2.7930
 2.5670	 2.7640
 2.5680	 2.7600
 2.5700	 2.7240
 2.5710	 2.7390
 2.5720	 2.7470
 2.5730	 2.7510
 2.5750	 2.7630
 2.5760	 2.7830
 2.5770	 2.7470
 2.5790	 2.7460
 2.5800	 2.7360
 2.5810	 2.7580
 2.5820	 2.7650
 2.5840	 2.7930
 2.5850	 2.8030
 2.5860	 2.8190
 2.5880	 2.7640
 2.5890	 2.7580
 2.5900	 2.7720
 2.5910	 2.7720
 2.5930	 2.7310
 2.5940	 2.7240
 2.5950	 2.7380
 2.5970	 2.7960
 2.5980	 2.8050
 2.5990	 2.7790
 2.6000	 2.7440
 2.6020	 2.7690
 2.6030	 2.7840
 2.6040	 2.7630
 2.6060	 2.7410
 2.6070	 2.7830
 2.6080	 2.7710
 2.6100	 2.7950
 2.6110	 2.7880
 2.6120	 2.7930
 2.6140	 2.7710
 2.6150	 2.7880
 2.6160	 2.7230
 2.6180	 2.6930
 2.6190	 2.7070
 2.6200	 2.7280
 2.6220	 2.7170
 2.6230	 2.7340
 2.6240	 2.7100
 2.6260	 2.7270
 2.6270	 2.7120
 2.6280	 2.7040
 2.6300	 2.6900
 2.6310	 2.7270
 2.6320	 2.7100
 2.6340	 2.6930
 2.6350	 2.6710
 2.6360	 2.6570
 2.6380	 2.6090
 2.6390	 2.6180
 2.6400	 2.6540
 2.6420	 2.7010
 2.6430	 2.6670
 2.6440	 2.6490
 2.6460	 2.6350
 2.6470	 2.6600
 2.6480	 2.6580
 2.6500	 2.6720
 2.6510	 2.6260
 2.6520	 2.6100
 2.6540	 2.6010
 2.6550	 2.6530
 2.6560	 2.6300
 2.6580	 2.6260
 2.6590	 2.5860
 2.6610	 2.5790
 2.6620	 2.5350
 2.6630	 2.5180
 2.6650	 2.5220
 2.6660	 2.5810
 2.6670	 2.5660
 2.6690	 2.5610
 2.6700	 2.5560
 2.6720	 2.5420
 2.6730	 2.5050
 2.6740	 2.5110
 2.6760	 2.4400
 2.6770	 2.4180
 2.6780	 2.4470
 2.6800	 2.4970
 2.6810	 2.4140
 2.6830	 2.4020
 2.6840	 2.3850
 2.6850	 2.3300
 2.6870	 2.3210
 2.6880	 2.3860
 2.6900	 2.3900
 2.6910	 2.4320
 2.6920	 2.4220
 2.6940	 2.4120
 2.6950	 2.3650
 2.6970	 2.3380
 2.6980	 2.3460
 2.6990	 2.3740
 2.7010	 2.3160
 2.7020	 2.3040
 2.7040	 2.2770
 2.7050	 2.2650
 2.7060	 2.2970
 2.7080	 2.3210
 2.7090	 2.2440
 2.7110	 2.2590
 2.7120	 2.2340
 2.7130	 2.2560
 2.7150	 2.2110
 2.7160	 2.2030
 2.7180	 2.1970
 2.7190	 2.1800
 2.7210	 2.1600
 2.7220	 2.2020
 2.7230	 2.1630
 2.7250	 2.1370
 2.7260	 2.1100
 2.7280	 2.1480
 2.7290	 2.1180
 2.7310	 2.1210
 2.7320	 2.1100
 2.7330	 2.1130
 2.7350	 2.0920
 2.7360	 2.1150
 2.7380	 2.0830
 2.7390	 2.0460
 2.7410	 2.0090
 2.7420	 2.0380
 2.7440	 2.0300
 2.7450	 2.0580
 2.7470	 2.0450
 2.7480	 2.0010
 2.7490	 1.9770
 2.7510	 2.0220
 2.7520	 2.0350
 2.7540	 2.0640
 2.7550	 2.0140
 2.7570	 1.9990
 2.7580	 1.9650
 2.7600	 2.0030
 2.7610	 1.9940
 2.7630	 1.9850
 2.7640	 1.9620
 2.7660	 1.9740
 2.7670	 1.9270
 2.7680	 1.8960
 2.7700	 1.8990
 2.7710	 1.9330
 2.7730	 1.9000
 2.7740	 1.8980
 2.7760	 1.9330
 2.7770	 1.9630
 2.7790	 1.8900
 2.7800	 1.8980
 2.7820	 1.9060
 2.7830	 1.9080
 2.7850	 1.8490
 2.7860	 1.8610
 2.7880	 1.8740
 2.7890	 1.8550
 2.7910	 1.8420
 2.7920	 1.8690
 2.7940	 1.8590
 2.7950	 1.9030
 2.7970	 1.8960
 2.7980	 1.9180
 2.8000	 1.8790
 2.8010	 1.8740
 2.8030	 1.8770
 2.8040	 1.8860
 2.8060	 1.8580
 2.8070	 1.8680
 2.8090	 1.8320
 2.8110	 1.8620
 2.8120	 1.8480
 2.8140	 1.8630
 2.8150	 1.8520
 2.8170	 1.8470
 2.8180	 1.8160
 2.8200	 1.8200
 2.8210	 1.8420
 2.8230	 1.8170
 2.8240	 1.7580
 2.8260	 1.8150
 2.8270	 1.7840
 2.8290	 1.7710
 2.8300	 1.7380
 2.8320	 1.7520
 2.8340	 1.7900
 2.8350	 1.8480
 2.8370	 1.8420
 2.8380	 1.8490
 2.8400	 1.8000
 2.8410	 1.7830
 2.8430	 1.7750
 2.8440	 1.8040
 2.8460	 1.7410
 2.8480	 1.7220
 2.8490	 1.6910
 2.8510	 1.7120
 2.8520	 1.7350
 2.8540	 1.7510
 2.8550	 1.7480
 2.8570	 1.7910
 2.8590	 1.7450
 2.8600	 1.7550
 2.8620	 1.7460
 2.8630	 1.7660
 2.8650	 1.7220
 2.8660	 1.7430
 2.8680	 1.7180
 2.8700	 1.6990
 2.8710	 1.7320
 2.8730	 1.7310
 2.8740	 1.7130
 2.8760	 1.7320
 2.8780	 1.6530
 2.8790	 1.6770
 2.8810	 1.7020
 2.8820	 1.6930
 2.8840	 1.6710
 2.8860	 1.6950
 2.8870	 1.6740
 2.8890	 1.6820
 2.8900	 1.6790
 2.8920	 1.7200
 2.8940	 1.7180
 2.8950	 1.7400
 2.8970	 1.7460
 2.8980	 1.7570
 2.9000	 1.7410
 2.9020	 1.7530
 2.9030	 1.7470
 2.9050	 1.7410
 2.9070	 1.7460
 2.9080	 1.7660
 2.9100	 1.7110
 2.9120	 1.7280
 2.9130	 1.7550
 2.9150	 1.7710
 2.9160	 1.7480
 2.9180	 1.7190
 2.9200	 1.6740
 2.9210	 1.7060
 2.9230	 1.7640
 2.9250	 1.7860
 2.9260	 1.7120
 2.9280	 1.7310
 2.9300	 1.7700
 2.9310	 1.7720
 2.9330	 1.7300
 2.9350	 1.7590
 2.9360	 1.7640
 2.9380	 1.7480
 2.9400	 1.6840
 2.9410	 1.7390
 2.9430	 1.8120
 2.9450	 1.8130
 2.9460	 1.7740
 2.9480	 1.7980
 2.9500	 1.7800
 2.9510	 1.8400
 2.9530	 1.8980
 2.9550	 1.9150
 2.9560	 1.8500
 2.9580	 1.8390
 2.9600	 1.8730
 2.9610	 1.8610
 2.9630	 1.8170
 2.9650	 1.7880
 2.9660	 1.8020
 2.9680	 1.8700
 2.9700	 1.8590
 2.9720	 1.8900
 2.9730	 1.8850
 2.9750	 1.8350
 2.9770	 1.8280
 2.9780	 1.8190
 2.9800	 1.7830
 2.9820	 1.8270
 2.9840	 1.8510
 2.9850	 1.8760
 2.9870	 1.8510
 2.9890	 1.8590
 2.9900	 1.8310
 2.9920	 1.8900
 2.9940	 1.9040
 2.9960	 1.9340
 2.9970	 1.9100
 2.9990	 1.8520
 3.0010	 1.8320
 3.0030	 1.8870
 3.0040	 1.8870
 3.0060	 1.8810
 3.0080	 1.8720
 3.0100	 1.8930
 3.0110	 1.9030
 3.0130	 1.8960
 3.0150	 1.8470
 3.0170	 1.8590
 3.0180	 1.8520
 3.0200	 1.9060
 3.0220	 1.9210
 3.0240	 1.9710
 3.0250	 1.9740
 3.0270	 1.9580
 3.0290	 1.9320
 3.0310	 1.9630
 3.0320	 1.9510
 3.0340	 1.9580
 3.0360	 1.9300
 3.0380	 1.9570
 3.0400	 1.9660
 3.0410	 2.0100
 3.0430	 1.9850
 3.0450	 1.9670
 3.0470	 1.9530
 3.0480	 2.0300
 3.0500	 2.0310
 3.0520	 1.9850
 3.0540	 1.9440
 3.0560	 1.9730
 3.0570	 1.9940
 3.0590	 2.0450
 3.0610	 2.0390
 3.0630	 2.0350
 3.0650	 2.0360
 3.0660	 2.0960
 3.0680	 2.0970
 3.0700	 2.0840
 3.0720	 2.0120
 3.0740	 2.0410
 3.0760	 2.0130
 3.0770	 2.0450
 3.0790	 2.0940
 3.0810	 2.1270
 3.0830	 2.0860
 3.0850	 2.0720
 3.0870	 2.0310
 3.0880	 2.0160
 3.0900	 2.0280
 3.0920	 2.1050
 3.0940	 2.1360
 3.0960	 2.1340
 3.0980	 2.1190
 3.0990	 2.0880
 3.1010	 2.0530
 3.1030	 2.1170
 3.1050	 2.1380
 3.1070	 2.1480
 3.1090	 2.1460
 3.1110	 2.1800
 3.1120	 2.1590
 3.1140	 2.1400
 3.1160	 2.1450
 3.1180	 2.1720
 3.1200	 2.1640
 3.1220	 2.1890
 3.1240	 2.1880
 3.1260	 2.1730
 3.1270	 2.1350
 3.1290	 2.1530
 3.1310	 2.1620
 3.1330	 2.1710
 3.1350	 2.1770
 3.1370	 2.2150
 3.1390	 2.2290
 3.1410	 2.2180
 3.1430	 2.1340
 3.1450	 2.1770
 3.1460	 2.1810
 3.1480	 2.1900
 3.1500	 2.2020
 3.1520	 2.1950
 3.1540	 2.2140
 3.1560	 2.2800
 3.1580	 2.2500
 3.1600	 2.2160
 3.1620	 2.2000
 3.1640	 2.2760
 3.1660	 2.2900
 3.1680	 2.2940
 3.1700	 2.2480
 3.1710	 2.2460
 3.1730	 2.2260
 3.1750	 2.2480
 3.1770	 2.2560
 3.1790	 2.2870
 3.1810	 2.3360
 3.1830	 2.3590
 3.1850	 2.3090
 3.1870	 2.2850
 3.1890	 2.2660
 3.1910	 2.2590
 3.1930	 2.2340
 3.1950	 2.2850
 3.1970	 2.3190
 3.1990	 2.3580
 3.2010	 2.3250
 3.2030	 2.3570
 3.2050	 2.3630
 3.2070	 2.3240
 3.2090	 2.2520
 3.2110	 2.2690
 3.2130	 2.2910
 3.2150	 2.3320
 3.2170	 2.3610
 3.2190	 2.4090
 3.2210	 2.3900
 3.2230	 2.3880
 3.2250	 2.3500
 3.2270	 2.3370
 3.2290	 2.3280
 3.2310	 2.3790
 3.2330	 2.3520
 3.2350	 2.3540
 3.2370	 2.3590
 3.2390	 2.3830
 3.2410	 2.3660
 3.2430	 2.3600
 3.2450	 2.3210
 3.2470	 2.3620
 3.2490	 2.3790
 3.2510	 2.3880
 3.2530	 2.4180
 3.2550	 2.4450
 3.2570	 2.4450
 3.2590	 2.4700
 3.2610	 2.4130
 3.2630	 2.4570
 3.2650	 2.4860
 3.2670	 2.5030
 3.2690	 2.4570
 3.2720	 2.4430
 3.2740	 2.4120
 3.2760	 2.4220
 3.2780	 2.4180
 3.2800	 2.5080
 3.2820	 2.4950
 3.2840	 2.5000
 3.2860	 2.4930
 3.2880	 2.4660
 3.2900	 2.4370
 3.2920	 2.4120
 3.2940	 2.3810
 3.2960	 2.3960
 3.2990	 2.3990
 3.3010	 2.4400
 3.3030	 2.4400
 3.3050	 2.4590
 3.3070	 2.4180
 3.3090	 2.4210
 3.3110	 2.4300
 3.3130	 2.4610
 3.3150	 2.4810
 3.3180	 2.5080
 3.3200	 2.4640
 3.3220	 2.4350
 3.3240	 2.4160
 3.3260	 2.4240
 3.3280	 2.4080
 3.3300	 2.3930
 3.3330	 2.3810
 3.3350	 2.4130
 3.3370	 2.3920
 3.3390	 2.3880
 3.3410	 2.3200
 3.3430	 2.3330
 3.3450	 2.3430
 3.3480	 2.3510
 3.3500	 2.3160
 3.3520	 2.3380
 3.3540	 2.3310
 3.3560	 2.2950
 3.3580	 2.2390
 3.3610	 2.2900
 3.3630	 2.3090
 3.3650	 2.3170
 3.3670	 2.3010
 3.3690	 2.2870
 3.3720	 2.2240
 3.3740	 2.2300
 3.3760	 2.2040
 3.3780	 2.2100
 3.3800	 2.2210
 3.3830	 2.2520
 3.3850	 2.2270
 3.3870	 2.2150
 3.3890	 2.2070
 3.3910	 2.2580
 3.3940	 2.2760
 3.3960	 2.2830
 3.3980	 2.2940
 3.4000	 2.2990
 3.4020	 2.2650
 3.4050	 2.2930
 3.4070	 2.3130
 3.4090	 2.3560
 3.4110	 2.4030
 3.4140	 2.4140
 3.4160	 2.3680
 3.4180	 2.4140
 3.4200	 2.4840
 3.4230	 2.5980
 3.4250	 2.6860
 3.4270	 2.7790
 3.4290	 2.8110
 3.4320	 2.7940
 3.4340	 2.7490
 3.4360	 2.7190
 3.4390	 2.6360
 3.4410	 2.6150
 3.4430	 2.6100
 3.4450	 2.6390
 3.4480	 2.6430
 3.4500	 2.6710
 3.4520	 2.6540
 3.4550	 2.6620
 3.4570	 2.6690
 3.4590	 2.7130
 3.4620	 2.7180
 3.4640	 2.7580
 3.4660	 2.7500
 3.4680	 2.7090
 3.4710	 2.6310
 3.4730	 2.6840
 3.4750	 2.7190
 3.4780	 2.7340
 3.4800	 2.7050
 3.4820	 2.6790
 3.4850	 2.6720
 3.4870	 2.6800
 3.4890	 2.6650
 3.4920	 2.7100
 3.4940	 2.6650
 3.4970	 2.6110
 3.4990	 2.6180
 3.5010	 2.6840
 3.5040	 2.7270
 3.5060	 2.8490
 3.5080	 3.0070
 3.5110	 3.1750
 3.5130	 3.1590
 3.5160	 3.1110
 3.5180	 3.0610
 3.5200	 3.0570
 3.5230	 3.0350
 3.5250	 3.0280
 3.5270	 2.9960
 3.5300	 2.9780
 3.5320	 2.9660
 3.5350	 3.0300
 3.5370	 3.0800
 3.5400	 3.1120
 3.5420	 3.0920
 3.5440	 3.0810
 3.5470	 3.0970
 3.5490	 3.1450
 3.5520	 3.1060
 3.5540	 3.0720
 3.5570	 3.0650
 3.5590	 3.1150
 3.5610	 3.0590
 3.5640	 3.0910
 3.5660	 3.1310
 3.5690	 3.1130
 3.5710	 3.0860
 3.5740	 3.0780
 3.5760	 3.1180
 3.5790	 3.2010
 3.5810	 3.1530
 3.5840	 3.1390
 3.5860	 3.1690
 3.5890	 3.1770
 3.5910	 3.1620
 3.5930	 3.1980
 3.5960	 3.1710
 3.5980	 3.1780
 3.6010	 3.1940
 3.6030	 3.1790
 3.6060	 3.1790
 3.6080	 3.2150
 3.6110	 3.1670
 3.6140	 3.1500
 3.6160	 3.1560
 3.6190	 3.1540
 3.6210	 3.1340
 3.6240	 3.2040
 3.6260	 3.2220
 3.6290	 3.2600
 3.6310	 3.2420
 3.6340	 3.2200
 3.6360	 3.1900
 3.6390	 3.2140
 3.6410	 3.2590
 3.6440	 3.2790
 3.6470	 3.2720
 3.6490	 3.3070
 3.6520	 3.2700
 3.6540	 3.2480
 3.6570	 3.2260
 3.6590	 3.2590
 3.6620	 3.2630
 3.6650	 3.2480
 3.6670	 3.2640
 3.6700	 3.3000
 3.6720	 3.2620
 3.6750	 3.2710
 3.6780	 3.2500
 3.6800	 3.3150
 3.6830	 3.3200
 3.6850	 3.3220
 3.6880	 3.3360
 3.6910	 3.3640
 3.6930	 3.3570
 3.6960	 3.3420
 3.6990	 3.3170
 3.7010	 3.3400
 3.7040	 3.3360
 3.7060	 3.3710
 3.7090	 3.3670
 3.7120	 3.3430
 3.7140	 3.3100
 3.7170	 3.3580
 3.7200	 3.3610
 3.7220	 3.3860
 3.7250	 3.3800
 3.7280	 3.3980
 3.7300	 3.4090
 3.7330	 3.3940
 3.7360	 3.3910
 3.7390	 3.3880
 3.7410	 3.3670
 3.7440	 3.4120
 3.7470	 3.4460
 3.7490	 3.4750
 3.7520	 3.4480
 3.7550	 3.4380
 3.7580	 3.4580
 3.7600	 3.4950
 3.7630	 3.4390
 3.7660	 3.4180
 3.7680	 3.4380
 3.7710	 3.4260
 3.7740	 3.4260
 3.7770	 3.4940
 3.7790	 3.5270
 3.7820	 3.5300
 3.7850	 3.4650
 3.7880	 3.4440
 3.7900	 3.4160
 3.7930	 3.4980
 3.7960	 3.5130
 3.7990	 3.4870
 3.8020	 3.4960
 3.8040	 3.5160
 3.8070	 3.4770
 3.8100	 3.4960
 3.8130	 3.5590
 3.8160	 3.5530
 3.8180	 3.4970
 3.8210	 3.5450
 3.8240	 3.5830
 3.8270	 3.5700
 3.8300	 3.5630
 3.8330	 3.6450
 3.8350	 3.6310
 3.8380	 3.5580
 3.8410	 3.4840
 3.8440	 3.5470
 3.8470	 3.5700
 3.8500	 3.5870
 3.8520	 3.5900
 3.8550	 3.5970
 3.8580	 3.5770
 3.8610	 3.6150
 3.8640	 3.5950
 3.8670	 3.5660
 3.8700	 3.6390
 3.8730	 3.7170
 3.8750	 3.6650
 3.8780	 3.6460
 3.8810	 3.6810
 3.8840	 3.7080
 3.8870	 3.6710
 3.8900	 3.7080
 3.8930	 3.7000
 3.8960	 3.6710
 3.8990	 3.6890
 3.9020	 3.7370
 3.9050	 3.7500
 3.9080	 3.7460
 3.9110	 3.7190
 3.9140	 3.7530
 3.9160	 3.7430
 3.9190	 3.7150
 3.9220	 3.7460
 3.9250	 3.7520
 3.9280	 3.7220
 3.9310	 3.7350
 3.9340	 3.7090
 3.9370	 3.6700
 3.9400	 3.6790
 3.9430	 3.7150
 3.9460	 3.7400
 3.9490	 3.7430
 3.9520	 3.7300
 3.9550	 3.7770
 3.9580	 3.7550
 3.9610	 3.7520
 3.9640	 3.7480
 3.9670	 3.7510
 3.9700	 3.7690
 3.9730	 3.7750
 3.9770	 3.7810
 3.9800	 3.7820
 3.9830	 3.7140
 3.9860	 3.7150
 3.9890	 3.7550
 3.9920	 3.7640
 3.9950	 3.7530
 3.9980	 3.7600
 4.0010	 3.7370
 4.0040	 3.7550
 4.0070	 3.7680
 4.0100	 3.7680
 4.0130	 3.7970
 4.0170	 3.8340
 4.0200	 3.7970
 4.0230	 3.7610
 4.0260	 3.7800
 4.0290	 3.7700
 4.0320	 3.7150
 4.0350	 3.7540
 4.0380	 3.7790
 4.0420	 3.7990
 4.0450	 3.7450
 4.0480	 3.7440
 4.0510	 3.7740
 4.0540	 3.8050
 4.0570	 3.7870
 4.0610	 3.8190
 4.0640	 3.8290
 4.0670	 3.8610
 4.0700	 3.8510
 4.0730	 3.8300
 4.0770	 3.8000
 4.0800	 3.8210
 4.0830	 3.8420
 4.0860	 3.8160
 4.0890	 3.7860
 4.0930	 3.7830
 4.0960	 3.8210
 4.0990	 3.8740
 4.1020	 3.8310
 4.1060	 3.7700
 4.1090	 3.8000
 4.1120	 3.8590
 4.1150	 3.8600
 4.1190	 3.8700
 4.1220	 3.8650
 4.1250	 3.8430
 4.1280	 3.8250
 4.1320	 3.8130
 4.1350	 3.7900
 4.1380	 3.8060
 4.1420	 3.8130
 4.1450	 3.7980
 4.1480	 3.7880
 4.1520	 3.8150
 4.1550	 3.8250
 4.1580	 3.8680
 4.1620	 3.8870
 4.1650	 3.8620
 4.1680	 3.8250
 4.1720	 3.8160
 4.1750	 3.7990
 4.1780	 3.7690
 4.1820	 3.7920
 4.1850	 3.8450
 4.1890	 3.8180
 4.1920	 3.7840
 4.1950	 3.7220
 4.1990	 3.6280
 4.2020	 3.4390
 4.2060	 3.2540
 4.2090	 3.0160
 4.2120	 2.7790
 4.2160	 2.5800
 4.2190	 2.3700
 4.2230	 2.1990
 4.2260	 2.1120
 4.2300	 2.0390
 4.2330	 1.9420
 4.2360	 1.9070
 4.2400	 1.9360
 4.2430	 1.9690
 4.2470	 2.1110
 4.2500	 2.3990
 4.2540	 2.7440
 4.2570	 2.9510
 4.2610	 2.7840
 4.2640	 2.5140
 4.2680	 2.3780
 4.2710	 2.2550
 4.2750	 2.2510
 4.2780	 2.2510
 4.2820	 2.2550
 4.2850	 2.2930
 4.2890	 2.3640
 4.2930	 2.4030
 4.2960	 2.4930
 4.3000	 2.5650
 4.3030	 2.6310
 4.3070	 2.6760
 4.3100	 2.7630
 4.3140	 2.8760
 4.3180	 3.0190
 4.3210	 3.0930
 4.3250	 3.1480
 4.3280	 3.2300
 4.3320	 3.2990
 4.3360	 3.3850
 4.3390	 3.4440
 4.3430	 3.5030
 4.3470	 3.5960
 4.3500	 3.6160
 4.3540	 3.5780
 4.3570	 3.5300
 4.3610	 3.5580
 4.3650	 3.6130
 4.3680	 3.6660
 4.3720	 3.6800
 4.3760	 3.6920
 4.3800	 3.7060
 4.3830	 3.6850
 4.3870	 3.6700
 4.3910	 3.6400
 4.3940	 3.6230
 4.3980	 3.6330
 4.4020	 3.6260
 4.4060	 3.6150
 4.4090	 3.6150
 4.4130	 3.6180
 4.4170	 3.5970
 4.4210	 3.6200
 4.4240	 3.6780
 4.4280	 3.6970
 4.4320	 3.6820
 4.4360	 3.6610
 4.4400	 3.6370
 4.4430	 3.6580
 4.4470	 3.6970
 4.4510	 3.6910
 4.4550	 3.6530
 4.4590	 3.6640
 4.4620	 3.6450
 4.4660	 3.6240
 4.4700	 3.6130
 4.4740	 3.6460
 4.4780	 3.6930
 4.4820	 3.7030
 4.4860	 3.6890
 4.4900	 3.6490
 4.4930	 3.6300
 4.4970	 3.6460
 4.5010	 3.6310
 4.5050	 3.6460
 4.5090	 3.6540
 4.5130	 3.6550
 4.5170	 3.6430
 4.5210	 3.6230
 4.5250	 3.6290
 4.5290	 3.6320
 4.5330	 3.6480
 4.5370	 3.6520
 4.5410	 3.6840
 4.5450	 3.7100
 4.5490	 3.7020
 4.5530	 3.6960
 4.5570	 3.6910
 4.5610	 3.6490
 4.5650	 3.6350
 4.5690	 3.6280
 4.5730	 3.6270
 4.5770	 3.6610
 4.5810	 3.6620
 4.5850	 3.7040
 4.5890	 3.7380
 4.5930	 3.6870
 4.5970	 3.6400
 4.6010	 3.6410
 4.6050	 3.6410
 4.6090	 3.6220
 4.6130	 3.5790
 4.6170	 3.5750
 4.6220	 3.5950
 4.6260	 3.6080
 4.6300	 3.6990
 4.6340	 3.7090
 4.6380	 3.6250
 4.6420	 3.5690
 4.6460	 3.6070
 4.6510	 3.6600
 4.6550	 3.6720
 4.6590	 3.6170
 4.6630	 3.6020
 4.6670	 3.6170
 4.6720	 3.6490
 4.6760	 3.6770
 4.6800	 3.6670
 4.6840	 3.6170
 4.6880	 3.6160
 4.6930	 3.6110
 4.6970	 3.5830
 4.7010	 3.5630
 4.7050	 3.5380
 4.7100	 3.5680
 4.7140	 3.6430
 4.7180	 3.6220
 4.7230	 3.6150
 4.7270	 3.6240
 4.7310	 3.6140
 4.7360	 3.6040
 4.7400	 3.6050
 4.7440	 3.5960
 4.7490	 3.5490
 4.7530	 3.5470
 4.7570	 3.5770
 4.7620	 3.5790
 4.7660	 3.5950
 4.7700	 3.6270
 4.7750	 3.6380
 4.7790	 3.5810
 4.7840	 3.5600
 4.7880	 3.5870
 4.7920	 3.5630
 4.7970	 3.5110
 4.8010	 3.5480
 4.8060	 3.5930
 4.8100	 3.5990
 4.8150	 3.5950
 4.8190	 3.6170
 4.8240	 3.6130
 4.8280	 3.6020
 4.8330	 3.6080
 4.8370	 3.5990
 4.8420	 3.5540
 4.8460	 3.5970
 4.8510	 3.6060
 4.8550	 3.6060
 4.8600	 3.5600
 4.8640	 3.5610
 4.8690	 3.5790
 4.8730	 3.5810
 4.8780	 3.5890
 4.8830	 3.5860
 4.8870	 3.5510
 4.8920	 3.6060
 4.8960	 3.6270
 4.9010	 3.6070
 4.9060	 3.5570
 4.9100	 3.5540
 4.9150	 3.5650
 4.9200	 3.5300
 4.9240	 3.4980
 4.9290	 3.5430
 4.9340	 3.5660
 4.9380	 3.5460
 4.9430	 3.5360
 4.9480	 3.5350
 4.9530	 3.4940
 4.9570	 3.5080
 4.9620	 3.5390
 4.9670	 3.5610
 4.9720	 3.5380
 4.9760	 3.5630
 4.9810	 3.5490
 4.9860	 3.5250
 4.9910	 3.5350
 4.9960	 3.5750
 5.0000	 3.5790
 5.0050	 3.5910
 5.0100	 3.6090
 5.0150	 3.6110
 5.0200	 3.5650
 5.0250	 3.5270
 5.0290	 3.5220
 5.0340	 3.5340
 5.0390	 3.5650
 5.0440	 3.5820
 5.0490	 3.5650
 5.0540	 3.5740
 5.0590	 3.5590
 5.0640	 3.5670
 5.0690	 3.5590
 5.0740	 3.5780
 5.0790	 3.6110
 5.0840	 3.6450
 5.0890	 3.6170
 5.0940	 3.5850
 5.0990	 3.5710
 5.1040	 3.5930
 5.1090	 3.5930
 5.1140	 3.5920
 5.1190	 3.5820
 5.1240	 3.5720
 5.1290	 3.5760
 5.1340	 3.5810
 5.1390	 3.5620
 5.1440	 3.5610
 5.1490	 3.5390
 5.1540	 3.5370
 5.1600	 3.5180
 5.1650	 3.5530
 5.1700	 3.5610
 5.1750	 3.5290
 5.1800	 3.5290
 5.1850	 3.5530
 5.1910	 3.5830
 5.1960	 3.5970
 5.2010	 3.5460
 5.2060	 3.5630
 5.2110	 3.5610
 5.2170	 3.5300
 5.2220	 3.5180
 5.2270	 3.5740
 5.2320	 3.5910
 5.2380	 3.5580
 5.2430	 3.5450
 5.2480	 3.6340
 5.2540	 3.5870
 5.2590	 3.5210
 5.2640	 3.4940
 5.2700	 3.5700
 5.2750	 3.5650
 5.2800	 3.5470
 5.2860	 3.5540
 5.2910	 3.5350
 5.2970	 3.5140
 5.3020	 3.5360
 5.3070	 3.4730
 5.3130	 3.5190
 5.3180	 3.5520
 5.3240	 3.5390
 5.3290	 3.5090
 5.3350	 3.5100
 5.3400	 3.4960
 5.3460	 3.5390
 5.3510	 3.5690
 5.3570	 3.5690
 5.3620	 3.5150
 5.3680	 3.5090
 5.3730	 3.5040
 5.3790	 3.5590
 5.3850	 3.5460
 5.3900	 3.5030
 5.3960	 3.4630
 5.4010	 3.4610
 5.4070	 3.4610
 5.4130	 3.4570
 5.4180	 3.4400
 5.4240	 3.4860
 5.4300	 3.5090
 5.4350	 3.4730
