Name: Cedrus atlantica
Type: vegetation
Class: Tree
Genus: Cedrus
Species: atlantica
Sample No.: JPL222
Owner: JPL
Wavelength Range: VSWIR
Origin: 34.12429; -118.11417; WGS84
Collection Date: 10/3/2016
Description: Samples were collected at the Huntington Garden in San Marino California as part of a JPL Subcontract studying HyTES imagery. Samples were taken to JPL and processed within 48 hours of collection. The same leaves were processed in the Nicolet and then measured using the ASD.
Measurement: Bidirectional reflectance
First Column: X
Second Column: Y
X Units: Wavelength (micrometer)
Y Units: Reflectance (percentage)
First X Value: 0.35
Last X Value: 2.5
Number of X Values: 2151
Additional Information: vegetation.tree.cedrus.atlantica.vswir.jpl222.jpl.asd.ancillary.txt

 0.3500	 4.7200
 0.3510	 4.6370
 0.3520	 4.5560
 0.3530	 4.5330
 0.3540	 4.5790
 0.3550	 4.6000
 0.3560	 4.5880
 0.3570	 4.5520
 0.3580	 4.5100
 0.3590	 4.5400
 0.3600	 4.5430
 0.3610	 4.4960
 0.3620	 4.5150
 0.3630	 4.5030
 0.3640	 4.4700
 0.3650	 4.4510
 0.3660	 4.4770
 0.3670	 4.4870
 0.3680	 4.5030
 0.3690	 4.5870
 0.3700	 4.5240
 0.3710	 4.4460
 0.3720	 4.4410
 0.3730	 4.4430
 0.3740	 4.4150
 0.3750	 4.3910
 0.3760	 4.4100
 0.3770	 4.4090
 0.3780	 4.3870
 0.3790	 4.3850
 0.3800	 4.4610
 0.3810	 4.4810
 0.3820	 4.4600
 0.3830	 4.4320
 0.3840	 4.4130
 0.3850	 4.4620
 0.3860	 4.4970
 0.3870	 4.4280
 0.3880	 4.4190
 0.3890	 4.4220
 0.3900	 4.4140
 0.3910	 4.4150
 0.3920	 4.4550
 0.3930	 4.4800
 0.3940	 4.4590
 0.3950	 4.4500
 0.3960	 4.4350
 0.3970	 4.4360
 0.3980	 4.4800
 0.3990	 4.5110
 0.4000	 4.5080
 0.4010	 4.4960
 0.4020	 4.5440
 0.4030	 4.5930
 0.4040	 4.6270
 0.4050	 4.6470
 0.4060	 4.6620
 0.4070	 4.7010
 0.4080	 4.7490
 0.4090	 4.7670
 0.4100	 4.7930
 0.4110	 4.8330
 0.4120	 4.8840
 0.4130	 4.9420
 0.4140	 4.9850
 0.4150	 5.0210
 0.4160	 5.0660
 0.4170	 5.1170
 0.4180	 5.1580
 0.4190	 5.1930
 0.4200	 5.2470
 0.4210	 5.2800
 0.4220	 5.3150
 0.4230	 5.3710
 0.4240	 5.4320
 0.4250	 5.4790
 0.4260	 5.5090
 0.4270	 5.5330
 0.4280	 5.5740
 0.4290	 5.6060
 0.4300	 5.6290
 0.4310	 5.6760
 0.4320	 5.7070
 0.4330	 5.7310
 0.4340	 5.7600
 0.4350	 5.7880
 0.4360	 5.8010
 0.4370	 5.8090
 0.4380	 5.8400
 0.4390	 5.8560
 0.4400	 5.8560
 0.4410	 5.8500
 0.4420	 5.8700
 0.4430	 5.8840
 0.4440	 5.8960
 0.4450	 5.9180
 0.4460	 5.9240
 0.4470	 5.9310
 0.4480	 5.9470
 0.4490	 5.9660
 0.4500	 5.9850
 0.4510	 5.9950
 0.4520	 5.9960
 0.4530	 6.0100
 0.4540	 6.0200
 0.4550	 6.0240
 0.4560	 6.0320
 0.4570	 6.0390
 0.4580	 6.0460
 0.4590	 6.0510
 0.4600	 6.0550
 0.4610	 6.0530
 0.4620	 6.0550
 0.4630	 6.0640
 0.4640	 6.0570
 0.4650	 6.0530
 0.4660	 6.0560
 0.4670	 6.0570
 0.4680	 6.0590
 0.4690	 6.0610
 0.4700	 6.0620
 0.4710	 6.0570
 0.4720	 6.0570
 0.4730	 6.0610
 0.4740	 6.0610
 0.4750	 6.0580
 0.4760	 6.0580
 0.4770	 6.0620
 0.4780	 6.0670
 0.4790	 6.0680
 0.4800	 6.0670
 0.4810	 6.0690
 0.4820	 6.0700
 0.4830	 6.0740
 0.4840	 6.0820
 0.4850	 6.0940
 0.4860	 6.1080
 0.4870	 6.1210
 0.4880	 6.1290
 0.4890	 6.1370
 0.4900	 6.1430
 0.4910	 6.1510
 0.4920	 6.1640
 0.4930	 6.1800
 0.4940	 6.1960
 0.4950	 6.2100
 0.4960	 6.2280
 0.4970	 6.2530
 0.4980	 6.2820
 0.4990	 6.3100
 0.5000	 6.3440
 0.5010	 6.3830
 0.5020	 6.4260
 0.5030	 6.4700
 0.5040	 6.5130
 0.5050	 6.5650
 0.5060	 6.6290
 0.5070	 6.6980
 0.5080	 6.7670
 0.5090	 6.8370
 0.5100	 6.9130
 0.5110	 6.9960
 0.5120	 7.0860
 0.5130	 7.1830
 0.5140	 7.2860
 0.5150	 7.3900
 0.5160	 7.4970
 0.5170	 7.6110
 0.5180	 7.7270
 0.5190	 7.8480
 0.5200	 7.9730
 0.5210	 8.0990
 0.5220	 8.2210
 0.5230	 8.3410
 0.5240	 8.4570
 0.5250	 8.5710
 0.5260	 8.6780
 0.5270	 8.7790
 0.5280	 8.8760
 0.5290	 8.9660
 0.5300	 9.0470
 0.5310	 9.1200
 0.5320	 9.1910
 0.5330	 9.2530
 0.5340	 9.3080
 0.5350	 9.3590
 0.5360	 9.4080
 0.5370	 9.4490
 0.5380	 9.4890
 0.5390	 9.5350
 0.5400	 9.5840
 0.5410	 9.6420
 0.5420	 9.7060
 0.5430	 9.7520
 0.5440	 9.7820
 0.5450	 9.7950
 0.5460	 9.7870
 0.5470	 9.7690
 0.5480	 9.7540
 0.5490	 9.7490
 0.5500	 9.7540
 0.5510	 9.7580
 0.5520	 9.7560
 0.5530	 9.7440
 0.5540	 9.7240
 0.5550	 9.6980
 0.5560	 9.6680
 0.5570	 9.6320
 0.5580	 9.5880
 0.5590	 9.5410
 0.5600	 9.4900
 0.5610	 9.4310
 0.5620	 9.3740
 0.5630	 9.3150
 0.5640	 9.2490
 0.5650	 9.1830
 0.5660	 9.1110
 0.5670	 9.0360
 0.5680	 8.9610
 0.5690	 8.8820
 0.5700	 8.8040
 0.5710	 8.7300
 0.5720	 8.6550
 0.5730	 8.5820
 0.5740	 8.5130
 0.5750	 8.4480
 0.5760	 8.3870
 0.5770	 8.3270
 0.5780	 8.2700
 0.5790	 8.2240
 0.5800	 8.1800
 0.5810	 8.1390
 0.5820	 8.0990
 0.5830	 8.0640
 0.5840	 8.0290
 0.5850	 7.9930
 0.5860	 7.9580
 0.5870	 7.9300
 0.5880	 7.9020
 0.5890	 7.8700
 0.5900	 7.8400
 0.5910	 7.8170
 0.5920	 7.7980
 0.5930	 7.7770
 0.5940	 7.7540
 0.5950	 7.7330
 0.5960	 7.7180
 0.5970	 7.7050
 0.5980	 7.6890
 0.5990	 7.6720
 0.6000	 7.6570
 0.6010	 7.6380
 0.6020	 7.6160
 0.6030	 7.5930
 0.6040	 7.5660
 0.6050	 7.5360
 0.6060	 7.5040
 0.6070	 7.4720
 0.6080	 7.4360
 0.6090	 7.4070
 0.6100	 7.3910
 0.6110	 7.3860
 0.6120	 7.3480
 0.6130	 7.2890
 0.6140	 7.2240
 0.6150	 7.1730
 0.6160	 7.1290
 0.6170	 7.0880
 0.6180	 7.0500
 0.6190	 7.0190
 0.6200	 6.9920
 0.6210	 6.9670
 0.6220	 6.9460
 0.6230	 6.9260
 0.6240	 6.9060
 0.6250	 6.8880
 0.6260	 6.8750
 0.6270	 6.8650
 0.6280	 6.8570
 0.6290	 6.8530
 0.6300	 6.8450
 0.6310	 6.8370
 0.6320	 6.8290
 0.6330	 6.8160
 0.6340	 6.8000
 0.6350	 6.7800
 0.6360	 6.7570
 0.6370	 6.7280
 0.6380	 6.6940
 0.6390	 6.6550
 0.6400	 6.6150
 0.6410	 6.5700
 0.6420	 6.5240
 0.6430	 6.4790
 0.6440	 6.4330
 0.6450	 6.3860
 0.6460	 6.3410
 0.6470	 6.3020
 0.6480	 6.2630
 0.6490	 6.2280
 0.6500	 6.1970
 0.6510	 6.1710
 0.6520	 6.1500
 0.6530	 6.1300
 0.6540	 6.1090
 0.6550	 6.0880
 0.6560	 6.0650
 0.6570	 6.0400
 0.6580	 6.0110
 0.6590	 5.9800
 0.6600	 5.9440
 0.6610	 5.9050
 0.6620	 5.8720
 0.6630	 5.8390
 0.6640	 5.8060
 0.6650	 5.7760
 0.6660	 5.7520
 0.6670	 5.7310
 0.6680	 5.7130
 0.6690	 5.7000
 0.6700	 5.6920
 0.6710	 5.6870
 0.6720	 5.6860
 0.6730	 5.6900
 0.6740	 5.6990
 0.6750	 5.7100
 0.6760	 5.7240
 0.6770	 5.7430
 0.6780	 5.7630
 0.6790	 5.7860
 0.6800	 5.8160
 0.6810	 5.8500
 0.6820	 5.8900
 0.6830	 5.9370
 0.6840	 5.9930
 0.6850	 6.0580
 0.6860	 6.1350
 0.6870	 6.2280
 0.6880	 6.3370
 0.6890	 6.4650
 0.6900	 6.6200
 0.6910	 6.8070
 0.6920	 7.0250
 0.6930	 7.2740
 0.6940	 7.5570
 0.6950	 7.8740
 0.6960	 8.2220
 0.6970	 8.6000
 0.6980	 9.0040
 0.6990	 9.4360
 0.7000	 9.8880
 0.7010	10.3560
 0.7020	10.8360
 0.7030	11.3270
 0.7040	11.8270
 0.7050	12.3380
 0.7060	12.8560
 0.7070	13.3810
 0.7080	13.9100
 0.7090	14.4490
 0.7100	14.9930
 0.7110	15.5480
 0.7120	16.1140
 0.7130	16.6850
 0.7140	17.2660
 0.7150	17.8560
 0.7160	18.4520
 0.7170	19.0550
 0.7180	19.6650
 0.7190	20.2800
 0.7200	20.8990
 0.7210	21.5200
 0.7220	22.1390
 0.7230	22.7540
 0.7240	23.3670
 0.7250	23.9730
 0.7260	24.5670
 0.7270	25.1480
 0.7280	25.7200
 0.7290	26.2750
 0.7300	26.8130
 0.7310	27.3330
 0.7320	27.8350
 0.7330	28.3180
 0.7340	28.7800
 0.7350	29.2230
 0.7360	29.6440
 0.7370	30.0460
 0.7380	30.4280
 0.7390	30.7860
 0.7400	31.1240
 0.7410	31.4440
 0.7420	31.7430
 0.7430	32.0210
 0.7440	32.2810
 0.7450	32.5220
 0.7460	32.7450
 0.7470	32.9540
 0.7480	33.1450
 0.7490	33.3200
 0.7500	33.4820
 0.7510	33.6300
 0.7520	33.7640
 0.7530	33.8870
 0.7540	34.0020
 0.7550	34.1070
 0.7560	34.2030
 0.7570	34.2900
 0.7580	34.3720
 0.7590	34.4480
 0.7600	34.5160
 0.7610	34.5800
 0.7620	34.6370
 0.7630	34.6900
 0.7640	34.7370
 0.7650	34.7820
 0.7660	34.8220
 0.7670	34.8600
 0.7680	34.8970
 0.7690	34.9320
 0.7700	34.9610
 0.7710	34.9880
 0.7720	35.0180
 0.7730	35.0450
 0.7740	35.0710
 0.7750	35.0970
 0.7760	35.1210
 0.7770	35.1440
 0.7780	35.1660
 0.7790	35.1870
 0.7800	35.2090
 0.7810	35.2290
 0.7820	35.2480
 0.7830	35.2680
 0.7840	35.2860
 0.7850	35.3030
 0.7860	35.3200
 0.7870	35.3380
 0.7880	35.3530
 0.7890	35.3680
 0.7900	35.3820
 0.7910	35.3980
 0.7920	35.4120
 0.7930	35.4240
 0.7940	35.4340
 0.7950	35.4490
 0.7960	35.4600
 0.7970	35.4660
 0.7980	35.4710
 0.7990	35.4800
 0.8000	35.4890
 0.8010	35.4970
 0.8020	35.5040
 0.8030	35.5110
 0.8040	35.5180
 0.8050	35.5250
 0.8060	35.5300
 0.8070	35.5340
 0.8080	35.5380
 0.8090	35.5450
 0.8100	35.5480
 0.8110	35.5480
 0.8120	35.5490
 0.8130	35.5530
 0.8140	35.5560
 0.8150	35.5600
 0.8160	35.5650
 0.8170	35.5650
 0.8180	35.5670
 0.8190	35.5720
 0.8200	35.5750
 0.8210	35.5750
 0.8220	35.5780
 0.8230	35.5840
 0.8240	35.5860
 0.8250	35.5880
 0.8260	35.5900
 0.8270	35.5920
 0.8280	35.5970
 0.8290	35.6000
 0.8300	35.6030
 0.8310	35.6060
 0.8320	35.6090
 0.8330	35.6120
 0.8340	35.6170
 0.8350	35.6250
 0.8360	35.6300
 0.8370	35.6360
 0.8380	35.6460
 0.8390	35.6560
 0.8400	35.6630
 0.8410	35.6720
 0.8420	35.6830
 0.8430	35.6920
 0.8440	35.7040
 0.8450	35.7170
 0.8460	35.7280
 0.8470	35.7380
 0.8480	35.7510
 0.8490	35.7650
 0.8500	35.7770
 0.8510	35.7910
 0.8520	35.8050
 0.8530	35.8180
 0.8540	35.8300
 0.8550	35.8460
 0.8560	35.8590
 0.8570	35.8700
 0.8580	35.8840
 0.8590	35.8990
 0.8600	35.9130
 0.8610	35.9270
 0.8620	35.9410
 0.8630	35.9540
 0.8640	35.9680
 0.8650	35.9830
 0.8660	35.9990
 0.8670	36.0130
 0.8680	36.0260
 0.8690	36.0390
 0.8700	36.0530
 0.8710	36.0690
 0.8720	36.0840
 0.8730	36.0960
 0.8740	36.1090
 0.8750	36.1250
 0.8760	36.1410
 0.8770	36.1540
 0.8780	36.1670
 0.8790	36.1810
 0.8800	36.1970
 0.8810	36.2150
 0.8820	36.2260
 0.8830	36.2350
 0.8840	36.2470
 0.8850	36.2600
 0.8860	36.2700
 0.8870	36.2780
 0.8880	36.2890
 0.8890	36.3060
 0.8900	36.3170
 0.8910	36.3260
 0.8920	36.3370
 0.8930	36.3490
 0.8940	36.3610
 0.8950	36.3710
 0.8960	36.3760
 0.8970	36.3820
 0.8980	36.3910
 0.8990	36.4030
 0.9000	36.4140
 0.9010	36.4240
 0.9020	36.4310
 0.9030	36.4370
 0.9040	36.4490
 0.9050	36.4550
 0.9060	36.4600
 0.9070	36.4660
 0.9080	36.4740
 0.9090	36.4820
 0.9100	36.4880
 0.9110	36.4920
 0.9120	36.4930
 0.9130	36.4960
 0.9140	36.5010
 0.9150	36.5070
 0.9160	36.5060
 0.9170	36.5080
 0.9180	36.5090
 0.9190	36.5040
 0.9200	36.4990
 0.9210	36.4950
 0.9220	36.4930
 0.9230	36.4930
 0.9240	36.4880
 0.9250	36.4840
 0.9260	36.4780
 0.9270	36.4650
 0.9280	36.4430
 0.9290	36.4280
 0.9300	36.4220
 0.9310	36.4110
 0.9320	36.3930
 0.9330	36.3780
 0.9340	36.3640
 0.9350	36.3440
 0.9360	36.3180
 0.9370	36.2930
 0.9380	36.2730
 0.9390	36.2530
 0.9400	36.2310
 0.9410	36.2060
 0.9420	36.1780
 0.9430	36.1410
 0.9440	36.1000
 0.9450	36.0610
 0.9460	36.0230
 0.9470	35.9720
 0.9480	35.9270
 0.9490	35.8770
 0.9500	35.8150
 0.9510	35.7480
 0.9520	35.6880
 0.9530	35.6310
 0.9540	35.5700
 0.9550	35.4920
 0.9560	35.4160
 0.9570	35.3480
 0.9580	35.2900
 0.9590	35.2400
 0.9600	35.1940
 0.9610	35.1480
 0.9620	35.0990
 0.9630	35.0620
 0.9640	35.0180
 0.9650	34.9770
 0.9660	34.9540
 0.9670	34.9350
 0.9680	34.9220
 0.9690	34.9040
 0.9700	34.8770
 0.9710	34.8660
 0.9720	34.8550
 0.9730	34.8380
 0.9740	34.8200
 0.9750	34.8210
 0.9760	34.8210
 0.9770	34.8110
 0.9780	34.7950
 0.9790	34.8030
 0.9800	34.8110
 0.9810	34.8120
 0.9820	34.8090
 0.9830	34.8220
 0.9840	34.8340
 0.9850	34.8390
 0.9860	34.8460
 0.9870	34.8740
 0.9880	34.8870
 0.9890	34.8870
 0.9900	34.8970
 0.9910	34.9260
 0.9920	34.9520
 0.9930	34.9750
 0.9940	35.0000
 0.9950	35.0160
 0.9960	35.0360
 0.9970	35.0620
 0.9980	35.0880
 0.9990	35.1210
 1.0000	35.1450
 1.0010	35.4220
 1.0020	35.4440
 1.0030	35.4730
 1.0040	35.5040
 1.0050	35.5330
 1.0060	35.5640
 1.0070	35.5940
 1.0080	35.6240
 1.0090	35.6490
 1.0100	35.6780
 1.0110	35.7100
 1.0120	35.7410
 1.0130	35.7740
 1.0140	35.8080
 1.0150	35.8440
 1.0160	35.8780
 1.0170	35.9080
 1.0180	35.9400
 1.0190	35.9710
 1.0200	36.0000
 1.0210	36.0300
 1.0220	36.0620
 1.0230	36.0930
 1.0240	36.1220
 1.0250	36.1530
 1.0260	36.1870
 1.0270	36.2190
 1.0280	36.2500
 1.0290	36.2810
 1.0300	36.3100
 1.0310	36.3410
 1.0320	36.3730
 1.0330	36.4060
 1.0340	36.4330
 1.0350	36.4600
 1.0360	36.4860
 1.0370	36.5090
 1.0380	36.5340
 1.0390	36.5610
 1.0400	36.5870
 1.0410	36.6130
 1.0420	36.6370
 1.0430	36.6610
 1.0440	36.6850
 1.0450	36.7070
 1.0460	36.7290
 1.0470	36.7530
 1.0480	36.7760
 1.0490	36.7980
 1.0500	36.8200
 1.0510	36.8430
 1.0520	36.8640
 1.0530	36.8830
 1.0540	36.9000
 1.0550	36.9200
 1.0560	36.9400
 1.0570	36.9580
 1.0580	36.9760
 1.0590	36.9920
 1.0600	37.0030
 1.0610	37.0170
 1.0620	37.0310
 1.0630	37.0450
 1.0640	37.0610
 1.0650	37.0740
 1.0660	37.0840
 1.0670	37.0960
 1.0680	37.1070
 1.0690	37.1170
 1.0700	37.1270
 1.0710	37.1380
 1.0720	37.1460
 1.0730	37.1490
 1.0740	37.1560
 1.0750	37.1640
 1.0760	37.1700
 1.0770	37.1770
 1.0780	37.1820
 1.0790	37.1850
 1.0800	37.1880
 1.0810	37.1910
 1.0820	37.1940
 1.0830	37.1930
 1.0840	37.1940
 1.0850	37.1960
 1.0860	37.1980
 1.0870	37.1960
 1.0880	37.1920
 1.0890	37.1900
 1.0900	37.1840
 1.0910	37.1810
 1.0920	37.1820
 1.0930	37.1780
 1.0940	37.1710
 1.0950	37.1630
 1.0960	37.1530
 1.0970	37.1440
 1.0980	37.1360
 1.0990	37.1270
 1.1000	37.1180
 1.1010	37.1090
 1.1020	37.0980
 1.1030	37.0870
 1.1040	37.0780
 1.1050	37.0680
 1.1060	37.0560
 1.1070	37.0450
 1.1080	37.0320
 1.1090	37.0140
 1.1100	36.9990
 1.1110	36.9840
 1.1120	36.9670
 1.1130	36.9500
 1.1140	36.9310
 1.1150	36.9110
 1.1160	36.8870
 1.1170	36.8630
 1.1180	36.8360
 1.1190	36.8050
 1.1200	36.7720
 1.1210	36.7380
 1.1220	36.7000
 1.1230	36.6580
 1.1240	36.6100
 1.1250	36.5570
 1.1260	36.5010
 1.1270	36.4340
 1.1280	36.3610
 1.1290	36.2790
 1.1300	36.1900
 1.1310	36.0920
 1.1320	35.9860
 1.1330	35.8720
 1.1340	35.7480
 1.1350	35.6170
 1.1360	35.4800
 1.1370	35.3350
 1.1380	35.1850
 1.1390	35.0270
 1.1400	34.8640
 1.1410	34.6980
 1.1420	34.5280
 1.1430	34.3570
 1.1440	34.1870
 1.1450	34.0120
 1.1460	33.8460
 1.1470	33.6800
 1.1480	33.5210
 1.1490	33.3640
 1.1500	33.2160
 1.1510	33.0720
 1.1520	32.9370
 1.1530	32.8090
 1.1540	32.6900
 1.1550	32.5790
 1.1560	32.4740
 1.1570	32.3800
 1.1580	32.2930
 1.1590	32.2130
 1.1600	32.1400
 1.1610	32.0720
 1.1620	32.0100
 1.1630	31.9530
 1.1640	31.9000
 1.1650	31.8510
 1.1660	31.8070
 1.1670	31.7650
 1.1680	31.7290
 1.1690	31.6930
 1.1700	31.6590
 1.1710	31.6270
 1.1720	31.5980
 1.1730	31.5680
 1.1740	31.5390
 1.1750	31.5120
 1.1760	31.4810
 1.1770	31.4520
 1.1780	31.4210
 1.1790	31.3870
 1.1800	31.3530
 1.1810	31.3190
 1.1820	31.2850
 1.1830	31.2520
 1.1840	31.2200
 1.1850	31.1880
 1.1860	31.1570
 1.1870	31.1270
 1.1880	31.0980
 1.1890	31.0680
 1.1900	31.0410
 1.1910	31.0160
 1.1920	30.9920
 1.1930	30.9690
 1.1940	30.9470
 1.1950	30.9270
 1.1960	30.9090
 1.1970	30.8930
 1.1980	30.8800
 1.1990	30.8700
 1.2000	30.8620
 1.2010	30.8570
 1.2020	30.8540
 1.2030	30.8530
 1.2040	30.8580
 1.2050	30.8680
 1.2060	30.8790
 1.2070	30.8920
 1.2080	30.9090
 1.2090	30.9270
 1.2100	30.9490
 1.2110	30.9750
 1.2120	31.0050
 1.2130	31.0380
 1.2140	31.0740
 1.2150	31.1130
 1.2160	31.1550
 1.2170	31.2010
 1.2180	31.2480
 1.2190	31.2980
 1.2200	31.3500
 1.2210	31.4030
 1.2220	31.4570
 1.2230	31.5110
 1.2240	31.5660
 1.2250	31.6200
 1.2260	31.6740
 1.2270	31.7270
 1.2280	31.7770
 1.2290	31.8240
 1.2300	31.8710
 1.2310	31.9180
 1.2320	31.9620
 1.2330	32.0060
 1.2340	32.0490
 1.2350	32.0890
 1.2360	32.1280
 1.2370	32.1670
 1.2380	32.2030
 1.2390	32.2370
 1.2400	32.2700
 1.2410	32.3010
 1.2420	32.3310
 1.2430	32.3590
 1.2440	32.3880
 1.2450	32.4180
 1.2460	32.4460
 1.2470	32.4740
 1.2480	32.5020
 1.2490	32.5270
 1.2500	32.5510
 1.2510	32.5750
 1.2520	32.5970
 1.2530	32.6180
 1.2540	32.6380
 1.2550	32.6570
 1.2560	32.6730
 1.2570	32.6880
 1.2580	32.7030
 1.2590	32.7170
 1.2600	32.7300
 1.2610	32.7410
 1.2620	32.7510
 1.2630	32.7580
 1.2640	32.7660
 1.2650	32.7720
 1.2660	32.7780
 1.2670	32.7840
 1.2680	32.7860
 1.2690	32.7880
 1.2700	32.7880
 1.2710	32.7870
 1.2720	32.7860
 1.2730	32.7830
 1.2740	32.7790
 1.2750	32.7730
 1.2760	32.7640
 1.2770	32.7530
 1.2780	32.7430
 1.2790	32.7310
 1.2800	32.7190
 1.2810	32.7050
 1.2820	32.6880
 1.2830	32.6710
 1.2840	32.6520
 1.2850	32.6300
 1.2860	32.6070
 1.2870	32.5810
 1.2880	32.5540
 1.2890	32.5230
 1.2900	32.4900
 1.2910	32.4550
 1.2920	32.4190
 1.2930	32.3800
 1.2940	32.3390
 1.2950	32.2950
 1.2960	32.2490
 1.2970	32.1990
 1.2980	32.1470
 1.2990	32.0940
 1.3000	32.0380
 1.3010	31.9770
 1.3020	31.9140
 1.3030	31.8470
 1.3040	31.7750
 1.3050	31.7020
 1.3060	31.6270
 1.3070	31.5500
 1.3080	31.4690
 1.3090	31.3860
 1.3100	31.2990
 1.3110	31.2080
 1.3120	31.1140
 1.3130	31.0160
 1.3140	30.9150
 1.3150	30.8110
 1.3160	30.7050
 1.3170	30.5960
 1.3180	30.4850
 1.3190	30.3680
 1.3200	30.2490
 1.3210	30.1260
 1.3220	30.0000
 1.3230	29.8740
 1.3240	29.7460
 1.3250	29.6160
 1.3260	29.4820
 1.3270	29.3430
 1.3280	29.2040
 1.3290	29.0640
 1.3300	28.9220
 1.3310	28.7800
 1.3320	28.6350
 1.3330	28.4890
 1.3340	28.3430
 1.3350	28.1970
 1.3360	28.0520
 1.3370	27.9060
 1.3380	27.7620
 1.3390	27.6190
 1.3400	27.4750
 1.3410	27.3340
 1.3420	27.1950
 1.3430	27.0560
 1.3440	26.9220
 1.3450	26.7900
 1.3460	26.6580
 1.3470	26.5290
 1.3480	26.4020
 1.3490	26.2780
 1.3500	26.1570
 1.3510	26.0380
 1.3520	25.9200
 1.3530	25.8010
 1.3540	25.6820
 1.3550	25.5630
 1.3560	25.4450
 1.3570	25.3280
 1.3580	25.2110
 1.3590	25.0920
 1.3600	24.9670
 1.3610	24.8400
 1.3620	24.7080
 1.3630	24.5720
 1.3640	24.4330
 1.3650	24.2870
 1.3660	24.1360
 1.3670	23.9800
 1.3680	23.8150
 1.3690	23.6410
 1.3700	23.4580
 1.3710	23.2640
 1.3720	23.0600
 1.3730	22.8430
 1.3740	22.6150
 1.3750	22.3740
 1.3760	22.1170
 1.3770	21.8450
 1.3780	21.5540
 1.3790	21.2480
 1.3800	20.9250
 1.3810	20.5830
 1.3820	20.2310
 1.3830	19.8660
 1.3840	19.4900
 1.3850	19.1020
 1.3860	18.7070
 1.3870	18.2990
 1.3880	17.8930
 1.3890	17.4830
 1.3900	17.0700
 1.3910	16.6620
 1.3920	16.2540
 1.3930	15.8490
 1.3940	15.4520
 1.3950	15.0580
 1.3960	14.6740
 1.3970	14.3010
 1.3980	13.9380
 1.3990	13.5930
 1.4000	13.2590
 1.4010	12.9370
 1.4020	12.6300
 1.4030	12.3340
 1.4040	12.0530
 1.4050	11.7880
 1.4060	11.5370
 1.4070	11.3030
 1.4080	11.0830
 1.4090	10.8730
 1.4100	10.6780
 1.4110	10.4940
 1.4120	10.3230
 1.4130	10.1630
 1.4140	10.0130
 1.4150	 9.8750
 1.4160	 9.7470
 1.4170	 9.6270
 1.4180	 9.5160
 1.4190	 9.4110
 1.4200	 9.3140
 1.4210	 9.2220
 1.4220	 9.1370
 1.4230	 9.0590
 1.4240	 8.9860
 1.4250	 8.9180
 1.4260	 8.8560
 1.4270	 8.7980
 1.4280	 8.7450
 1.4290	 8.6960
 1.4300	 8.6520
 1.4310	 8.6100
 1.4320	 8.5730
 1.4330	 8.5380
 1.4340	 8.5070
 1.4350	 8.4790
 1.4360	 8.4530
 1.4370	 8.4290
 1.4380	 8.4070
 1.4390	 8.3880
 1.4400	 8.3710
 1.4410	 8.3580
 1.4420	 8.3460
 1.4430	 8.3350
 1.4440	 8.3270
 1.4450	 8.3200
 1.4460	 8.3140
 1.4470	 8.3110
 1.4480	 8.3080
 1.4490	 8.3070
 1.4500	 8.3070
 1.4510	 8.3080
 1.4520	 8.3090
 1.4530	 8.3110
 1.4540	 8.3150
 1.4550	 8.3200
 1.4560	 8.3260
 1.4570	 8.3340
 1.4580	 8.3440
 1.4590	 8.3550
 1.4600	 8.3680
 1.4610	 8.3840
 1.4620	 8.4010
 1.4630	 8.4210
 1.4640	 8.4430
 1.4650	 8.4660
 1.4660	 8.4930
 1.4670	 8.5220
 1.4680	 8.5540
 1.4690	 8.5880
 1.4700	 8.6240
 1.4710	 8.6630
 1.4720	 8.7040
 1.4730	 8.7470
 1.4740	 8.7920
 1.4750	 8.8380
 1.4760	 8.8870
 1.4770	 8.9370
 1.4780	 8.9890
