Name: Agave attenuata
Type: vegetation
Class: Shrub
Genus: Agave
Species: attenuata
Sample No.: JPL062
Owner: JPL
Wavelength Range: VSWIR
Origin: 34.12717; - 118.11108; WGS84
Collection Date: 2/2/2016
Description: Samples were collected at the Huntington Garden in San Marino California as part of a JPL Subcontract studying HyTES imagery. Samples were taken to JPL and processed within 48 hours of collection. The same leaves were processed in the Nicolet and then measured using the ASD.
Measurement: Bidirectional reflectance
First Column: X
Second Column: Y
X Units: Wavelength (micrometer)
Y Units: Reflectance (percentage)
First X Value: 0.35
Last X Value: 2.5
Number of X Values: 2151
Additional Information: 

 0.3500	12.9830
 0.3510	11.0160
 0.3520	10.2910
 0.3530	10.3590
 0.3540	10.2390
 0.3550	10.2940
 0.3560	10.4460
 0.3570	10.7010
 0.3580	11.0220
 0.3590	10.7290
 0.3600	10.5250
 0.3610	10.6060
 0.3620	10.2780
 0.3630	10.6370
 0.3640	10.6440
 0.3650	 9.6040
 0.3660	10.1450
 0.3670	10.0510
 0.3680	 9.3850
 0.3690	 9.7600
 0.3700	10.0830
 0.3710	10.1510
 0.3720	 9.9050
 0.3730	 9.2710
 0.3740	 9.0920
 0.3750	 9.5480
 0.3760	10.2670
 0.3770	 9.7490
 0.3780	 9.5690
 0.3790	 9.9410
 0.3800	 9.8500
 0.3810	 9.6970
 0.3820	 9.6390
 0.3830	 9.6680
 0.3840	 9.3870
 0.3850	 9.9200
 0.3860	10.5070
 0.3870	10.0510
 0.3880	 9.6340
 0.3890	 9.3830
 0.3900	 9.3540
 0.3910	 9.5620
 0.3920	 9.9210
 0.3930	10.0400
 0.3940	 9.7150
 0.3950	 9.2290
 0.3960	 9.5410
 0.3970	10.0450
 0.3980	 9.6380
 0.3990	 9.5120
 0.4000	 9.5820
 0.4010	 9.6260
 0.4020	 9.3990
 0.4030	 9.6530
 0.4040	 9.8580
 0.4050	 9.5500
 0.4060	 9.5450
 0.4070	 9.7230
 0.4080	 9.8020
 0.4090	 9.4970
 0.4100	 9.5730
 0.4110	 9.7100
 0.4120	 9.6400
 0.4130	 9.4170
 0.4140	 9.4090
 0.4150	 9.5620
 0.4160	 9.6700
 0.4170	 9.5990
 0.4180	 9.5170
 0.4190	 9.4820
 0.4200	 9.4420
 0.4210	 9.5770
 0.4220	 9.6720
 0.4230	 9.6040
 0.4240	 9.6350
 0.4250	 9.7590
 0.4260	 9.8280
 0.4270	 9.6860
 0.4280	 9.6530
 0.4290	 9.7350
 0.4300	 9.8400
 0.4310	 9.7910
 0.4320	 9.7110
 0.4330	 9.7010
 0.4340	 9.7830
 0.4350	 9.7410
 0.4360	 9.7330
 0.4370	 9.7880
 0.4380	 9.8350
 0.4390	 9.8770
 0.4400	 9.8750
 0.4410	 9.8270
 0.4420	 9.8060
 0.4430	 9.8320
 0.4440	 9.8790
 0.4450	 9.9010
 0.4460	 9.8500
 0.4470	 9.8460
 0.4480	 9.9110
 0.4490	 9.9410
 0.4500	 9.9180
 0.4510	 9.8610
 0.4520	 9.8200
 0.4530	 9.9190
 0.4540	 9.9530
 0.4550	 9.9260
 0.4560	 9.9720
 0.4570	 9.9960
 0.4580	 9.9760
 0.4590	 9.9430
 0.4600	10.0280
 0.4610	 9.9800
 0.4620	 9.8900
 0.4630	 9.9240
 0.4640	 9.9770
 0.4650	 9.9610
 0.4660	 9.8980
 0.4670	 9.9170
 0.4680	 9.9470
 0.4690	 9.9870
 0.4700	10.0140
 0.4710	 9.9140
 0.4720	 9.8630
 0.4730	 9.9040
 0.4740	 9.9850
 0.4750	 9.9610
 0.4760	 9.9550
 0.4770	10.0150
 0.4780	10.0330
 0.4790	10.0140
 0.4800	 9.9910
 0.4810	 9.9950
 0.4820	10.0030
 0.4830	 9.9750
 0.4840	 9.9360
 0.4850	 9.9530
 0.4860	 9.9660
 0.4870	 9.9690
 0.4880	 9.9760
 0.4890	10.0080
 0.4900	10.0450
 0.4910	10.0690
 0.4920	10.0710
 0.4930	10.1160
 0.4940	10.1680
 0.4950	10.1960
 0.4960	10.1840
 0.4970	10.2160
 0.4980	10.2690
 0.4990	10.3070
 0.5000	10.3560
 0.5010	10.4340
 0.5020	10.5280
 0.5030	10.6030
 0.5040	10.7050
 0.5050	10.8100
 0.5060	10.9070
 0.5070	11.0510
 0.5080	11.2400
 0.5090	11.4230
 0.5100	11.5510
 0.5110	11.7620
 0.5120	11.9860
 0.5130	12.1930
 0.5140	12.4360
 0.5150	12.7090
 0.5160	13.0000
 0.5170	13.2920
 0.5180	13.5590
 0.5190	13.8520
 0.5200	14.1860
 0.5210	14.5490
 0.5220	14.8970
 0.5230	15.2360
 0.5240	15.5740
 0.5250	15.8990
 0.5260	16.2180
 0.5270	16.5230
 0.5280	16.7970
 0.5290	17.0560
 0.5300	17.3160
 0.5310	17.5660
 0.5320	17.7660
 0.5330	17.9240
 0.5340	18.0730
 0.5350	18.2340
 0.5360	18.3450
 0.5370	18.4550
 0.5380	18.5590
 0.5390	18.6210
 0.5400	18.6700
 0.5410	18.7280
 0.5420	18.7920
 0.5430	18.8270
 0.5440	18.8700
 0.5450	18.9330
 0.5460	19.0080
 0.5470	19.0360
 0.5480	19.0590
 0.5490	19.1030
 0.5500	19.1580
 0.5510	19.1760
 0.5520	19.1610
 0.5530	19.1340
 0.5540	19.1250
 0.5550	19.0920
 0.5560	19.0220
 0.5570	18.9240
 0.5580	18.8410
 0.5590	18.7310
 0.5600	18.5750
 0.5610	18.4290
 0.5620	18.2670
 0.5630	18.1040
 0.5640	17.9560
 0.5650	17.7650
 0.5660	17.5580
 0.5670	17.3510
 0.5680	17.1370
 0.5690	16.9240
 0.5700	16.6990
 0.5710	16.4610
 0.5720	16.2760
 0.5730	16.0790
 0.5740	15.8670
 0.5750	15.6830
 0.5760	15.5310
 0.5770	15.3730
 0.5780	15.1980
 0.5790	15.0660
 0.5800	14.9480
 0.5810	14.8390
 0.5820	14.7360
 0.5830	14.6280
 0.5840	14.5150
 0.5850	14.4100
 0.5860	14.3350
 0.5870	14.2430
 0.5880	14.1470
 0.5890	14.0680
 0.5900	13.9990
 0.5910	13.9350
 0.5920	13.8690
 0.5930	13.7990
 0.5940	13.7760
 0.5950	13.7580
 0.5960	13.7160
 0.5970	13.6590
 0.5980	13.6010
 0.5990	13.5560
 0.6000	13.5260
 0.6010	13.4820
 0.6020	13.4320
 0.6030	13.3760
 0.6040	13.3060
 0.6050	13.2280
 0.6060	13.1500
 0.6070	13.0730
 0.6080	12.9850
 0.6090	12.8830
 0.6100	12.7570
 0.6110	12.6060
 0.6120	12.5060
 0.6130	12.4420
 0.6140	12.3810
 0.6150	12.2790
 0.6160	12.1720
 0.6170	12.0790
 0.6180	12.0080
 0.6190	11.9370
 0.6200	11.8740
 0.6210	11.8190
 0.6220	11.7750
 0.6230	11.7310
 0.6240	11.6930
 0.6250	11.6650
 0.6260	11.6510
 0.6270	11.6450
 0.6280	11.6360
 0.6290	11.6170
 0.6300	11.6160
 0.6310	11.5910
 0.6320	11.5480
 0.6330	11.5510
 0.6340	11.5210
 0.6350	11.4630
 0.6360	11.4010
 0.6370	11.3520
 0.6380	11.2720
 0.6390	11.1620
 0.6400	11.0520
 0.6410	10.9780
 0.6420	10.8870
 0.6430	10.7660
 0.6440	10.6770
 0.6450	10.5940
 0.6460	10.4990
 0.6470	10.3920
 0.6480	10.3180
 0.6490	10.2670
 0.6500	10.2210
 0.6510	10.1650
 0.6520	10.1590
 0.6530	10.1480
 0.6540	10.1020
 0.6550	10.0730
 0.6560	10.0350
 0.6570	 9.9910
 0.6580	 9.9510
 0.6590	 9.9060
 0.6600	 9.8570
 0.6610	 9.8040
 0.6620	 9.7450
 0.6630	 9.7010
 0.6640	 9.6720
 0.6650	 9.6500
 0.6660	 9.6340
 0.6670	 9.6070
 0.6680	 9.5890
 0.6690	 9.6120
 0.6700	 9.6340
 0.6710	 9.6540
 0.6720	 9.6800
 0.6730	 9.7250
 0.6740	 9.7840
 0.6750	 9.8410
 0.6760	 9.8910
 0.6770	 9.9720
 0.6780	10.0680
 0.6790	10.1660
 0.6800	10.2560
 0.6810	10.3480
 0.6820	10.4610
 0.6830	10.5950
 0.6840	10.7160
 0.6850	10.8460
 0.6860	11.0000
 0.6870	11.1880
 0.6880	11.4090
 0.6890	11.6850
 0.6900	12.0300
 0.6910	12.4480
 0.6920	12.9630
 0.6930	13.5850
 0.6940	14.3150
 0.6950	15.1440
 0.6960	16.0710
 0.6970	17.0820
 0.6980	18.1600
 0.6990	19.3140
 0.7000	20.5250
 0.7010	21.7760
 0.7020	23.0470
 0.7030	24.3420
 0.7040	25.6510
 0.7050	26.9660
 0.7060	28.3060
 0.7070	29.6440
 0.7080	30.9750
 0.7090	32.3100
 0.7100	33.6470
 0.7110	34.9920
 0.7120	36.3430
 0.7130	37.6890
 0.7140	39.0470
 0.7150	40.4020
 0.7160	41.7370
 0.7170	43.0690
 0.7180	44.4060
 0.7190	45.7280
 0.7200	47.0160
 0.7210	48.2830
 0.7220	49.5180
 0.7230	50.7110
 0.7240	51.8630
 0.7250	52.9480
 0.7260	54.0110
 0.7270	55.0720
 0.7280	56.0600
 0.7290	56.9730
 0.7300	57.8260
 0.7310	58.6350
 0.7320	59.3700
 0.7330	60.0640
 0.7340	60.7390
 0.7350	61.3960
 0.7360	61.9590
 0.7370	62.4850
 0.7380	63.0120
 0.7390	63.4630
 0.7400	63.8810
 0.7410	64.2720
 0.7420	64.6330
 0.7430	64.9530
 0.7440	65.2620
 0.7450	65.5500
 0.7460	65.7690
 0.7470	65.9530
 0.7480	66.1200
 0.7490	66.2700
 0.7500	66.3880
 0.7510	66.4940
 0.7520	66.5790
 0.7530	66.6370
 0.7540	66.7390
 0.7550	66.8040
 0.7560	66.8240
 0.7570	66.8540
 0.7580	66.9050
 0.7590	66.9410
 0.7600	66.9530
 0.7610	66.9750
 0.7620	67.0010
 0.7630	67.0020
 0.7640	66.9640
 0.7650	66.9590
 0.7660	66.9550
 0.7670	66.9400
 0.7680	66.9240
 0.7690	66.9370
 0.7700	66.9380
 0.7710	66.9110
 0.7720	66.8910
 0.7730	66.8650
 0.7740	66.8540
 0.7750	66.8650
 0.7760	66.8540
 0.7770	66.8330
 0.7780	66.8190
 0.7790	66.8260
 0.7800	66.8590
 0.7810	66.8750
 0.7820	66.8590
 0.7830	66.8290
 0.7840	66.8440
 0.7850	66.8760
 0.7860	66.8890
 0.7870	66.8540
 0.7880	66.8660
 0.7890	66.8910
 0.7900	66.8740
 0.7910	66.8840
 0.7920	66.9190
 0.7930	66.9420
 0.7940	66.9070
 0.7950	66.9140
 0.7960	66.9240
 0.7970	66.9250
 0.7980	66.9560
 0.7990	66.9620
 0.8000	66.9440
 0.8010	66.9230
 0.8020	66.9420
 0.8030	66.9420
 0.8040	66.9220
 0.8050	66.9050
 0.8060	66.9130
 0.8070	66.9220
 0.8080	66.9170
 0.8090	66.8910
 0.8100	66.8630
 0.8110	66.8450
 0.8120	66.8390
 0.8130	66.8310
 0.8140	66.7960
 0.8150	66.7590
 0.8160	66.7430
 0.8170	66.7310
 0.8180	66.7110
 0.8190	66.6760
 0.8200	66.6270
 0.8210	66.5940
 0.8220	66.5570
 0.8230	66.5070
 0.8240	66.4450
 0.8250	66.3800
 0.8260	66.3140
 0.8270	66.2360
 0.8280	66.1240
 0.8290	66.0560
 0.8300	65.9990
 0.8310	65.9120
 0.8320	65.8180
 0.8330	65.7300
 0.8340	65.6690
 0.8350	65.6480
 0.8360	65.6120
 0.8370	65.5480
 0.8380	65.4870
 0.8390	65.4890
 0.8400	65.4780
 0.8410	65.4430
 0.8420	65.4030
 0.8430	65.3960
 0.8440	65.3960
 0.8450	65.3940
 0.8460	65.3810
 0.8470	65.3360
 0.8480	65.3010
 0.8490	65.2750
 0.8500	65.2500
 0.8510	65.2650
 0.8520	65.2520
 0.8530	65.2250
 0.8540	65.2340
 0.8550	65.2220
 0.8560	65.2110
 0.8570	65.2070
 0.8580	65.1890
 0.8590	65.2140
 0.8600	65.2230
 0.8610	65.1850
 0.8620	65.1470
 0.8630	65.1590
 0.8640	65.1720
 0.8650	65.1460
 0.8660	65.1330
 0.8670	65.1140
 0.8680	65.0990
 0.8690	65.1040
 0.8700	65.1120
 0.8710	65.0810
 0.8720	65.0300
 0.8730	65.0130
 0.8740	65.0140
 0.8750	65.0160
 0.8760	65.0040
 0.8770	64.9680
 0.8780	64.9560
 0.8790	64.9260
 0.8800	64.8770
 0.8810	64.8860
 0.8820	64.8610
 0.8830	64.8180
 0.8840	64.7860
 0.8850	64.7600
 0.8860	64.7380
 0.8870	64.7160
 0.8880	64.6860
 0.8890	64.6460
 0.8900	64.6340
 0.8910	64.6180
 0.8920	64.5580
 0.8930	64.5210
 0.8940	64.5060
 0.8950	64.4830
 0.8960	64.4270
 0.8970	64.4390
 0.8980	64.4150
 0.8990	64.3550
 0.9000	64.3660
 0.9010	64.3460
 0.9020	64.3030
 0.9030	64.2550
 0.9040	64.2200
 0.9050	64.1960
 0.9060	64.1600
 0.9070	64.1030
 0.9080	64.0540
 0.9090	64.0010
 0.9100	63.9330
 0.9110	63.8550
 0.9120	63.8120
 0.9130	63.7680
 0.9140	63.7070
 0.9150	63.6220
 0.9160	63.5370
 0.9170	63.4250
 0.9180	63.2960
 0.9190	63.1810
 0.9200	63.1070
 0.9210	62.9660
 0.9220	62.7730
 0.9230	62.6070
 0.9240	62.4620
 0.9250	62.2970
 0.9260	62.0980
 0.9270	61.8760
 0.9280	61.6680
 0.9290	61.4400
 0.9300	61.1740
 0.9310	60.8880
 0.9320	60.6790
 0.9330	60.4240
 0.9340	60.1030
 0.9350	59.8520
 0.9360	59.5430
 0.9370	59.2230
 0.9380	58.9250
 0.9390	58.6210
 0.9400	58.3490
 0.9410	58.0420
 0.9420	57.6760
 0.9430	57.3340
 0.9440	56.9580
 0.9450	56.5830
 0.9460	56.2170
 0.9470	55.7780
 0.9480	55.3600
 0.9490	54.8860
 0.9500	54.3250
 0.9510	53.8730
 0.9520	53.4460
 0.9530	52.9680
 0.9540	52.4340
 0.9550	52.0560
 0.9560	51.6990
 0.9570	51.2860
 0.9580	50.8290
 0.9590	50.5560
 0.9600	50.3000
 0.9610	50.0540
 0.9620	49.8610
 0.9630	49.7010
 0.9640	49.6030
 0.9650	49.4990
 0.9660	49.3250
 0.9670	49.2020
 0.9680	49.0820
 0.9690	49.0070
 0.9700	49.0170
 0.9710	48.9670
 0.9720	48.8860
 0.9730	48.8280
 0.9740	48.8350
 0.9750	48.8580
 0.9760	48.7950
 0.9770	48.7150
 0.9780	48.7350
 0.9790	48.7770
 0.9800	48.8100
 0.9810	48.8370
 0.9820	48.8800
 0.9830	48.9240
 0.9840	48.9560
 0.9850	48.9900
 0.9860	49.0590
 0.9870	49.2440
 0.9880	49.2880
 0.9890	49.2450
 0.9900	49.3110
 0.9910	49.4810
 0.9920	49.6280
 0.9930	49.7310
 0.9940	49.8130
 0.9950	49.8110
 0.9960	49.8970
 0.9970	50.1070
 0.9980	50.3640
 0.9990	50.4730
 1.0000	50.4750
 1.0010	51.0500
 1.0020	51.2100
 1.0030	51.3630
 1.0040	51.5550
 1.0050	51.7530
 1.0060	51.8930
 1.0070	52.0540
 1.0080	52.2190
 1.0090	52.3910
 1.0100	52.5520
 1.0110	52.7150
 1.0120	52.8770
 1.0130	53.0180
 1.0140	53.1930
 1.0150	53.4010
 1.0160	53.5810
 1.0170	53.7750
 1.0180	53.9570
 1.0190	54.1390
 1.0200	54.3440
 1.0210	54.5190
 1.0220	54.6960
 1.0230	54.8880
 1.0240	55.0730
 1.0250	55.2720
 1.0260	55.5200
 1.0270	55.7050
 1.0280	55.8390
 1.0290	56.0070
 1.0300	56.1530
 1.0310	56.3330
 1.0320	56.5600
 1.0330	56.7700
 1.0340	56.9740
 1.0350	57.1480
 1.0360	57.2710
 1.0370	57.4190
 1.0380	57.5590
 1.0390	57.6790
 1.0400	57.8140
 1.0410	57.9610
 1.0420	58.1060
 1.0430	58.2570
 1.0440	58.3990
 1.0450	58.5570
 1.0460	58.6870
 1.0470	58.7790
 1.0480	58.9050
 1.0490	59.0510
 1.0500	59.1710
 1.0510	59.2870
 1.0520	59.4220
 1.0530	59.5200
 1.0540	59.5800
 1.0550	59.6600
 1.0560	59.7380
 1.0570	59.8170
 1.0580	59.8890
 1.0590	59.9730
 1.0600	60.0840
 1.0610	60.1550
 1.0620	60.2180
 1.0630	60.2680
 1.0640	60.2850
 1.0650	60.3080
 1.0660	60.3170
 1.0670	60.3460
 1.0680	60.3820
 1.0690	60.4320
 1.0700	60.4480
 1.0710	60.4710
 1.0720	60.4740
 1.0730	60.4410
 1.0740	60.4210
 1.0750	60.4150
 1.0760	60.3850
 1.0770	60.3330
 1.0780	60.2890
 1.0790	60.2450
 1.0800	60.1900
 1.0810	60.1330
 1.0820	60.0690
 1.0830	60.0040
 1.0840	59.9220
 1.0850	59.8160
 1.0860	59.7320
 1.0870	59.6360
 1.0880	59.5270
 1.0890	59.4250
 1.0900	59.3310
 1.0910	59.2250
 1.0920	59.1090
 1.0930	59.0010
 1.0940	58.8920
 1.0950	58.7870
 1.0960	58.6860
 1.0970	58.5840
 1.0980	58.4900
 1.0990	58.3840
 1.1000	58.2830
 1.1010	58.1610
 1.1020	58.0120
 1.1030	57.8750
 1.1040	57.7340
 1.1050	57.5890
 1.1060	57.4690
 1.1070	57.3770
 1.1080	57.2530
 1.1090	57.1360
 1.1100	57.0020
 1.1110	56.8460
 1.1120	56.7010
 1.1130	56.5590
 1.1140	56.4090
 1.1150	56.2540
 1.1160	56.0900
 1.1170	55.9240
 1.1180	55.7460
 1.1190	55.5540
 1.1200	55.3730
 1.1210	55.1540
 1.1220	54.9010
 1.1230	54.6190
 1.1240	54.3010
 1.1250	53.9730
 1.1260	53.6330
 1.1270	53.2530
 1.1280	52.8580
 1.1290	52.4150
 1.1300	51.9330
 1.1310	51.4220
 1.1320	50.8830
 1.1330	50.3060
 1.1340	49.6920
 1.1350	49.0510
 1.1360	48.3690
 1.1370	47.6670
 1.1380	46.9710
 1.1390	46.2780
 1.1400	45.6090
 1.1410	44.9460
 1.1420	44.2810
 1.1430	43.6330
 1.1440	43.0220
 1.1450	42.4260
 1.1460	41.8660
 1.1470	41.3390
 1.1480	40.8420
 1.1490	40.3610
 1.1500	39.9350
 1.1510	39.5540
 1.1520	39.1980
 1.1530	38.8780
 1.1540	38.5880
 1.1550	38.3300
 1.1560	38.0940
 1.1570	37.8920
 1.1580	37.7170
 1.1590	37.5460
 1.1600	37.3970
 1.1610	37.2700
 1.1620	37.1620
 1.1630	37.0740
 1.1640	37.0010
 1.1650	36.9250
 1.1660	36.8560
 1.1670	36.7900
 1.1680	36.7200
 1.1690	36.6660
 1.1700	36.6280
 1.1710	36.5810
 1.1720	36.5390
 1.1730	36.4980
 1.1740	36.4560
 1.1750	36.4120
 1.1760	36.3810
 1.1770	36.3460
 1.1780	36.3060
 1.1790	36.2700
 1.1800	36.2280
 1.1810	36.1750
 1.1820	36.1300
 1.1830	36.0880
 1.1840	36.0500
 1.1850	36.0170
 1.1860	35.9810
 1.1870	35.9440
 1.1880	35.9070
 1.1890	35.8660
 1.1900	35.8310
 1.1910	35.7960
 1.1920	35.7680
 1.1930	35.7430
 1.1940	35.7260
 1.1950	35.7150
 1.1960	35.7070
 1.1970	35.7090
 1.1980	35.7010
 1.1990	35.6960
 1.2000	35.6950
 1.2010	35.6900
 1.2020	35.7050
 1.2030	35.7320
 1.2040	35.7580
 1.2050	35.7820
 1.2060	35.7980
 1.2070	35.8170
 1.2080	35.8510
 1.2090	35.8870
 1.2100	35.9220
 1.2110	35.9560
 1.2120	35.9820
 1.2130	36.0130
 1.2140	36.0480
 1.2150	36.0860
 1.2160	36.1260
 1.2170	36.1640
 1.2180	36.2180
 1.2190	36.2590
 1.2200	36.2990
 1.2210	36.3510
 1.2220	36.3920
 1.2230	36.4370
 1.2240	36.4890
 1.2250	36.5390
 1.2260	36.5880
 1.2270	36.6330
 1.2280	36.6720
 1.2290	36.7110
 1.2300	36.7530
 1.2310	36.7950
 1.2320	36.8430
 1.2330	36.8970
 1.2340	36.9470
 1.2350	36.9960
 1.2360	37.0460
 1.2370	37.0990
 1.2380	37.1440
 1.2390	37.1840
 1.2400	37.2270
 1.2410	37.2720
 1.2420	37.3210
 1.2430	37.3790
 1.2440	37.4280
 1.2450	37.4670
 1.2460	37.5020
 1.2470	37.5360
 1.2480	37.5740
 1.2490	37.6260
 1.2500	37.6610
 1.2510	37.6860
 1.2520	37.7230
 1.2530	37.7420
 1.2540	37.7690
 1.2550	37.8070
 1.2560	37.8270
 1.2570	37.8500
 1.2580	37.8760
 1.2590	37.8980
 1.2600	37.9170
 1.2610	37.9320
 1.2620	37.9450
 1.2630	37.9500
 1.2640	37.9510
 1.2650	37.9530
 1.2660	37.9560
 1.2670	37.9500
 1.2680	37.9440
 1.2690	37.9290
 1.2700	37.9070
 1.2710	37.8950
 1.2720	37.8760
 1.2730	37.8520
 1.2740	37.8280
 1.2750	37.7930
 1.2760	37.7490
 1.2770	37.6950
 1.2780	37.6360
 1.2790	37.5760
 1.2800	37.5070
 1.2810	37.4410
 1.2820	37.3630
 1.2830	37.2690
 1.2840	37.1790
 1.2850	37.0790
 1.2860	36.9760
 1.2870	36.8750
 1.2880	36.7790
 1.2890	36.6680
 1.2900	36.5500
 1.2910	36.4350
 1.2920	36.3090
 1.2930	36.1770
 1.2940	36.0450
 1.2950	35.9040
 1.2960	35.7520
 1.2970	35.6000
 1.2980	35.4350
 1.2990	35.2590
 1.3000	35.0930
 1.3010	34.9150
 1.3020	34.7360
 1.3030	34.5510
 1.3040	34.3430
 1.3050	34.1350
 1.3060	33.9240
 1.3070	33.7080
 1.3080	33.4960
 1.3090	33.2830
 1.3100	33.0680
 1.3110	32.8530
 1.3120	32.6330
 1.3130	32.3960
 1.3140	32.1530
 1.3150	31.8980
 1.3160	31.6470
 1.3170	31.3920
 1.3180	31.1410
 1.3190	30.8870
 1.3200	30.6310
 1.3210	30.3680
 1.3220	30.1040
 1.3230	29.8450
 1.3240	29.5820
 1.3250	29.3180
 1.3260	29.0550
 1.3270	28.7990
 1.3280	28.5400
 1.3290	28.2780
 1.3300	28.0250
 1.3310	27.7630
 1.3320	27.5010
 1.3330	27.2460
 1.3340	26.9970
 1.3350	26.7530
 1.3360	26.5080
 1.3370	26.2740
 1.3380	26.0470
 1.3390	25.8210
 1.3400	25.6080
 1.3410	25.4020
 1.3420	25.1980
 1.3430	24.9970
 1.3440	24.8020
 1.3450	24.6080
 1.3460	24.4150
 1.3470	24.2320
 1.3480	24.0530
 1.3490	23.8760
 1.3500	23.7040
 1.3510	23.5380
 1.3520	23.3730
 1.3530	23.2230
 1.3540	23.0710
 1.3550	22.9160
 1.3560	22.7660
 1.3570	22.6070
 1.3580	22.4490
 1.3590	22.2910
 1.3600	22.1290
 1.3610	21.9610
 1.3620	21.7870
 1.3630	21.6130
 1.3640	21.4250
 1.3650	21.2280
 1.3660	21.0290
 1.3670	20.8140
 1.3680	20.5880
 1.3690	20.3540
 1.3700	20.1030
 1.3710	19.8460
 1.3720	19.5870
 1.3730	19.3120
 1.3740	19.0220
 1.3750	18.7230
 1.3760	18.4060
 1.3770	18.0710
 1.3780	17.7290
 1.3790	17.3770
 1.3800	17.0140
 1.3810	16.6460
 1.3820	16.2750
 1.3830	15.8980
 1.3840	15.5260
 1.3850	15.1520
 1.3860	14.7850
 1.3870	14.4170
 1.3880	14.0640
 1.3890	13.7180
 1.3900	13.3820
 1.3910	13.0650
 1.3920	12.7580
 1.3930	12.4600
 1.3940	12.1780
 1.3950	11.9090
 1.3960	11.6560
 1.3970	11.4260
 1.3980	11.2140
 1.3990	11.0230
 1.4000	10.8470
 1.4010	10.6810
 1.4020	10.5220
 1.4030	10.3730
 1.4040	10.2340
 1.4050	10.1100
 1.4060	10.0020
 1.4070	 9.9070
 1.4080	 9.8210
 1.4090	 9.7440
 1.4100	 9.6700
 1.4110	 9.5950
 1.4120	 9.5290
 1.4130	 9.4690
 1.4140	 9.4100
 1.4150	 9.3600
 1.4160	 9.3180
 1.4170	 9.2770
 1.4180	 9.2390
 1.4190	 9.2050
 1.4200	 9.1690
 1.4210	 9.1350
 1.4220	 9.1050
 1.4230	 9.0770
 1.4240	 9.0550
 1.4250	 9.0320
 1.4260	 9.0100
 1.4270	 8.9890
 1.4280	 8.9690
 1.4290	 8.9500
 1.4300	 8.9320
 1.4310	 8.9180
 1.4320	 8.9080
 1.4330	 8.8970
 1.4340	 8.8930
 1.4350	 8.8830
 1.4360	 8.8710
 1.4370	 8.8570
 1.4380	 8.8460
 1.4390	 8.8360
 1.4400	 8.8290
 1.4410	 8.8250
 1.4420	 8.8200
 1.4430	 8.8130
 1.4440	 8.8060
 1.4450	 8.8010
 1.4460	 8.7990
 1.4470	 8.7980
 1.4480	 8.8000
 1.4490	 8.7990
 1.4500	 8.7940
 1.4510	 8.7910
 1.4520	 8.7900
 1.4530	 8.7890
 1.4540	 8.7870
 1.4550	 8.7890
 1.4560	 8.7900
 1.4570	 8.7890
 1.4580	 8.7910
 1.4590	 8.7920
 1.4600	 8.7950
 1.4610	 8.7970
 1.4620	 8.8000
 1.4630	 8.8100
 1.4640	 8.8220
 1.4650	 8.8370
 1.4660	 8.8530
 1.4670	 8.8680
 1.4680	 8.8800
 1.4690	 8.8930
 1.4700	 8.9090
 1.4710	 8.9210
 1.4720	 8.9320
 1.4730	 8.9460
 1.4740	 8.9600
 1.4750	 8.9770
 1.4760	 8.9950
 1.4770	 9.0100
 1.4780	 9.0290
 1.4790	 9.0510
 1.4800	 9.0750
 1.4810	 9.1020
 1.4820	 9.1270
