Name: Eucalyptus saligna
Type: vegetation
Class: Tree
Genus: Eucalyptus
Species: saligna
Sample No.: JPL154
Owner: JPL
Wavelength Range: VSWIR
Origin: 34.12473; -118.11474; WGS84
Collection Date: 9/14/2016
Description: Samples were collected at the Huntington Garden in San Marino California as part of a JPL Subcontract studying HyTES imagery. Samples were taken to JPL and processed within 48 hours of collection. The same leaves were processed in the Nicolet and then measured using the ASD.
Measurement: Bidirectional reflectance
First Column: X
Second Column: Y
X Units: Wavelength (micrometer)
Y Units: Reflectance (percentage)
First X Value: 0.35
Last X Value: 2.5
Number of X Values: 2151
Additional Information: vegetation.tree.eucalyptus.saligna.vswir.jpl154.jpl.asd.ancillary.txt

 0.3500	 5.6110
 0.3510	 5.3850
 0.3520	 5.3710
 0.3530	 5.4120
 0.3540	 5.3570
 0.3550	 5.4130
 0.3560	 5.4060
 0.3570	 5.3150
 0.3580	 5.2120
 0.3590	 5.1660
 0.3600	 5.1840
 0.3610	 5.2280
 0.3620	 5.2110
 0.3630	 5.1490
 0.3640	 5.1080
 0.3650	 5.1290
 0.3660	 5.1170
 0.3670	 5.1570
 0.3680	 5.2040
 0.3690	 5.1450
 0.3700	 5.1390
 0.3710	 5.1420
 0.3720	 5.1230
 0.3730	 5.1290
 0.3740	 5.1340
 0.3750	 5.1370
 0.3760	 5.1450
 0.3770	 5.1720
 0.3780	 5.1620
 0.3790	 5.1400
 0.3800	 5.1830
 0.3810	 5.1820
 0.3820	 5.1540
 0.3830	 5.1400
 0.3840	 5.2020
 0.3850	 5.1830
 0.3860	 5.1580
 0.3870	 5.2370
 0.3880	 5.1810
 0.3890	 5.1410
 0.3900	 5.1710
 0.3910	 5.1960
 0.3920	 5.2020
 0.3930	 5.2120
 0.3940	 5.2350
 0.3950	 5.2220
 0.3960	 5.2110
 0.3970	 5.2040
 0.3980	 5.1870
 0.3990	 5.1970
 0.4000	 5.2180
 0.4010	 5.2360
 0.4020	 5.2480
 0.4030	 5.2750
 0.4040	 5.2880
 0.4050	 5.2700
 0.4060	 5.2870
 0.4070	 5.3050
 0.4080	 5.3170
 0.4090	 5.3350
 0.4100	 5.3530
 0.4110	 5.3730
 0.4120	 5.3870
 0.4130	 5.3720
 0.4140	 5.3830
 0.4150	 5.4090
 0.4160	 5.4210
 0.4170	 5.4280
 0.4180	 5.4330
 0.4190	 5.4460
 0.4200	 5.4890
 0.4210	 5.5180
 0.4220	 5.5260
 0.4230	 5.5220
 0.4240	 5.5320
 0.4250	 5.5550
 0.4260	 5.5780
 0.4270	 5.5870
 0.4280	 5.6070
 0.4290	 5.6220
 0.4300	 5.6250
 0.4310	 5.6260
 0.4320	 5.6300
 0.4330	 5.6360
 0.4340	 5.6400
 0.4350	 5.6430
 0.4360	 5.6540
 0.4370	 5.6710
 0.4380	 5.6840
 0.4390	 5.6920
 0.4400	 5.7060
 0.4410	 5.7270
 0.4420	 5.7350
 0.4430	 5.7450
 0.4440	 5.7570
 0.4450	 5.7660
 0.4460	 5.7760
 0.4470	 5.7860
 0.4480	 5.7970
 0.4490	 5.8080
 0.4500	 5.8090
 0.4510	 5.8080
 0.4520	 5.8150
 0.4530	 5.8320
 0.4540	 5.8470
 0.4550	 5.8530
 0.4560	 5.8440
 0.4570	 5.8490
 0.4580	 5.8570
 0.4590	 5.8570
 0.4600	 5.8550
 0.4610	 5.8530
 0.4620	 5.8550
 0.4630	 5.8620
 0.4640	 5.8630
 0.4650	 5.8630
 0.4660	 5.8650
 0.4670	 5.8640
 0.4680	 5.8560
 0.4690	 5.8520
 0.4700	 5.8570
 0.4710	 5.8570
 0.4720	 5.8530
 0.4730	 5.8490
 0.4740	 5.8490
 0.4750	 5.8600
 0.4760	 5.8610
 0.4770	 5.8510
 0.4780	 5.8590
 0.4790	 5.8600
 0.4800	 5.8570
 0.4810	 5.8600
 0.4820	 5.8560
 0.4830	 5.8520
 0.4840	 5.8540
 0.4850	 5.8600
 0.4860	 5.8560
 0.4870	 5.8540
 0.4880	 5.8590
 0.4890	 5.8640
 0.4900	 5.8710
 0.4910	 5.8780
 0.4920	 5.8830
 0.4930	 5.8860
 0.4940	 5.8940
 0.4950	 5.9090
 0.4960	 5.9220
 0.4970	 5.9370
 0.4980	 5.9490
 0.4990	 5.9570
 0.5000	 5.9780
 0.5010	 5.9970
 0.5020	 6.0100
 0.5030	 6.0300
 0.5040	 6.0580
 0.5050	 6.0860
 0.5060	 6.1090
 0.5070	 6.1360
 0.5080	 6.1650
 0.5090	 6.2000
 0.5100	 6.2390
 0.5110	 6.2840
 0.5120	 6.3340
 0.5130	 6.3870
 0.5140	 6.4430
 0.5150	 6.5030
 0.5160	 6.5700
 0.5170	 6.6450
 0.5180	 6.7230
 0.5190	 6.8120
 0.5200	 6.9080
 0.5210	 7.0020
 0.5220	 7.1030
 0.5230	 7.2090
 0.5240	 7.3160
 0.5250	 7.4210
 0.5260	 7.5250
 0.5270	 7.6270
 0.5280	 7.7240
 0.5290	 7.8190
 0.5300	 7.9060
 0.5310	 7.9830
 0.5320	 8.0610
 0.5330	 8.1300
 0.5340	 8.1920
 0.5350	 8.2490
 0.5360	 8.2960
 0.5370	 8.3360
 0.5380	 8.3700
 0.5390	 8.4010
 0.5400	 8.4270
 0.5410	 8.4500
 0.5420	 8.4700
 0.5430	 8.4880
 0.5440	 8.5100
 0.5450	 8.5340
 0.5460	 8.5530
 0.5470	 8.5730
 0.5480	 8.5910
 0.5490	 8.6070
 0.5500	 8.6200
 0.5510	 8.6260
 0.5520	 8.6250
 0.5530	 8.6210
 0.5540	 8.6070
 0.5550	 8.5840
 0.5560	 8.5510
 0.5570	 8.5080
 0.5580	 8.4600
 0.5590	 8.4070
 0.5600	 8.3480
 0.5610	 8.2840
 0.5620	 8.2170
 0.5630	 8.1500
 0.5640	 8.0860
 0.5650	 8.0190
 0.5660	 7.9500
 0.5670	 7.8780
 0.5680	 7.8040
 0.5690	 7.7280
 0.5700	 7.6530
 0.5710	 7.5780
 0.5720	 7.5050
 0.5730	 7.4360
 0.5740	 7.3710
 0.5750	 7.3100
 0.5760	 7.2550
 0.5770	 7.2040
 0.5780	 7.1550
 0.5790	 7.1050
 0.5800	 7.0610
 0.5810	 7.0240
 0.5820	 6.9930
 0.5830	 6.9610
 0.5840	 6.9340
 0.5850	 6.9100
 0.5860	 6.8830
 0.5870	 6.8630
 0.5880	 6.8490
 0.5890	 6.8400
 0.5900	 6.8210
 0.5910	 6.8010
 0.5920	 6.7830
 0.5930	 6.7690
 0.5940	 6.7580
 0.5950	 6.7490
 0.5960	 6.7400
 0.5970	 6.7300
 0.5980	 6.7170
 0.5990	 6.7010
 0.6000	 6.6860
 0.6010	 6.6770
 0.6020	 6.6650
 0.6030	 6.6480
 0.6040	 6.6280
 0.6050	 6.6050
 0.6060	 6.5820
 0.6070	 6.5580
 0.6080	 6.5340
 0.6090	 6.5040
 0.6100	 6.4680
 0.6110	 6.4300
 0.6120	 6.4020
 0.6130	 6.3820
 0.6140	 6.3630
 0.6150	 6.3400
 0.6160	 6.3170
 0.6170	 6.2940
 0.6180	 6.2720
 0.6190	 6.2520
 0.6200	 6.2340
 0.6210	 6.2170
 0.6220	 6.2030
 0.6230	 6.1930
 0.6240	 6.1830
 0.6250	 6.1730
 0.6260	 6.1650
 0.6270	 6.1570
 0.6280	 6.1500
 0.6290	 6.1470
 0.6300	 6.1420
 0.6310	 6.1370
 0.6320	 6.1330
 0.6330	 6.1280
 0.6340	 6.1210
 0.6350	 6.1090
 0.6360	 6.0940
 0.6370	 6.0810
 0.6380	 6.0670
 0.6390	 6.0510
 0.6400	 6.0310
 0.6410	 6.0090
 0.6420	 5.9870
 0.6430	 5.9660
 0.6440	 5.9430
 0.6450	 5.9220
 0.6460	 5.9020
 0.6470	 5.8830
 0.6480	 5.8670
 0.6490	 5.8540
 0.6500	 5.8430
 0.6510	 5.8340
 0.6520	 5.8250
 0.6530	 5.8170
 0.6540	 5.8110
 0.6550	 5.8040
 0.6560	 5.7950
 0.6570	 5.7840
 0.6580	 5.7750
 0.6590	 5.7650
 0.6600	 5.7520
 0.6610	 5.7400
 0.6620	 5.7290
 0.6630	 5.7200
 0.6640	 5.7120
 0.6650	 5.7050
 0.6660	 5.7010
 0.6670	 5.7010
 0.6680	 5.7050
 0.6690	 5.7100
 0.6700	 5.7170
 0.6710	 5.7290
 0.6720	 5.7440
 0.6730	 5.7600
 0.6740	 5.7840
 0.6750	 5.8110
 0.6760	 5.8350
 0.6770	 5.8660
 0.6780	 5.9010
 0.6790	 5.9400
 0.6800	 5.9810
 0.6810	 6.0250
 0.6820	 6.0720
 0.6830	 6.1210
 0.6840	 6.1690
 0.6850	 6.2180
 0.6860	 6.2680
 0.6870	 6.3210
 0.6880	 6.3770
 0.6890	 6.4400
 0.6900	 6.5150
 0.6910	 6.6060
 0.6920	 6.7130
 0.6930	 6.8450
 0.6940	 7.0110
 0.6950	 7.2200
 0.6960	 7.4690
 0.6970	 7.7610
 0.6980	 8.1040
 0.6990	 8.4970
 0.7000	 8.9410
 0.7010	 9.4340
 0.7020	 9.9720
 0.7030	10.5550
 0.7040	11.1780
 0.7050	11.8380
 0.7060	12.5300
 0.7070	13.2540
 0.7080	14.0100
 0.7090	14.7970
 0.7100	15.6110
 0.7110	16.4520
 0.7120	17.3180
 0.7130	18.2070
 0.7140	19.1180
 0.7150	20.0510
 0.7160	21.0010
 0.7170	21.9660
 0.7180	22.9430
 0.7190	23.9290
 0.7200	24.9190
 0.7210	25.9140
 0.7220	26.9060
 0.7230	27.8910
 0.7240	28.8670
 0.7250	29.8260
 0.7260	30.7660
 0.7270	31.6860
 0.7280	32.5820
 0.7290	33.4500
 0.7300	34.2890
 0.7310	35.0950
 0.7320	35.8700
 0.7330	36.6110
 0.7340	37.3170
 0.7350	37.9850
 0.7360	38.6220
 0.7370	39.2240
 0.7380	39.7900
 0.7390	40.3210
 0.7400	40.8180
 0.7410	41.2810
 0.7420	41.7110
 0.7430	42.1130
 0.7440	42.4820
 0.7450	42.8210
 0.7460	43.1310
 0.7470	43.4140
 0.7480	43.6740
 0.7490	43.9110
 0.7500	44.1240
 0.7510	44.3170
 0.7520	44.4920
 0.7530	44.6500
 0.7540	44.7940
 0.7550	44.9220
 0.7560	45.0370
 0.7570	45.1420
 0.7580	45.2380
 0.7590	45.3250
 0.7600	45.4020
 0.7610	45.4710
 0.7620	45.5320
 0.7630	45.5860
 0.7640	45.6350
 0.7650	45.6750
 0.7660	45.7130
 0.7670	45.7480
 0.7680	45.7760
 0.7690	45.8000
 0.7700	45.8230
 0.7710	45.8450
 0.7720	45.8630
 0.7730	45.8800
 0.7740	45.8960
 0.7750	45.9110
 0.7760	45.9240
 0.7770	45.9370
 0.7780	45.9490
 0.7790	45.9600
 0.7800	45.9710
 0.7810	45.9810
 0.7820	45.9910
 0.7830	45.9990
 0.7840	46.0080
 0.7850	46.0160
 0.7860	46.0220
 0.7870	46.0270
 0.7880	46.0320
 0.7890	46.0370
 0.7900	46.0410
 0.7910	46.0430
 0.7920	46.0450
 0.7930	46.0470
 0.7940	46.0500
 0.7950	46.0470
 0.7960	46.0420
 0.7970	46.0390
 0.7980	46.0370
 0.7990	46.0320
 0.8000	46.0260
 0.8010	46.0200
 0.8020	46.0120
 0.8030	46.0070
 0.8040	46.0020
 0.8050	45.9920
 0.8060	45.9800
 0.8070	45.9700
 0.8080	45.9600
 0.8090	45.9500
 0.8100	45.9380
 0.8110	45.9260
 0.8120	45.9160
 0.8130	45.9000
 0.8140	45.8850
 0.8150	45.8710
 0.8160	45.8580
 0.8170	45.8450
 0.8180	45.8330
 0.8190	45.8210
 0.8200	45.8070
 0.8210	45.7920
 0.8220	45.7770
 0.8230	45.7630
 0.8240	45.7490
 0.8250	45.7330
 0.8260	45.7170
 0.8270	45.7020
 0.8280	45.6890
 0.8290	45.6740
 0.8300	45.6580
 0.8310	45.6410
 0.8320	45.6270
 0.8330	45.6140
 0.8340	45.6030
 0.8350	45.5940
 0.8360	45.5820
 0.8370	45.5700
 0.8380	45.5590
 0.8390	45.5520
 0.8400	45.5460
 0.8410	45.5410
 0.8420	45.5350
 0.8430	45.5260
 0.8440	45.5200
 0.8450	45.5160
 0.8460	45.5100
 0.8470	45.5040
 0.8480	45.5010
 0.8490	45.4990
 0.8500	45.4960
 0.8510	45.4960
 0.8520	45.4950
 0.8530	45.4910
 0.8540	45.4870
 0.8550	45.4870
 0.8560	45.4900
 0.8570	45.4940
 0.8580	45.4970
 0.8590	45.5020
 0.8600	45.5060
 0.8610	45.5080
 0.8620	45.5080
 0.8630	45.5140
 0.8640	45.5200
 0.8650	45.5230
 0.8660	45.5320
 0.8670	45.5390
 0.8680	45.5450
 0.8690	45.5520
 0.8700	45.5590
 0.8710	45.5660
 0.8720	45.5740
 0.8730	45.5840
 0.8740	45.5970
 0.8750	45.6070
 0.8760	45.6140
 0.8770	45.6230
 0.8780	45.6360
 0.8790	45.6500
 0.8800	45.6610
 0.8810	45.6660
 0.8820	45.6740
 0.8830	45.6830
 0.8840	45.6930
 0.8850	45.7070
 0.8860	45.7200
 0.8870	45.7310
 0.8880	45.7410
 0.8890	45.7490
 0.8900	45.7600
 0.8910	45.7710
 0.8920	45.7780
 0.8930	45.7900
 0.8940	45.8010
 0.8950	45.8120
 0.8960	45.8250
 0.8970	45.8330
 0.8980	45.8370
 0.8990	45.8420
 0.9000	45.8520
 0.9010	45.8670
 0.9020	45.8770
 0.9030	45.8830
 0.9040	45.8940
 0.9050	45.9030
 0.9060	45.9090
 0.9070	45.9140
 0.9080	45.9210
 0.9090	45.9270
 0.9100	45.9340
 0.9110	45.9430
 0.9120	45.9430
 0.9130	45.9490
 0.9140	45.9560
 0.9150	45.9580
 0.9160	45.9590
 0.9170	45.9620
 0.9180	45.9640
 0.9190	45.9610
 0.9200	45.9650
 0.9210	45.9680
 0.9220	45.9650
 0.9230	45.9570
 0.9240	45.9540
 0.9250	45.9510
 0.9260	45.9460
 0.9270	45.9380
 0.9280	45.9240
 0.9290	45.9100
 0.9300	45.8990
 0.9310	45.8910
 0.9320	45.8730
 0.9330	45.8540
 0.9340	45.8390
 0.9350	45.8300
 0.9360	45.8080
 0.9370	45.7850
 0.9380	45.7670
 0.9390	45.7480
 0.9400	45.7310
 0.9410	45.7070
 0.9420	45.6760
 0.9430	45.6500
 0.9440	45.6200
 0.9450	45.5890
 0.9460	45.5610
 0.9470	45.5290
 0.9480	45.4980
 0.9490	45.4550
 0.9500	45.4000
 0.9510	45.3610
 0.9520	45.3040
 0.9530	45.2500
 0.9540	45.2150
 0.9550	45.1650
 0.9560	45.1160
 0.9570	45.0680
 0.9580	45.0180
 0.9590	44.9720
 0.9600	44.9300
 0.9610	44.8960
 0.9620	44.8670
 0.9630	44.8200
 0.9640	44.7900
 0.9650	44.7720
 0.9660	44.7490
 0.9670	44.7260
 0.9680	44.7010
 0.9690	44.6780
 0.9700	44.6570
 0.9710	44.6460
 0.9720	44.6290
 0.9730	44.6110
 0.9740	44.6040
 0.9750	44.5970
 0.9760	44.5870
 0.9770	44.5740
 0.9780	44.5630
 0.9790	44.5560
 0.9800	44.5510
 0.9810	44.5390
 0.9820	44.5180
 0.9830	44.5150
 0.9840	44.5170
 0.9850	44.5260
 0.9860	44.5430
 0.9870	44.5400
 0.9880	44.5420
 0.9890	44.5450
 0.9900	44.5400
 0.9910	44.5450
 0.9920	44.5520
 0.9930	44.5590
 0.9940	44.5640
 0.9950	44.5590
 0.9960	44.5720
 0.9970	44.5940
 0.9980	44.6010
 0.9990	44.5950
 1.0000	44.5870
 1.0010	45.2240
 1.0020	45.2370
 1.0030	45.2470
 1.0040	45.2560
 1.0050	45.2690
 1.0060	45.2820
 1.0070	45.2950
 1.0080	45.3080
 1.0090	45.3190
 1.0100	45.3310
 1.0110	45.3450
 1.0120	45.3570
 1.0130	45.3720
 1.0140	45.3840
 1.0150	45.3950
 1.0160	45.4020
 1.0170	45.4120
 1.0180	45.4240
 1.0190	45.4370
 1.0200	45.4550
 1.0210	45.4750
 1.0220	45.4900
 1.0230	45.5050
 1.0240	45.5210
 1.0250	45.5340
 1.0260	45.5420
 1.0270	45.5530
 1.0280	45.5610
 1.0290	45.5720
 1.0300	45.5860
 1.0310	45.6000
 1.0320	45.6170
 1.0330	45.6280
 1.0340	45.6430
 1.0350	45.6590
 1.0360	45.6690
 1.0370	45.6820
 1.0380	45.6930
 1.0390	45.7030
 1.0400	45.7130
 1.0410	45.7240
 1.0420	45.7350
 1.0430	45.7450
 1.0440	45.7550
 1.0450	45.7650
 1.0460	45.7750
 1.0470	45.7880
 1.0480	45.7980
 1.0490	45.8100
 1.0500	45.8190
 1.0510	45.8230
 1.0520	45.8260
 1.0530	45.8320
 1.0540	45.8350
 1.0550	45.8440
 1.0560	45.8600
 1.0570	45.8690
 1.0580	45.8790
 1.0590	45.8860
 1.0600	45.8870
 1.0610	45.8920
 1.0620	45.8990
 1.0630	45.9030
 1.0640	45.9050
 1.0650	45.9100
 1.0660	45.9180
 1.0670	45.9220
 1.0680	45.9250
 1.0690	45.9300
 1.0700	45.9320
 1.0710	45.9300
 1.0720	45.9300
 1.0730	45.9310
 1.0740	45.9330
 1.0750	45.9370
 1.0760	45.9380
 1.0770	45.9410
 1.0780	45.9410
 1.0790	45.9370
 1.0800	45.9360
 1.0810	45.9390
 1.0820	45.9380
 1.0830	45.9340
 1.0840	45.9320
 1.0850	45.9300
 1.0860	45.9260
 1.0870	45.9230
 1.0880	45.9230
 1.0890	45.9190
 1.0900	45.9120
 1.0910	45.9080
 1.0920	45.9050
 1.0930	45.9020
 1.0940	45.9030
 1.0950	45.8990
 1.0960	45.8910
 1.0970	45.8850
 1.0980	45.8760
 1.0990	45.8680
 1.1000	45.8620
 1.1010	45.8550
 1.1020	45.8470
 1.1030	45.8410
 1.1040	45.8340
 1.1050	45.8270
 1.1060	45.8180
 1.1070	45.8080
 1.1080	45.7980
 1.1090	45.7870
 1.1100	45.7770
 1.1110	45.7680
 1.1120	45.7560
 1.1130	45.7420
 1.1140	45.7290
 1.1150	45.7140
 1.1160	45.6980
 1.1170	45.6850
 1.1180	45.6680
 1.1190	45.6510
 1.1200	45.6310
 1.1210	45.6090
 1.1220	45.5840
 1.1230	45.5530
 1.1240	45.5180
 1.1250	45.4800
 1.1260	45.4370
 1.1270	45.3920
 1.1280	45.3440
 1.1290	45.2900
 1.1300	45.2330
 1.1310	45.1690
 1.1320	45.0990
 1.1330	45.0250
 1.1340	44.9450
 1.1350	44.8610
 1.1360	44.7720
 1.1370	44.6770
 1.1380	44.5740
 1.1390	44.4670
 1.1400	44.3560
 1.1410	44.2430
 1.1420	44.1300
 1.1430	44.0140
 1.1440	43.8980
 1.1450	43.7770
 1.1460	43.6610
 1.1470	43.5430
 1.1480	43.4320
 1.1490	43.3230
 1.1500	43.2200
 1.1510	43.1200
 1.1520	43.0260
 1.1530	42.9380
 1.1540	42.8540
 1.1550	42.7730
 1.1560	42.6990
 1.1570	42.6280
 1.1580	42.5650
 1.1590	42.5090
 1.1600	42.4560
 1.1610	42.4080
 1.1620	42.3620
 1.1630	42.3190
 1.1640	42.2800
 1.1650	42.2440
 1.1660	42.2110
 1.1670	42.1790
 1.1680	42.1490
 1.1690	42.1210
 1.1700	42.0940
 1.1710	42.0670
 1.1720	42.0410
 1.1730	42.0160
 1.1740	41.9920
 1.1750	41.9660
 1.1760	41.9420
 1.1770	41.9160
 1.1780	41.8880
 1.1790	41.8610
 1.1800	41.8330
 1.1810	41.8070
 1.1820	41.7820
 1.1830	41.7570
 1.1840	41.7320
 1.1850	41.7070
 1.1860	41.6830
 1.1870	41.6620
 1.1880	41.6420
 1.1890	41.6250
 1.1900	41.6100
 1.1910	41.5980
 1.1920	41.5870
 1.1930	41.5790
 1.1940	41.5720
 1.1950	41.5670
 1.1960	41.5620
 1.1970	41.5600
 1.1980	41.5580
 1.1990	41.5590
 1.2000	41.5630
 1.2010	41.5660
 1.2020	41.5720
 1.2030	41.5800
 1.2040	41.5870
 1.2050	41.5970
 1.2060	41.6100
 1.2070	41.6220
 1.2080	41.6360
 1.2090	41.6520
 1.2100	41.6680
 1.2110	41.6860
 1.2120	41.7050
 1.2130	41.7280
 1.2140	41.7520
 1.2150	41.7770
 1.2160	41.8040
 1.2170	41.8320
 1.2180	41.8600
 1.2190	41.8900
 1.2200	41.9200
 1.2210	41.9490
 1.2220	41.9770
 1.2230	42.0060
 1.2240	42.0370
 1.2250	42.0670
 1.2260	42.0950
 1.2270	42.1250
 1.2280	42.1530
 1.2290	42.1790
 1.2300	42.2040
 1.2310	42.2270
 1.2320	42.2500
 1.2330	42.2720
 1.2340	42.2940
 1.2350	42.3150
 1.2360	42.3350
 1.2370	42.3520
 1.2380	42.3690
 1.2390	42.3840
 1.2400	42.4000
 1.2410	42.4160
 1.2420	42.4310
 1.2430	42.4470
 1.2440	42.4620
 1.2450	42.4750
 1.2460	42.4870
 1.2470	42.4980
 1.2480	42.5090
 1.2490	42.5210
 1.2500	42.5320
 1.2510	42.5440
 1.2520	42.5540
 1.2530	42.5640
 1.2540	42.5730
 1.2550	42.5810
 1.2560	42.5890
 1.2570	42.5950
 1.2580	42.6000
 1.2590	42.6040
 1.2600	42.6070
 1.2610	42.6100
 1.2620	42.6130
 1.2630	42.6130
 1.2640	42.6090
 1.2650	42.6060
 1.2660	42.6030
 1.2670	42.5980
 1.2680	42.5950
 1.2690	42.5910
 1.2700	42.5850
 1.2710	42.5800
 1.2720	42.5750
 1.2730	42.5680
 1.2740	42.5600
 1.2750	42.5510
 1.2760	42.5400
 1.2770	42.5290
 1.2780	42.5180
 1.2790	42.5050
 1.2800	42.4920
 1.2810	42.4770
 1.2820	42.4600
 1.2830	42.4420
 1.2840	42.4220
 1.2850	42.4020
 1.2860	42.3800
 1.2870	42.3570
 1.2880	42.3330
 1.2890	42.3070
 1.2900	42.2800
 1.2910	42.2520
 1.2920	42.2200
 1.2930	42.1860
 1.2940	42.1500
 1.2950	42.1120
 1.2960	42.0730
 1.2970	42.0320
 1.2980	41.9920
 1.2990	41.9470
 1.3000	41.8990
 1.3010	41.8530
 1.3020	41.8030
 1.3030	41.7510
 1.3040	41.6960
 1.3050	41.6380
 1.3060	41.5780
 1.3070	41.5160
 1.3080	41.4540
 1.3090	41.3910
 1.3100	41.3240
 1.3110	41.2550
 1.3120	41.1820
 1.3130	41.1070
 1.3140	41.0300
 1.3150	40.9530
 1.3160	40.8710
 1.3170	40.7860
 1.3180	40.6990
 1.3190	40.6070
 1.3200	40.5140
 1.3210	40.4190
 1.3220	40.3230
 1.3230	40.2260
 1.3240	40.1240
 1.3250	40.0200
 1.3260	39.9150
 1.3270	39.8070
 1.3280	39.6960
 1.3290	39.5830
 1.3300	39.4700
 1.3310	39.3540
 1.3320	39.2360
 1.3330	39.1170
 1.3340	38.9970
 1.3350	38.8760
 1.3360	38.7530
 1.3370	38.6320
 1.3380	38.5080
 1.3390	38.3840
 1.3400	38.2600
 1.3410	38.1350
 1.3420	38.0140
 1.3430	37.8930
 1.3440	37.7740
 1.3450	37.6550
 1.3460	37.5370
 1.3470	37.4190
 1.3480	37.3010
 1.3490	37.1850
 1.3500	37.0690
 1.3510	36.9540
 1.3520	36.8390
 1.3530	36.7240
 1.3540	36.6110
 1.3550	36.4970
 1.3560	36.3830
 1.3570	36.2660
 1.3580	36.1500
 1.3590	36.0320
 1.3600	35.9110
 1.3610	35.7870
 1.3620	35.6580
 1.3630	35.5250
 1.3640	35.3870
 1.3650	35.2430
 1.3660	35.0930
 1.3670	34.9330
 1.3680	34.7640
 1.3690	34.5870
 1.3700	34.3960
 1.3710	34.1940
 1.3720	33.9790
 1.3730	33.7470
 1.3740	33.5010
 1.3750	33.2380
 1.3760	32.9540
 1.3770	32.6510
 1.3780	32.3240
 1.3790	31.9740
 1.3800	31.6020
 1.3810	31.2040
 1.3820	30.7890
 1.3830	30.3560
 1.3840	29.9010
 1.3850	29.4250
 1.3860	28.9330
 1.3870	28.4170
 1.3880	27.8960
 1.3890	27.3620
 1.3900	26.8160
 1.3910	26.2700
 1.3920	25.7170
 1.3930	25.1580
 1.3940	24.6000
 1.3950	24.0390
 1.3960	23.4860
 1.3970	22.9420
 1.3980	22.4090
 1.3990	21.8950
 1.4000	21.3920
 1.4010	20.9020
 1.4020	20.4320
 1.4030	19.9750
 1.4040	19.5380
 1.4050	19.1250
 1.4060	18.7290
 1.4070	18.3590
 1.4080	18.0070
 1.4090	17.6720
 1.4100	17.3610
 1.4110	17.0660
 1.4120	16.7890
 1.4130	16.5330
 1.4140	16.2930
 1.4150	16.0710
 1.4160	15.8650
 1.4170	15.6730
 1.4180	15.4940
 1.4190	15.3270
 1.4200	15.1710
 1.4210	15.0260
 1.4220	14.8920
 1.4230	14.7690
 1.4240	14.6560
 1.4250	14.5500
 1.4260	14.4550
 1.4270	14.3660
 1.4280	14.2840
 1.4290	14.2070
 1.4300	14.1370
 1.4310	14.0730
 1.4320	14.0160
 1.4330	13.9640
 1.4340	13.9180
 1.4350	13.8760
 1.4360	13.8380
 1.4370	13.8040
 1.4380	13.7740
 1.4390	13.7480
 1.4400	13.7260
 1.4410	13.7080
 1.4420	13.6920
 1.4430	13.6800
 1.4440	13.6690
 1.4450	13.6620
 1.4460	13.6570
 1.4470	13.6540
 1.4480	13.6540
 1.4490	13.6550
 1.4500	13.6580
 1.4510	13.6630
 1.4520	13.6700
 1.4530	13.6780
 1.4540	13.6880
 1.4550	13.7000
 1.4560	13.7140
 1.4570	13.7320
 1.4580	13.7540
 1.4590	13.7790
 1.4600	13.8080
 1.4610	13.8390
 1.4620	13.8730
 1.4630	13.9120
 1.4640	13.9550
 1.4650	14.0030
 1.4660	14.0560
 1.4670	14.1140
 1.4680	14.1750
 1.4690	14.2410
 1.4700	14.3110
 1.4710	14.3840
 1.4720	14.4620
 1.4730	14.5430
 1.4740	14.6270
 1.4750	14.7140
 1.4760	14.8050
 1.4770	14.8980
