Name: Adenostoma fasciculatum 1
Type: vegetation
Class: Shrub
Genus: Adenostoma
Species: fasciculatum
Sample No.: VH034
Owner: UCSB
Wavelength Range: TIR
Origin: 34.5084; -119.7687; WGS84
Collection Date: 4/1/2013
Description: Samples were collected as part of the HyspIRI Airborne Campaign. 48 individual plants were sampled in three times in 2013 - spring  summer  and fall. The name of the sample includes a 1  2  or 3 which references a different individual of the species. Samples were taken to JPL and processed within 48 hours of collection. The same leaves were processed in the Nicolet and then measured using the ASD.
Measurement: Hemispherical reflectance
First Column: X
Second Column: Y
X Units: Wavelength (micrometers)
Y Units: Reflectance (percentage)
First X Value: 2.501
Last X Value: 15.387
Number of X Values: 1737
Additional Information: vegetation.shrub.adenostoma.fasciculatum.tir.vh034.ucsb.nicolet.ancillary.txt

 2.5010	14.4330
 2.5030	14.3580
 2.5040	14.2830
 2.5050	14.2910
 2.5060	14.4000
 2.5070	14.3230
 2.5090	14.3050
 2.5100	14.2670
 2.5110	14.2000
 2.5120	14.1990
 2.5140	14.3440
 2.5150	14.3020
 2.5160	14.2050
 2.5170	14.1580
 2.5180	14.2720
 2.5200	14.2080
 2.5210	14.1670
 2.5220	14.1280
 2.5230	14.1940
 2.5250	14.2730
 2.5260	14.3010
 2.5270	14.1930
 2.5280	14.2160
 2.5290	14.1860
 2.5310	14.1640
 2.5320	14.1680
 2.5330	14.1380
 2.5340	14.1360
 2.5360	14.1940
 2.5370	14.1820
 2.5380	14.3000
 2.5390	14.3090
 2.5410	14.3140
 2.5420	14.2700
 2.5430	14.2600
 2.5440	14.2360
 2.5460	14.2730
 2.5470	14.2460
 2.5480	14.2780
 2.5490	14.2200
 2.5510	14.1890
 2.5520	14.1770
 2.5530	14.2180
 2.5540	14.1900
 2.5560	14.2800
 2.5570	14.2900
 2.5580	14.2570
 2.5590	14.2650
 2.5610	14.2710
 2.5620	14.1660
 2.5630	14.1620
 2.5640	14.1610
 2.5660	14.2710
 2.5670	14.2820
 2.5680	14.2670
 2.5700	14.2290
 2.5710	14.2150
 2.5720	14.1700
 2.5730	14.2570
 2.5750	14.2430
 2.5760	14.1830
 2.5770	14.0600
 2.5790	14.0820
 2.5800	14.1220
 2.5810	14.2010
 2.5820	14.1560
 2.5840	14.2250
 2.5850	14.1860
 2.5860	14.1900
 2.5880	14.2170
 2.5890	14.2580
 2.5900	14.1880
 2.5910	14.2280
 2.5930	14.1840
 2.5940	14.0280
 2.5950	13.8790
 2.5970	14.0550
 2.5980	14.1550
 2.5990	14.1170
 2.6000	14.0580
 2.6020	14.2000
 2.6030	14.1600
 2.6040	13.9870
 2.6060	13.9710
 2.6070	14.1480
 2.6080	14.0160
 2.6100	13.9770
 2.6110	14.0560
 2.6120	14.1330
 2.6140	14.0270
 2.6150	14.0470
 2.6160	13.9900
 2.6180	13.9000
 2.6190	13.8450
 2.6200	13.7770
 2.6220	13.7150
 2.6230	13.8190
 2.6240	13.8590
 2.6260	13.8930
 2.6270	13.7350
 2.6280	13.7110
 2.6300	13.7180
 2.6310	13.6600
 2.6320	13.6260
 2.6340	13.6550
 2.6350	13.6560
 2.6360	13.6650
 2.6380	13.5780
 2.6390	13.6300
 2.6400	13.6090
 2.6420	13.5860
 2.6430	13.5450
 2.6440	13.6470
 2.6460	13.6790
 2.6470	13.6810
 2.6480	13.5960
 2.6500	13.5690
 2.6510	13.4580
 2.6520	13.3790
 2.6540	13.3040
 2.6550	13.3220
 2.6560	13.3020
 2.6580	13.3290
 2.6590	13.2830
 2.6610	13.3020
 2.6620	13.2870
 2.6630	13.3220
 2.6650	13.2400
 2.6660	13.1570
 2.6670	13.0690
 2.6690	13.1850
 2.6700	13.2510
 2.6720	13.2680
 2.6730	13.2570
 2.6740	13.2880
 2.6760	13.1910
 2.6770	13.0880
 2.6780	13.1040
 2.6800	13.1220
 2.6810	13.0990
 2.6830	13.1810
 2.6840	13.1770
 2.6850	13.0960
 2.6870	13.0960
 2.6880	13.2220
 2.6900	13.1180
 2.6910	13.0150
 2.6920	12.9640
 2.6940	12.9700
 2.6950	12.9580
 2.6970	12.9190
 2.6980	12.9260
 2.6990	13.0230
 2.7010	12.9460
 2.7020	13.0040
 2.7040	13.0660
 2.7050	13.0480
 2.7060	12.8860
 2.7080	12.8410
 2.7090	12.9050
 2.7110	12.9760
 2.7120	13.0700
 2.7130	13.1080
 2.7150	12.8710
 2.7160	12.8420
 2.7180	12.8770
 2.7190	12.9140
 2.7210	12.8300
 2.7220	12.8630
 2.7230	12.8470
 2.7250	12.7760
 2.7260	12.8050
 2.7280	12.8530
 2.7290	12.8120
 2.7310	12.9140
 2.7320	12.8250
 2.7330	12.8330
 2.7350	12.8250
 2.7360	12.9170
 2.7380	12.9160
 2.7390	12.8650
 2.7410	12.7310
 2.7420	12.7430
 2.7440	12.8170
 2.7450	12.8450
 2.7470	12.8580
 2.7480	12.9980
 2.7490	13.0040
 2.7510	12.9330
 2.7520	12.9440
 2.7540	12.9820
 2.7550	12.8040
 2.7570	12.7810
 2.7580	12.8810
 2.7600	12.9730
 2.7610	12.9590
 2.7630	12.9440
 2.7640	12.8160
 2.7660	12.8010
 2.7670	12.7710
 2.7680	12.8760
 2.7700	12.8970
 2.7710	12.9900
 2.7730	12.9950
 2.7740	12.9470
 2.7760	12.9230
 2.7770	12.9430
 2.7790	12.9640
 2.7800	12.9780
 2.7820	12.9200
 2.7830	12.9170
 2.7850	12.7440
 2.7860	12.8150
 2.7880	12.7580
 2.7890	12.7650
 2.7910	12.8060
 2.7920	12.8660
 2.7940	12.9270
 2.7950	12.9950
 2.7970	12.9750
 2.7980	12.9870
 2.8000	12.9190
 2.8010	12.9430
 2.8030	12.8370
 2.8040	12.8340
 2.8060	12.9700
 2.8070	13.0690
 2.8090	12.9720
 2.8110	12.9080
 2.8120	12.8410
 2.8140	12.9510
 2.8150	12.9420
 2.8170	12.9670
 2.8180	12.9700
 2.8200	13.0280
 2.8210	12.9970
 2.8230	13.0610
 2.8240	12.9710
 2.8260	12.8490
 2.8270	12.8230
 2.8290	12.9700
 2.8300	13.0050
 2.8320	13.0260
 2.8340	12.9230
 2.8350	12.9100
 2.8370	12.8960
 2.8380	12.9600
 2.8400	13.0320
 2.8410	13.0340
 2.8430	12.9830
 2.8440	12.9990
 2.8460	13.0020
 2.8480	13.0290
 2.8490	13.0210
 2.8510	13.0140
 2.8520	12.8650
 2.8540	12.8990
 2.8550	12.9800
 2.8570	13.1040
 2.8590	13.0100
 2.8600	12.9240
 2.8620	12.8500
 2.8630	12.9150
 2.8650	12.9010
 2.8660	12.9580
 2.8680	13.0220
 2.8700	13.0900
 2.8710	13.0010
 2.8730	13.0860
 2.8740	13.1350
 2.8760	13.1170
 2.8780	12.8870
 2.8790	12.9690
 2.8810	13.0100
 2.8820	12.9850
 2.8840	12.9730
 2.8860	13.0380
 2.8870	13.0950
 2.8890	13.1110
 2.8900	13.0320
 2.8920	12.9900
 2.8940	12.8490
 2.8950	12.8660
 2.8970	12.9250
 2.8980	13.0130
 2.9000	12.9690
 2.9020	13.0210
 2.9030	12.9110
 2.9050	12.9320
 2.9070	13.0010
 2.9080	13.0230
 2.9100	12.9230
 2.9120	12.9070
 2.9130	12.8790
 2.9150	12.9130
 2.9160	12.9130
 2.9180	13.0130
 2.9200	12.9740
 2.9210	12.9980
 2.9230	12.9600
 2.9250	12.9740
 2.9260	12.9700
 2.9280	13.0350
 2.9300	12.9610
 2.9310	12.9690
 2.9330	12.9240
 2.9350	12.9760
 2.9360	12.9190
 2.9380	13.0510
 2.9400	13.0600
 2.9410	12.9870
 2.9430	12.9480
 2.9450	13.2030
 2.9460	13.3800
 2.9480	13.4070
 2.9500	13.1520
 2.9510	13.0090
 2.9530	13.0740
 2.9550	13.1550
 2.9560	13.1770
 2.9580	13.2030
 2.9600	13.1940
 2.9610	13.3520
 2.9630	13.3810
 2.9650	13.0430
 2.9660	12.8540
 2.9680	13.1000
 2.9700	13.3200
 2.9720	13.2940
 2.9730	13.1760
 2.9750	12.5680
 2.9770	12.4150
 2.9780	12.8040
 2.9800	13.2440
 2.9820	13.2810
 2.9840	13.0490
 2.9850	12.9880
 2.9870	12.8860
 2.9890	12.9630
 2.9900	12.6980
 2.9920	12.4360
 2.9940	12.5780
 2.9960	12.7890
 2.9970	13.3280
 2.9990	13.2360
 3.0010	12.7450
 3.0030	12.7600
 3.0040	12.9310
 3.0060	13.0190
 3.0080	12.8500
 3.0100	12.8500
 3.0110	13.1800
 3.0130	13.4370
 3.0150	13.4170
 3.0170	12.9500
 3.0180	12.5820
 3.0200	12.6650
 3.0220	12.7200
 3.0240	13.0920
 3.0250	13.3200
 3.0270	13.4250
 3.0290	13.2050
 3.0310	12.8660
 3.0320	12.7350
 3.0340	12.9350
 3.0360	13.1750
 3.0380	13.1590
 3.0400	13.4510
 3.0410	13.4610
 3.0430	13.4800
 3.0450	13.5160
 3.0470	13.3210
 3.0480	13.2510
 3.0500	13.5680
 3.0520	13.7440
 3.0540	13.3940
 3.0560	12.9140
 3.0570	12.6150
 3.0590	12.4690
 3.0610	12.6890
 3.0630	12.9710
 3.0650	12.9980
 3.0660	12.9990
 3.0680	12.8760
 3.0700	12.8050
 3.0720	12.8290
 3.0740	12.7860
 3.0760	12.6640
 3.0770	12.8900
 3.0790	12.9300
 3.0810	12.8450
 3.0830	12.8330
 3.0850	12.9760
 3.0870	13.0280
 3.0880	13.0060
 3.0900	12.9550
 3.0920	13.0360
 3.0940	12.8020
 3.0960	12.7020
 3.0980	12.7160
 3.0990	12.8510
 3.1010	12.9300
 3.1030	12.9320
 3.1050	12.8960
 3.1070	12.9800
 3.1090	12.8380
 3.1110	12.7250
 3.1120	12.7840
 3.1140	12.9100
 3.1160	12.8850
 3.1180	12.8670
 3.1200	12.7660
 3.1220	12.7320
 3.1240	12.8250
 3.1260	12.9020
 3.1270	12.7680
 3.1290	12.7230
 3.1310	12.7530
 3.1330	12.7670
 3.1350	12.6020
 3.1370	12.7470
 3.1390	13.0700
 3.1410	13.2250
 3.1430	13.0820
 3.1450	12.7360
 3.1460	12.6630
 3.1480	12.6990
 3.1500	12.5200
 3.1520	12.6150
 3.1540	12.8550
 3.1560	12.9260
 3.1580	12.8950
 3.1600	12.9660
 3.1620	12.7330
 3.1640	12.6250
 3.1660	13.0400
 3.1680	13.1170
 3.1700	12.8970
 3.1710	12.9040
 3.1730	13.0120
 3.1750	12.8260
 3.1770	12.5490
 3.1790	12.6910
 3.1810	12.5910
 3.1830	12.4570
 3.1850	12.4300
 3.1870	12.6600
 3.1890	12.6520
 3.1910	12.6550
 3.1930	12.5450
 3.1950	12.6370
 3.1970	12.6740
 3.1990	12.7130
 3.2010	12.5870
 3.2030	12.7100
 3.2050	12.7530
 3.2070	12.7840
 3.2090	12.7200
 3.2110	12.7440
 3.2130	12.6630
 3.2150	12.6650
 3.2170	12.6550
 3.2190	12.6520
 3.2210	12.6600
 3.2230	12.7150
 3.2250	12.6260
 3.2270	12.6170
 3.2290	12.5220
 3.2310	12.5430
 3.2330	12.5600
 3.2350	12.5670
 3.2370	12.6300
 3.2390	12.7760
 3.2410	12.7650
 3.2430	12.8110
 3.2450	12.7850
 3.2470	12.7450
 3.2490	12.6370
 3.2510	12.5870
 3.2530	12.6040
 3.2550	12.6020
 3.2570	12.5820
 3.2590	12.6150
 3.2610	12.5470
 3.2630	12.6040
 3.2650	12.5690
 3.2670	12.6400
 3.2690	12.6200
 3.2720	12.5780
 3.2740	12.5540
 3.2760	12.5770
 3.2780	12.5350
 3.2800	12.5660
 3.2820	12.5190
 3.2840	12.4740
 3.2860	12.4700
 3.2880	12.5860
 3.2900	12.6260
 3.2920	12.6510
 3.2940	12.5240
 3.2960	12.4210
 3.2990	12.4200
 3.3010	12.4320
 3.3030	12.4420
 3.3050	12.4540
 3.3070	12.4080
 3.3090	12.5080
 3.3110	12.4560
 3.3130	12.4190
 3.3150	12.3750
 3.3180	12.4600
 3.3200	12.5170
 3.3220	12.5190
 3.3240	12.4990
 3.3260	12.5240
 3.3280	12.4990
 3.3300	12.4790
 3.3330	12.4340
 3.3350	12.4490
 3.3370	12.4180
 3.3390	12.3820
 3.3410	12.4000
 3.3430	12.4460
 3.3450	12.3300
 3.3480	12.3250
 3.3500	12.3630
 3.3520	12.3900
 3.3540	12.3330
 3.3560	12.3910
 3.3580	12.4050
 3.3610	12.4430
 3.3630	12.3910
 3.3650	12.3140
 3.3670	12.2460
 3.3690	12.3640
 3.3720	12.4810
 3.3740	12.4840
 3.3760	12.4290
 3.3780	12.5060
 3.3800	12.6100
 3.3830	12.5900
 3.3850	12.4800
 3.3870	12.3720
 3.3890	12.3670
 3.3910	12.4340
 3.3940	12.4040
 3.3960	12.3950
 3.3980	12.4060
 3.4000	12.4740
 3.4020	12.4580
 3.4050	12.5110
 3.4070	12.5690
 3.4090	12.7110
 3.4110	12.7520
 3.4140	12.8270
 3.4160	12.9200
 3.4180	13.1490
 3.4200	13.3500
 3.4230	13.5680
 3.4250	13.7530
 3.4270	13.9960
 3.4290	14.0210
 3.4320	13.8130
 3.4340	13.5030
 3.4360	13.3120
 3.4390	13.1850
 3.4410	13.1190
 3.4430	12.9690
 3.4450	12.9300
 3.4480	12.9430
 3.4500	13.0480
 3.4520	12.9920
 3.4550	12.9240
 3.4570	12.8570
 3.4590	12.8860
 3.4620	12.8800
 3.4640	12.8430
 3.4660	12.8030
 3.4680	12.7680
 3.4710	12.7140
 3.4730	12.7320
 3.4750	12.7430
 3.4780	12.8010
 3.4800	12.7640
 3.4820	12.7860
 3.4850	12.6990
 3.4870	12.6220
 3.4890	12.5460
 3.4920	12.5960
 3.4940	12.5890
 3.4970	12.6720
 3.4990	12.7480
 3.5010	12.8360
 3.5040	12.9280
 3.5060	13.2610
 3.5080	13.6190
 3.5110	13.7620
 3.5130	13.5220
 3.5160	13.3190
 3.5180	13.1320
 3.5200	13.0250
 3.5230	13.0000
 3.5250	12.9500
 3.5270	12.8280
 3.5300	12.8770
 3.5320	12.8980
 3.5350	12.8510
 3.5370	12.8190
 3.5400	12.7250
 3.5420	12.7040
 3.5440	12.7810
 3.5470	12.7560
 3.5490	12.7170
 3.5520	12.7170
 3.5540	12.7770
 3.5570	12.7860
 3.5590	12.7990
 3.5610	12.7180
 3.5640	12.7380
 3.5660	12.7560
 3.5690	12.7640
 3.5710	12.7870
 3.5740	12.8380
 3.5760	12.8110
 3.5790	12.6920
 3.5810	12.6550
 3.5840	12.7770
 3.5860	12.8480
 3.5890	12.7750
 3.5910	12.5860
 3.5930	12.5990
 3.5960	12.7160
 3.5980	12.8380
 3.6010	12.8190
 3.6030	12.7120
 3.6060	12.6420
 3.6080	12.7230
 3.6110	12.6950
 3.6140	12.6500
 3.6160	12.6800
 3.6190	12.7560
 3.6210	12.7080
 3.6240	12.7150
 3.6260	12.8020
 3.6290	12.8540
 3.6310	12.7890
 3.6340	12.7860
 3.6360	12.7770
 3.6390	12.8250
 3.6410	12.7530
 3.6440	12.7370
 3.6470	12.8000
 3.6490	12.8050
 3.6520	12.7750
 3.6540	12.8300
 3.6570	12.8240
 3.6590	12.8040
 3.6620	12.8010
 3.6650	12.8130
 3.6670	12.7540
 3.6700	12.7980
 3.6720	12.8360
 3.6750	12.8570
 3.6780	12.7750
 3.6800	12.7570
 3.6830	12.7570
 3.6850	12.7640
 3.6880	12.7860
 3.6910	12.8620
 3.6930	12.8490
 3.6960	12.7980
 3.6990	12.7500
 3.7010	12.7500
 3.7040	12.7540
 3.7060	12.8410
 3.7090	12.8570
 3.7120	12.8410
 3.7140	12.8590
 3.7170	12.8910
 3.7200	12.8190
 3.7220	12.8080
 3.7250	12.8310
 3.7280	12.9000
 3.7300	12.8700
 3.7330	12.8480
 3.7360	12.8250
 3.7390	12.8460
 3.7410	12.8350
 3.7440	12.7950
 3.7470	12.8280
 3.7490	12.8910
 3.7520	12.9120
 3.7550	12.9650
 3.7580	12.9170
 3.7600	12.9570
 3.7630	12.9310
 3.7660	12.9000
 3.7680	12.9170
 3.7710	12.9570
 3.7740	12.9040
 3.7770	12.8910
 3.7790	12.9240
 3.7820	12.9090
 3.7850	12.9380
 3.7880	13.0520
 3.7900	12.9780
 3.7930	12.9030
 3.7960	12.8860
 3.7990	12.9200
 3.8020	12.9320
 3.8040	12.9390
 3.8070	12.9030
 3.8100	12.9340
 3.8130	12.9390
 3.8160	13.0060
 3.8180	12.9710
 3.8210	12.9040
 3.8240	12.8940
 3.8270	12.9410
 3.8300	12.9290
 3.8330	12.9100
 3.8350	12.8790
 3.8380	12.9190
 3.8410	12.9370
 3.8440	12.9650
 3.8470	12.9740
 3.8500	12.9910
 3.8520	12.9610
 3.8550	12.9800
 3.8580	12.9820
 3.8610	12.9400
 3.8640	12.8990
 3.8670	12.9360
 3.8700	12.9670
 3.8730	12.9760
 3.8750	12.9690
 3.8780	12.9920
 3.8810	12.9550
 3.8840	13.0080
 3.8870	13.1010
 3.8900	13.1060
 3.8930	13.0250
 3.8960	12.9970
 3.8990	12.9790
 3.9020	13.0040
 3.9050	13.0160
 3.9080	13.0160
 3.9110	13.0160
 3.9140	13.0240
 3.9160	12.9560
 3.9190	12.9790
 3.9220	12.9970
 3.9250	13.0170
 3.9280	12.9730
 3.9310	12.9860
 3.9340	13.0280
 3.9370	13.0140
 3.9400	13.0220
 3.9430	13.0330
 3.9460	12.9920
 3.9490	13.0350
 3.9520	13.0650
 3.9550	13.0680
 3.9580	13.0520
 3.9610	13.0130
 3.9640	12.9920
 3.9670	13.0710
 3.9700	13.0480
 3.9730	13.0090
 3.9770	12.9900
 3.9800	13.0240
 3.9830	12.9910
 3.9860	13.0340
 3.9890	13.0310
 3.9920	13.0340
 3.9950	12.9830
 3.9980	12.9780
 4.0010	13.0090
 4.0040	13.0270
 4.0070	12.9760
 4.0100	12.9750
 4.0130	12.9700
 4.0170	12.9790
 4.0200	13.0350
 4.0230	13.0330
 4.0260	13.0380
 4.0290	13.0940
 4.0320	13.0410
 4.0350	12.9800
 4.0380	12.9660
 4.0420	12.9480
 4.0450	12.9300
 4.0480	12.9360
 4.0510	12.9770
 4.0540	13.0430
 4.0570	13.0580
 4.0610	13.0390
 4.0640	12.9900
 4.0670	12.9560
 4.0700	12.9790
 4.0730	13.0740
 4.0770	13.0180
 4.0800	12.9430
 4.0830	12.9550
 4.0860	13.0150
 4.0890	13.0110
 4.0930	13.0170
 4.0960	12.9100
 4.0990	12.8950
 4.1020	12.9450
 4.1060	12.9590
 4.1090	12.9510
 4.1120	12.9420
 4.1150	12.9280
 4.1190	12.9550
 4.1220	12.9680
 4.1250	12.9860
 4.1280	12.9390
 4.1320	12.9320
 4.1350	12.9240
 4.1380	12.9460
 4.1420	12.9770
 4.1450	12.9950
 4.1480	12.9030
 4.1520	12.8940
 4.1550	12.9380
 4.1580	12.9570
 4.1620	12.9590
 4.1650	12.9570
 4.1680	12.9020
 4.1720	12.9440
 4.1750	12.9370
 4.1780	12.9000
 4.1820	12.9280
 4.1850	12.9510
 4.1890	12.9670
 4.1920	12.9500
 4.1950	12.8990
 4.1990	12.8930
 4.2020	12.8820
 4.2060	12.9290
 4.2090	12.9690
 4.2120	13.0720
 4.2160	13.0570
 4.2190	13.0130
 4.2230	13.0780
 4.2260	13.2470
 4.2300	13.1480
 4.2330	12.9910
 4.2360	12.8740
 4.2400	13.0250
 4.2430	13.3370
 4.2470	13.4100
 4.2500	13.2090
 4.2540	13.0870
 4.2570	12.9930
 4.2610	13.0630
 4.2640	13.2190
 4.2680	13.2790
 4.2710	13.2340
 4.2750	13.2280
 4.2780	13.1300
 4.2820	13.0750
 4.2850	12.9740
 4.2890	12.9570
 4.2930	12.9990
 4.2960	13.0260
 4.3000	12.9280
 4.3030	12.9280
 4.3070	12.9250
 4.3100	13.0040
 4.3140	13.0080
 4.3180	12.9580
 4.3210	12.9730
 4.3250	12.9520
 4.3280	12.7990
 4.3320	12.7720
 4.3360	12.8610
 4.3390	12.8740
 4.3430	12.8200
 4.3470	12.8040
 4.3500	12.7950
 4.3540	12.8170
 4.3570	12.8010
 4.3610	12.8220
 4.3650	12.7850
 4.3680	12.7330
 4.3720	12.7530
 4.3760	12.7640
 4.3800	12.7460
 4.3830	12.6980
 4.3870	12.6940
 4.3910	12.7610
 4.3940	12.7960
 4.3980	12.7830
 4.4020	12.8090
 4.4060	12.8080
 4.4090	12.7770
 4.4130	12.7780
 4.4170	12.7640
 4.4210	12.7380
 4.4240	12.7610
 4.4280	12.7820
 4.4320	12.7340
 4.4360	12.6870
 4.4400	12.6950
 4.4430	12.7150
 4.4470	12.7390
 4.4510	12.7280
 4.4550	12.7010
 4.4590	12.7210
 4.4620	12.7520
 4.4660	12.7610
 4.4700	12.7190
 4.4740	12.6720
 4.4780	12.6540
 4.4820	12.6320
 4.4860	12.6250
 4.4900	12.6170
 4.4930	12.6590
 4.4970	12.6790
 4.5010	12.5870
 4.5050	12.5640
 4.5090	12.6050
 4.5130	12.6140
 4.5170	12.6200
 4.5210	12.6540
 4.5250	12.6820
 4.5290	12.6620
 4.5330	12.6640
 4.5370	12.6330
 4.5410	12.5950
 4.5450	12.6140
 4.5490	12.6330
 4.5530	12.6380
 4.5570	12.6280
 4.5610	12.6030
 4.5650	12.5860
 4.5690	12.5850
 4.5730	12.6220
 4.5770	12.6150
 4.5810	12.6180
 4.5850	12.6490
 4.5890	12.6610
 4.5930	12.6300
 4.5970	12.5780
 4.6010	12.5950
 4.6050	12.6380
 4.6090	12.6500
 4.6130	12.6580
 4.6170	12.6660
 4.6220	12.6550
 4.6260	12.6080
 4.6300	12.5540
 4.6340	12.5270
 4.6380	12.5010
 4.6420	12.5130
 4.6460	12.5390
 4.6510	12.5700
 4.6550	12.5750
 4.6590	12.5920
 4.6630	12.6100
 4.6670	12.6070
 4.6720	12.5720
 4.6760	12.5300
 4.6800	12.5790
 4.6840	12.6340
 4.6880	12.5780
 4.6930	12.5300
 4.6970	12.5540
 4.7010	12.6320
 4.7050	12.6680
 4.7100	12.6500
 4.7140	12.6350
 4.7180	12.6290
 4.7230	12.5980
 4.7270	12.5610
 4.7310	12.5910
 4.7360	12.6030
 4.7400	12.5860
 4.7440	12.6320
 4.7490	12.6200
 4.7530	12.5910
 4.7570	12.6160
 4.7620	12.6100
 4.7660	12.5780
 4.7700	12.5570
 4.7750	12.5150
 4.7790	12.5250
 4.7840	12.5790
 4.7880	12.6500
 4.7920	12.6910
 4.7970	12.6540
 4.8010	12.6350
 4.8060	12.6200
 4.8100	12.5920
 4.8150	12.5750
 4.8190	12.5970
 4.8240	12.6180
 4.8280	12.5900
 4.8330	12.5670
 4.8370	12.6040
 4.8420	12.6080
 4.8460	12.5890
 4.8510	12.5850
 4.8550	12.6080
 4.8600	12.6070
 4.8640	12.6220
 4.8690	12.6640
 4.8730	12.6770
 4.8780	12.6130
 4.8830	12.6130
 4.8870	12.6370
 4.8920	12.6830
 4.8960	12.7180
 4.9010	12.7130
 4.9060	12.6670
 4.9100	12.6610
 4.9150	12.7150
 4.9200	12.7280
 4.9240	12.7060
 4.9290	12.6530
 4.9340	12.6370
 4.9380	12.7000
 4.9430	12.7230
 4.9480	12.7110
 4.9530	12.7490
 4.9570	12.7770
 4.9620	12.7870
 4.9670	12.7900
 4.9720	12.7220
 4.9760	12.7170
 4.9810	12.7660
 4.9860	12.7600
 4.9910	12.7810
 4.9960	12.7810
 5.0000	12.7720
 5.0050	12.8110
 5.0100	12.8080
 5.0150	12.8030
 5.0200	12.7990
 5.0250	12.7320
 5.0290	12.7290
 5.0340	12.7660
 5.0390	12.7260
 5.0440	12.8030
 5.0490	12.8610
 5.0540	12.8860
 5.0590	12.8670
 5.0640	12.8560
 5.0690	12.8160
 5.0740	12.7830
 5.0790	12.8400
 5.0840	12.8600
 5.0890	12.8550
 5.0940	12.8770
 5.0990	12.8110
 5.1040	12.6950
 5.1090	12.6760
 5.1140	12.7460
 5.1190	12.7760
 5.1240	12.7830
 5.1290	12.8150
 5.1340	12.8130
 5.1390	12.8090
 5.1440	12.8180
 5.1490	12.8370
 5.1540	12.8880
 5.1600	12.8330
 5.1650	12.8010
 5.1700	12.8190
 5.1750	12.8030
 5.1800	12.7810
 5.1850	12.8170
 5.1910	12.8510
 5.1960	12.8500
 5.2010	12.8520
 5.2060	12.8840
 5.2110	12.8570
 5.2170	12.8480
 5.2220	12.8310
 5.2270	12.8410
 5.2320	12.8700
 5.2380	12.9230
 5.2430	12.9000
 5.2480	12.8440
 5.2540	12.8580
 5.2590	12.8840
 5.2640	12.8700
 5.2700	12.8550
 5.2750	12.8400
 5.2800	12.8230
 5.2860	12.7610
 5.2910	12.7810
 5.2970	12.8520
 5.3020	12.9080
 5.3070	12.8700
 5.3130	12.8030
 5.3180	12.7870
 5.3240	12.8410
 5.3290	12.8470
 5.3350	12.8270
 5.3400	12.8400
 5.3460	12.8710
 5.3510	12.8690
 5.3570	12.8800
 5.3620	12.8160
 5.3680	12.7830
 5.3730	12.7500
 5.3790	12.7960
 5.3850	12.8250
 5.3900	12.8720
 5.3960	12.8380
 5.4010	12.7720
 5.4070	12.7920
 5.4130	12.8520
 5.4180	12.8120
 5.4240	12.7680
 5.4300	12.7230
 5.4350	12.7150
