Name: Prunus serotina
Type: Vegetation
Class: Tree
Genus: Prunus
Species: serotina
Sample No.: PRSE-2-65
Owner: UCSB
Wavelength Range: TIR
Origin: USA; Massachusetts; Harvard Forest
Collection Date: 7/8/2013
Description: Samples were collected as part of NSF Macrosystem Biology proposal titled: Collaborative Research: Thermal controls on ecosystem metabolism and function: scaling from leaves to canopies to regions. Samples were collected and overnighted to JPL facilities for processing. The same leaves were processed in the Nicolet and then measured using the ASD.
Measurement: Hemispherical reflectance
First Column: X
Second Column: Y
X Units: Wavelength (micrometers)
Y Units: Reflectance (percentage)
First X Value: 2.501
Last X Value: 15.387
Number of X Values: 1737
Additional Information: vegetation.tree.prunus.serotina.tir.prse-2-65.ucsb.nicolet.ancillary.txt

 2.5010	 9.3810
 2.5030	 9.8250
 2.5040	 9.7960
 2.5050	 9.2880
 2.5060	 9.1490
 2.5070	 9.2430
 2.5090	 9.3470
 2.5100	 9.2100
 2.5110	 9.1170
 2.5120	 9.2520
 2.5140	 9.2680
 2.5150	 9.0890
 2.5160	 9.1900
 2.5170	 9.1960
 2.5180	 9.2470
 2.5200	 9.3490
 2.5210	 9.1590
 2.5220	 8.8430
 2.5230	 8.9420
 2.5250	 8.9140
 2.5260	 8.8620
 2.5270	 8.8770
 2.5280	 8.9510
 2.5290	 9.1850
 2.5310	 9.3850
 2.5320	 9.2270
 2.5330	 9.1780
 2.5340	 9.3290
 2.5360	 9.5400
 2.5370	 9.3510
 2.5380	 9.1020
 2.5390	 9.0660
 2.5410	 9.1740
 2.5420	 8.9070
 2.5430	 8.7410
 2.5440	 8.7130
 2.5460	 8.8220
 2.5470	 8.9520
 2.5480	 9.0600
 2.5490	 8.9250
 2.5510	 9.0390
 2.5520	 9.2310
 2.5530	 9.3460
 2.5540	 9.2160
 2.5560	 9.1300
 2.5570	 9.0660
 2.5580	 9.1280
 2.5590	 9.2910
 2.5610	 9.4280
 2.5620	 9.3110
 2.5630	 9.1140
 2.5640	 9.0160
 2.5660	 9.0510
 2.5670	 8.8790
 2.5680	 8.9360
 2.5700	 8.8970
 2.5710	 9.0460
 2.5720	 9.1720
 2.5730	 9.1760
 2.5750	 9.0400
 2.5760	 9.0430
 2.5770	 9.0490
 2.5790	 9.0120
 2.5800	 8.8460
 2.5810	 8.6740
 2.5820	 8.7750
 2.5840	 8.8870
 2.5850	 8.6910
 2.5860	 8.5590
 2.5880	 8.5610
 2.5890	 8.5790
 2.5900	 8.4190
 2.5910	 8.4660
 2.5930	 8.2830
 2.5940	 8.5850
 2.5950	 8.8400
 2.5970	 8.7850
 2.5980	 8.6040
 2.5990	 8.5370
 2.6000	 8.2610
 2.6020	 8.2500
 2.6030	 8.4320
 2.6040	 8.3990
 2.6060	 8.0990
 2.6070	 7.9550
 2.6080	 7.8450
 2.6100	 7.8380
 2.6110	 7.7580
 2.6120	 7.8750
 2.6140	 7.7320
 2.6150	 7.6930
 2.6160	 7.5520
 2.6180	 7.5660
 2.6190	 7.4730
 2.6200	 7.3420
 2.6220	 7.2090
 2.6230	 7.1080
 2.6240	 7.0040
 2.6260	 6.9860
 2.6270	 7.1290
 2.6280	 7.3740
 2.6300	 7.1990
 2.6310	 6.6530
 2.6320	 6.2720
 2.6340	 6.5140
 2.6350	 6.5270
 2.6360	 6.5640
 2.6380	 6.3400
 2.6390	 6.1460
 2.6400	 5.9290
 2.6420	 5.7100
 2.6430	 5.6670
 2.6440	 5.8990
 2.6460	 6.0900
 2.6470	 5.9850
 2.6480	 5.6330
 2.6500	 5.5310
 2.6510	 5.7190
 2.6520	 5.7900
 2.6540	 5.4320
 2.6550	 5.3230
 2.6560	 5.3150
 2.6580	 5.4540
 2.6590	 5.3320
 2.6610	 5.2350
 2.6620	 5.1340
 2.6630	 4.9300
 2.6650	 4.7720
 2.6660	 4.9580
 2.6670	 5.0510
 2.6690	 4.9600
 2.6700	 4.7360
 2.6720	 4.5680
 2.6730	 4.5620
 2.6740	 4.6590
 2.6760	 4.5990
 2.6770	 4.5820
 2.6780	 4.4150
 2.6800	 4.3020
 2.6810	 4.2510
 2.6830	 4.2740
 2.6840	 4.1960
 2.6850	 4.1740
 2.6870	 4.2260
 2.6880	 4.1680
 2.6900	 3.7660
 2.6910	 3.6560
 2.6920	 3.7340
 2.6940	 3.7380
 2.6950	 3.7630
 2.6970	 3.8850
 2.6980	 3.9190
 2.6990	 3.9400
 2.7010	 4.0000
 2.7020	 3.7550
 2.7040	 3.5840
 2.7050	 3.7080
 2.7060	 3.5560
 2.7080	 3.5170
 2.7090	 3.5900
 2.7110	 3.6490
 2.7120	 3.5010
 2.7130	 3.5760
 2.7150	 3.6410
 2.7160	 3.5570
 2.7180	 3.5490
 2.7190	 3.6060
 2.7210	 3.3020
 2.7220	 3.3210
 2.7230	 3.4400
 2.7250	 3.6660
 2.7260	 3.6250
 2.7280	 3.4250
 2.7290	 3.5280
 2.7310	 3.4370
 2.7320	 3.2200
 2.7330	 3.3410
 2.7350	 3.3360
 2.7360	 3.4600
 2.7380	 3.2700
 2.7390	 3.2740
 2.7410	 3.6790
 2.7420	 4.0230
 2.7440	 3.9030
 2.7450	 3.6770
 2.7470	 3.3180
 2.7480	 3.4930
 2.7490	 4.0170
 2.7510	 4.2110
 2.7520	 3.5080
 2.7540	 3.1570
 2.7550	 3.1880
 2.7570	 3.6680
 2.7580	 3.4500
 2.7600	 3.2120
 2.7610	 3.5520
 2.7630	 3.6430
 2.7640	 3.1740
 2.7660	 3.0850
 2.7670	 3.6300
 2.7680	 3.8190
 2.7700	 3.7860
 2.7710	 4.1440
 2.7730	 3.9380
 2.7740	 3.5830
 2.7760	 3.3830
 2.7770	 3.4520
 2.7790	 3.6570
 2.7800	 3.8200
 2.7820	 3.7690
 2.7830	 3.6760
 2.7850	 3.4410
 2.7860	 3.5500
 2.7880	 3.8240
 2.7890	 3.6670
 2.7910	 3.4830
 2.7920	 3.7770
 2.7940	 3.9130
 2.7950	 3.6790
 2.7970	 3.4900
 2.7980	 3.6670
 2.8000	 3.8960
 2.8010	 3.8970
 2.8030	 3.6850
 2.8040	 3.9090
 2.8060	 4.1290
 2.8070	 4.1540
 2.8090	 3.8440
 2.8110	 3.8270
 2.8120	 3.8720
 2.8140	 3.9520
 2.8150	 3.8640
 2.8170	 3.9290
 2.8180	 3.8700
 2.8200	 3.7020
 2.8210	 3.6480
 2.8230	 3.8210
 2.8240	 3.9010
 2.8260	 3.8900
 2.8270	 3.8430
 2.8290	 4.0230
 2.8300	 4.0980
 2.8320	 3.9100
 2.8340	 3.8150
 2.8350	 4.2360
 2.8370	 4.2120
 2.8380	 4.1160
 2.8400	 4.0590
 2.8410	 4.0460
 2.8430	 3.7550
 2.8440	 3.6450
 2.8460	 3.7370
 2.8480	 3.8780
 2.8490	 3.8810
 2.8510	 3.9890
 2.8520	 3.8680
 2.8540	 3.7910
 2.8550	 3.8080
 2.8570	 4.0080
 2.8590	 3.9690
 2.8600	 4.0740
 2.8620	 4.0880
 2.8630	 4.1510
 2.8650	 4.0600
 2.8660	 4.0350
 2.8680	 4.1460
 2.8700	 4.3530
 2.8710	 4.3910
 2.8730	 4.2250
 2.8740	 4.0910
 2.8760	 4.5720
 2.8780	 4.6710
 2.8790	 4.6750
 2.8810	 4.5030
 2.8820	 4.2620
 2.8840	 4.0820
 2.8860	 4.0780
 2.8870	 3.9640
 2.8890	 3.7410
 2.8900	 3.7960
 2.8920	 4.0610
 2.8940	 4.1830
 2.8950	 4.3410
 2.8970	 4.1470
 2.8980	 4.0500
 2.9000	 4.0920
 2.9020	 4.0970
 2.9030	 3.9340
 2.9050	 3.9960
 2.9070	 4.0600
 2.9080	 4.0890
 2.9100	 3.9820
 2.9120	 4.1240
 2.9130	 4.1970
 2.9150	 4.2070
 2.9160	 3.9260
 2.9180	 3.9260
 2.9200	 4.2230
 2.9210	 4.4370
 2.9230	 4.3390
 2.9250	 4.0830
 2.9260	 3.9100
 2.9280	 4.2290
 2.9300	 4.3430
 2.9310	 4.2340
 2.9330	 3.9570
 2.9350	 3.7920
 2.9360	 3.8180
 2.9380	 4.1870
 2.9400	 4.5300
 2.9410	 4.7960
 2.9430	 4.3320
 2.9450	 3.9320
 2.9460	 3.8660
 2.9480	 4.2770
 2.9500	 4.8160
 2.9510	 4.5330
 2.9530	 4.1580
 2.9550	 3.8940
 2.9560	 4.0010
 2.9580	 4.7430
 2.9600	 4.6490
 2.9610	 4.6180
 2.9630	 5.2630
 2.9650	 5.0810
 2.9660	 4.9030
 2.9680	 5.9800
 2.9700	 4.7120
 2.9720	 3.4650
 2.9730	 4.0470
 2.9750	 4.3090
 2.9770	 4.8740
 2.9780	 5.6830
 2.9800	 4.5420
 2.9820	 3.7920
 2.9840	 3.5490
 2.9850	 2.4790
 2.9870	 2.6780
 2.9890	 4.2270
 2.9900	 4.2370
 2.9920	 2.3090
 2.9940	 0.3870
 2.9960	 1.3360
 2.9970	 3.3260
 2.9990	 5.3750
 3.0010	 5.6400
 3.0030	 4.0060
 3.0040	 4.0950
 3.0060	 4.3410
 3.0080	 3.8060
 3.0100	 3.6400
 3.0110	 3.3110
 3.0130	 5.0410
 3.0150	 3.9250
 3.0170	 2.9910
 3.0180	 4.9650
 3.0200	 4.6580
 3.0220	 3.7980
 3.0240	 3.8420
 3.0250	 4.4460
 3.0270	 4.2150
 3.0290	 3.9200
 3.0310	 3.6480
 3.0320	 4.1770
 3.0340	 4.0050
 3.0360	 2.7140
 3.0380	 3.3150
 3.0400	 4.8900
 3.0410	 5.3310
 3.0430	 4.5260
 3.0450	 4.3630
 3.0470	 6.0330
 3.0480	 5.6490
 3.0500	 4.0260
 3.0520	 5.0790
 3.0540	 3.7710
 3.0560	 2.3320
 3.0570	 6.1470
 3.0590	 6.4190
 3.0610	 4.2790
 3.0630	 4.3180
 3.0650	 4.0870
 3.0660	 3.2190
 3.0680	 4.3350
 3.0700	 5.0470
 3.0720	 4.5330
 3.0740	 3.9800
 3.0760	 3.6250
 3.0770	 3.7270
 3.0790	 3.7630
 3.0810	 3.9570
 3.0830	 3.7620
 3.0850	 3.6430
 3.0870	 3.6300
 3.0880	 3.6570
 3.0900	 3.6760
 3.0920	 3.7170
 3.0940	 3.6820
 3.0960	 3.3290
 3.0980	 3.3110
 3.0990	 3.7750
 3.1010	 3.9750
 3.1030	 3.7870
 3.1050	 3.9870
 3.1070	 4.4210
 3.1090	 4.1930
 3.1110	 4.2370
 3.1120	 4.4260
 3.1140	 4.5590
 3.1160	 4.1300
 3.1180	 3.4320
 3.1200	 2.9490
 3.1220	 2.9350
 3.1240	 3.1030
 3.1260	 3.4580
 3.1270	 3.5440
 3.1290	 3.3430
 3.1310	 3.5270
 3.1330	 3.9050
 3.1350	 4.4410
 3.1370	 3.9850
 3.1390	 3.4630
 3.1410	 2.8990
 3.1430	 2.7130
 3.1450	 2.9200
 3.1460	 4.6150
 3.1480	 5.0990
 3.1500	 3.2970
 3.1520	 4.4460
 3.1540	 3.6740
 3.1560	 2.7570
 3.1580	 4.4600
 3.1600	 5.3110
 3.1620	 4.3580
 3.1640	 3.9150
 3.1660	 4.2560
 3.1680	 2.8630
 3.1700	 2.4110
 3.1710	 5.2980
 3.1730	 6.8030
 3.1750	 5.3640
 3.1770	 4.5450
 3.1790	 5.3900
 3.1810	 5.8410
 3.1830	 6.0110
 3.1850	 4.3930
 3.1870	 2.6400
 3.1890	 2.4270
 3.1910	 3.2200
 3.1930	 3.4660
 3.1950	 3.4250
 3.1970	 3.2210
 3.1990	 3.2140
 3.2010	 3.4600
 3.2030	 3.5220
 3.2050	 3.1840
 3.2070	 3.1620
 3.2090	 3.2950
 3.2110	 3.4450
 3.2130	 3.1550
 3.2150	 2.8500
 3.2170	 2.9500
 3.2190	 3.1910
 3.2210	 3.1760
 3.2230	 3.2980
 3.2250	 3.3730
 3.2270	 3.3000
 3.2290	 3.2250
 3.2310	 3.0580
 3.2330	 2.8690
 3.2350	 3.2270
 3.2370	 3.2640
 3.2390	 3.1250
 3.2410	 2.9670
 3.2430	 2.9750
 3.2450	 2.9640
 3.2470	 2.7870
 3.2490	 2.5880
 3.2510	 2.7620
 3.2530	 2.9030
 3.2550	 2.9380
 3.2570	 3.0380
 3.2590	 3.0750
 3.2610	 3.0620
 3.2630	 3.3770
 3.2650	 3.0960
 3.2670	 3.0020
 3.2690	 2.8900
 3.2720	 2.8540
 3.2740	 3.2000
 3.2760	 3.3580
 3.2780	 3.0530
 3.2800	 3.1130
 3.2820	 3.3010
 3.2840	 3.1500
 3.2860	 2.9290
 3.2880	 2.9940
 3.2900	 2.7750
 3.2920	 2.8280
 3.2940	 3.1130
 3.2960	 3.0500
 3.2990	 3.1550
 3.3010	 3.3330
 3.3030	 3.2270
 3.3050	 2.9720
 3.3070	 2.8270
 3.3090	 3.0780
 3.3110	 3.2020
 3.3130	 3.0000
 3.3150	 2.8540
 3.3180	 2.9340
 3.3200	 2.7600
 3.3220	 2.7900
 3.3240	 2.9180
 3.3260	 3.0350
 3.3280	 3.1740
 3.3300	 3.1780
 3.3330	 2.9290
 3.3350	 2.7960
 3.3370	 2.6780
 3.3390	 2.7730
 3.3410	 2.6840
 3.3430	 2.7790
 3.3450	 2.7210
 3.3480	 2.7140
 3.3500	 2.6100
 3.3520	 2.7510
 3.3540	 2.6840
 3.3560	 2.6940
 3.3580	 2.8090
 3.3610	 2.8900
 3.3630	 2.7880
 3.3650	 2.8540
 3.3670	 2.7730
 3.3690	 2.8020
 3.3720	 2.8220
 3.3740	 2.8180
 3.3760	 2.6250
 3.3780	 2.6220
 3.3800	 2.6980
 3.3830	 2.8280
 3.3850	 2.8180
 3.3870	 2.8380
 3.3890	 2.9900
 3.3910	 3.1040
 3.3940	 2.8140
 3.3960	 2.6980
 3.3980	 2.5760
 3.4000	 2.6750
 3.4020	 2.8120
 3.4050	 2.7540
 3.4070	 2.7000
 3.4090	 2.7910
 3.4110	 2.7660
 3.4140	 3.0130
 3.4160	 3.1760
 3.4180	 3.2460
 3.4200	 3.2730
 3.4230	 3.4610
 3.4250	 3.5520
 3.4270	 3.6100
 3.4290	 3.6820
 3.4320	 3.7760
 3.4340	 3.5740
 3.4360	 3.3180
 3.4390	 3.2840
 3.4410	 3.3320
 3.4430	 3.3190
 3.4450	 3.4800
 3.4480	 3.6360
 3.4500	 3.7810
 3.4520	 3.6930
 3.4550	 3.2960
 3.4570	 3.3590
 3.4590	 3.4960
 3.4620	 3.1490
 3.4640	 3.3080
 3.4660	 3.5350
 3.4680	 3.6720
 3.4710	 3.4820
 3.4730	 3.2850
 3.4750	 3.2170
 3.4780	 3.1870
 3.4800	 3.2340
 3.4820	 3.3910
 3.4850	 3.3480
 3.4870	 3.2810
 3.4890	 3.1060
 3.4920	 3.1710
 3.4940	 3.1810
 3.4970	 3.2640
 3.4990	 3.3720
 3.5010	 3.5210
 3.5040	 3.5390
 3.5060	 3.5230
 3.5080	 3.7420
 3.5110	 3.9690
 3.5130	 3.6710
 3.5160	 3.5660
 3.5180	 3.5220
 3.5200	 3.4040
 3.5230	 3.2160
 3.5250	 3.3380
 3.5270	 3.5730
 3.5300	 3.7330
 3.5320	 3.6210
 3.5350	 3.6500
 3.5370	 3.6600
 3.5400	 3.6380
 3.5420	 3.4620
 3.5440	 3.4630
 3.5470	 3.4110
 3.5490	 3.4240
 3.5520	 3.3670
 3.5540	 3.4770
 3.5570	 3.6130
 3.5590	 3.4880
 3.5610	 3.3640
 3.5640	 3.3700
 3.5660	 3.3420
 3.5690	 3.2670
 3.5710	 3.1810
 3.5740	 3.2760
 3.5760	 3.5410
 3.5790	 3.6370
 3.5810	 3.5460
 3.5840	 3.6040
 3.5860	 3.5940
 3.5890	 3.4970
 3.5910	 3.4080
 3.5930	 3.3810
 3.5960	 3.4920
 3.5980	 3.5220
 3.6010	 3.5190
 3.6030	 3.8910
 3.6060	 3.9450
 3.6080	 3.5570
 3.6110	 3.1960
 3.6140	 3.2960
 3.6160	 3.5600
 3.6190	 3.5510
 3.6210	 3.3320
 3.6240	 3.3030
 3.6260	 3.3300
 3.6290	 3.4520
 3.6310	 3.5640
 3.6340	 3.5810
 3.6360	 3.4900
 3.6390	 3.5630
 3.6410	 3.5540
 3.6440	 3.5480
 3.6470	 3.6550
 3.6490	 3.6250
 3.6520	 3.5820
 3.6540	 3.6050
 3.6570	 3.6130
 3.6590	 3.7720
 3.6620	 3.6960
 3.6650	 3.5550
 3.6670	 3.5940
 3.6700	 3.6770
 3.6720	 3.5490
 3.6750	 3.5450
 3.6780	 3.6800
 3.6800	 3.7950
 3.6830	 3.8060
 3.6850	 3.7550
 3.6880	 3.7420
 3.6910	 3.7240
 3.6930	 3.6560
 3.6960	 3.6660
 3.6990	 3.7440
 3.7010	 3.6850
 3.7040	 3.7870
 3.7060	 3.8590
 3.7090	 3.7700
 3.7120	 3.6840
 3.7140	 3.6390
 3.7170	 3.7830
 3.7200	 3.8680
 3.7220	 3.9090
 3.7250	 4.0210
 3.7280	 4.1390
 3.7300	 4.0800
 3.7330	 4.0050
 3.7360	 3.9250
 3.7390	 3.8420
 3.7410	 3.7490
 3.7440	 3.9040
 3.7470	 4.0590
 3.7490	 4.0870
 3.7520	 3.9940
 3.7550	 4.0290
 3.7580	 4.0970
 3.7600	 4.1570
 3.7630	 4.1890
 3.7660	 4.1850
 3.7680	 4.0510
 3.7710	 3.9200
 3.7740	 3.8100
 3.7770	 3.8800
 3.7790	 4.0290
 3.7820	 4.1940
 3.7850	 4.1930
 3.7880	 4.3030
 3.7900	 4.3550
 3.7930	 4.3110
 3.7960	 4.1990
 3.7990	 4.2010
 3.8020	 4.3470
 3.8040	 4.5140
 3.8070	 4.6320
 3.8100	 4.5330
 3.8130	 4.3160
 3.8160	 4.2050
 3.8180	 4.2440
 3.8210	 4.4660
 3.8240	 4.3130
 3.8270	 4.2800
 3.8300	 4.3150
 3.8330	 4.3920
 3.8350	 4.4660
 3.8380	 4.4500
 3.8410	 4.3600
 3.8440	 4.2740
 3.8470	 4.2660
 3.8500	 4.4120
 3.8520	 4.5820
 3.8550	 4.4940
 3.8580	 4.4080
 3.8610	 4.5640
 3.8640	 4.6440
 3.8670	 4.5060
 3.8700	 4.4800
 3.8730	 4.5880
 3.8750	 4.5400
 3.8780	 4.5770
 3.8810	 4.6730
 3.8840	 4.7180
 3.8870	 4.5880
 3.8900	 4.5790
 3.8930	 4.5810
 3.8960	 4.6540
 3.8990	 4.8230
 3.9020	 4.9010
 3.9050	 4.8220
 3.9080	 4.8190
 3.9110	 4.5960
 3.9140	 4.5520
 3.9160	 4.6410
 3.9190	 4.7210
 3.9220	 4.7600
 3.9250	 4.7780
 3.9280	 4.6350
 3.9310	 4.6370
 3.9340	 4.6400
 3.9370	 4.7200
 3.9400	 4.7860
 3.9430	 4.7320
 3.9460	 4.7450
 3.9490	 4.7970
 3.9520	 4.6870
 3.9550	 4.6760
 3.9580	 4.6300
 3.9610	 4.5860
 3.9640	 4.6690
 3.9670	 4.8030
 3.9700	 4.7920
 3.9730	 4.7750
 3.9770	 4.7300
 3.9800	 4.7070
 3.9830	 4.7340
 3.9860	 4.6710
 3.9890	 4.5600
 3.9920	 4.6840
 3.9950	 4.8330
 3.9980	 4.7920
 4.0010	 4.6460
 4.0040	 4.7460
 4.0070	 4.7830
 4.0100	 4.7590
 4.0130	 4.7190
 4.0170	 4.7870
 4.0200	 4.8110
 4.0230	 4.7080
 4.0260	 4.6010
 4.0290	 4.7580
 4.0320	 4.8140
 4.0350	 4.6780
 4.0380	 4.6140
 4.0420	 4.6920
 4.0450	 4.6930
 4.0480	 4.5180
 4.0510	 4.5040
 4.0540	 4.7470
 4.0570	 4.7210
 4.0610	 4.4920
 4.0640	 4.5250
 4.0670	 4.7790
 4.0700	 4.7500
 4.0730	 4.6120
 4.0770	 4.5040
 4.0800	 4.5640
 4.0830	 4.6130
 4.0860	 4.6020
 4.0890	 4.5280
 4.0930	 4.4650
 4.0960	 4.4350
 4.0990	 4.6390
 4.1020	 4.7360
 4.1060	 4.5520
 4.1090	 4.4390
 4.1120	 4.4310
 4.1150	 4.5270
 4.1190	 4.5570
 4.1220	 4.4570
 4.1250	 4.4160
 4.1280	 4.4950
 4.1320	 4.4460
 4.1350	 4.4180
 4.1380	 4.5270
 4.1420	 4.5190
 4.1450	 4.4810
 4.1480	 4.4050
 4.1520	 4.3940
 4.1550	 4.4200
 4.1580	 4.4200
 4.1620	 4.4010
 4.1650	 4.3470
 4.1680	 4.2730
 4.1720	 4.2380
 4.1750	 4.3320
 4.1780	 4.3830
 4.1820	 4.2740
 4.1850	 4.2300
 4.1890	 4.1320
 4.1920	 4.1640
 4.1950	 4.3060
 4.1990	 4.4180
 4.2020	 4.4990
 4.2060	 4.4780
 4.2090	 4.3370
 4.2120	 4.3340
 4.2160	 4.4270
 4.2190	 4.1830
 4.2230	 4.3010
 4.2260	 4.9640
 4.2300	 4.6700
 4.2330	 4.1040
 4.2360	 3.9970
 4.2400	 4.0650
 4.2430	 3.8430
 4.2470	 3.8340
 4.2500	 4.1520
 4.2540	 4.2880
 4.2570	 4.0860
 4.2610	 3.7730
 4.2640	 3.7050
 4.2680	 3.9050
 4.2710	 4.1370
 4.2750	 4.1600
 4.2780	 4.0750
 4.2820	 4.2510
 4.2850	 4.2260
 4.2890	 4.0630
 4.2930	 3.8930
 4.2960	 3.8830
 4.3000	 3.9130
 4.3030	 3.8150
 4.3070	 3.7250
 4.3100	 3.7150
 4.3140	 3.7510
 4.3180	 3.7750
 4.3210	 3.7580
 4.3250	 3.8480
 4.3280	 3.7490
 4.3320	 3.6600
 4.3360	 3.6340
 4.3390	 3.5770
 4.3430	 3.5920
 4.3470	 3.6690
 4.3500	 3.6950
 4.3540	 3.7640
 4.3570	 3.7430
 4.3610	 3.6680
 4.3650	 3.6390
 4.3680	 3.6620
 4.3720	 3.6750
 4.3760	 3.6690
 4.3800	 3.7290
 4.3830	 3.7760
 4.3870	 3.5550
 4.3910	 3.4550
 4.3940	 3.5100
 4.3980	 3.5780
 4.4020	 3.5400
 4.4060	 3.5550
 4.4090	 3.4910
 4.4130	 3.4830
 4.4170	 3.5410
 4.4210	 3.4480
 4.4240	 3.4300
 4.4280	 3.4510
 4.4320	 3.4430
 4.4360	 3.5770
 4.4400	 3.5800
 4.4430	 3.4480
 4.4470	 3.3620
 4.4510	 3.4790
 4.4550	 3.5420
 4.4590	 3.4210
 4.4620	 3.3790
 4.4660	 3.4310
 4.4700	 3.4400
 4.4740	 3.4280
 4.4780	 3.3930
 4.4820	 3.3700
 4.4860	 3.3030
 4.4900	 3.1900
 4.4930	 3.2120
 4.4970	 3.3430
 4.5010	 3.3680
 4.5050	 3.3560
 4.5090	 3.3000
 4.5130	 3.2600
 4.5170	 3.2560
 4.5210	 3.2210
 4.5250	 3.2230
 4.5290	 3.3150
 4.5330	 3.2990
 4.5370	 3.2400
 4.5410	 3.2200
 4.5450	 3.1680
 4.5490	 3.2390
 4.5530	 3.3940
 4.5570	 3.4680
 4.5610	 3.3930
 4.5650	 3.4290
 4.5690	 3.4160
 4.5730	 3.3540
 4.5770	 3.2540
 4.5810	 3.2330
 4.5850	 3.0790
 4.5890	 3.1550
 4.5930	 3.3600
 4.5970	 3.2700
 4.6010	 3.1710
 4.6050	 3.2630
 4.6090	 3.1620
 4.6130	 3.1230
 4.6170	 2.9760
 4.6220	 2.9820
 4.6260	 3.1130
 4.6300	 3.1250
 4.6340	 3.2510
 4.6380	 3.2230
 4.6420	 3.1980
 4.6460	 3.2090
 4.6510	 3.2830
 4.6550	 3.1780
 4.6590	 3.0400
 4.6630	 3.2130
 4.6670	 3.3180
 4.6720	 3.3830
 4.6760	 3.3260
 4.6800	 3.2010
 4.6840	 3.2610
 4.6880	 3.4450
 4.6930	 3.4230
 4.6970	 3.3240
 4.7010	 3.3340
 4.7050	 3.2170
 4.7100	 3.2160
 4.7140	 3.2660
 4.7180	 3.1660
 4.7230	 3.1110
 4.7270	 3.2550
 4.7310	 3.2800
 4.7360	 3.1870
 4.7400	 3.1730
 4.7440	 3.2110
 4.7490	 3.2750
 4.7530	 3.2380
 4.7570	 3.1010
 4.7620	 3.0420
 4.7660	 3.1520
 4.7700	 3.3150
 4.7750	 3.3820
 4.7790	 3.2720
 4.7840	 3.3400
 4.7880	 3.5820
 4.7920	 3.3550
 4.7970	 3.0640
 4.8010	 3.0540
 4.8060	 3.1950
 4.8100	 3.3170
 4.8150	 3.3080
 4.8190	 3.2470
 4.8240	 3.3450
 4.8280	 3.3160
 4.8330	 3.3370
 4.8370	 3.3940
 4.8420	 3.3630
 4.8460	 3.3420
 4.8510	 3.3540
 4.8550	 3.3940
 4.8600	 3.3920
 4.8640	 3.4100
 4.8690	 3.4220
 4.8730	 3.3540
 4.8780	 3.3620
 4.8830	 3.4220
 4.8870	 3.3430
 4.8920	 3.2880
 4.8960	 3.4450
 4.9010	 3.4690
 4.9060	 3.3740
 4.9100	 3.3770
 4.9150	 3.4480
 4.9200	 3.4530
 4.9240	 3.4210
 4.9290	 3.4050
 4.9340	 3.3510
 4.9380	 3.3560
 4.9430	 3.3190
 4.9480	 3.3420
 4.9530	 3.5200
 4.9570	 3.5210
 4.9620	 3.4340
 4.9670	 3.4400
 4.9720	 3.4830
 4.9760	 3.5070
 4.9810	 3.4530
 4.9860	 3.5850
 4.9910	 3.6650
 4.9960	 3.6470
 5.0000	 3.5660
 5.0050	 3.5300
 5.0100	 3.4850
 5.0150	 3.5220
 5.0200	 3.5580
 5.0250	 3.5440
 5.0290	 3.5680
 5.0340	 3.6490
 5.0390	 3.6770
 5.0440	 3.6490
 5.0490	 3.6720
 5.0540	 3.6850
 5.0590	 3.6170
 5.0640	 3.6310
 5.0690	 3.6170
 5.0740	 3.6410
 5.0790	 3.6700
 5.0840	 3.7540
 5.0890	 3.7700
 5.0940	 3.7800
 5.0990	 3.8150
 5.1040	 3.8880
 5.1090	 3.8550
 5.1140	 3.7540
 5.1190	 3.8090
 5.1240	 3.8760
 5.1290	 3.7400
 5.1340	 3.6800
 5.1390	 3.7610
 5.1440	 3.9260
 5.1490	 3.9170
 5.1540	 3.8760
 5.1600	 3.9390
 5.1650	 3.9940
 5.1700	 4.0390
 5.1750	 3.9690
 5.1800	 3.8670
 5.1850	 3.9350
 5.1910	 3.9500
 5.1960	 4.0670
 5.2010	 4.0600
 5.2060	 4.0100
 5.2110	 4.0370
 5.2170	 3.9710
 5.2220	 3.8620
 5.2270	 4.0420
 5.2320	 4.1470
 5.2380	 3.9920
 5.2430	 3.9090
 5.2480	 4.0080
 5.2540	 4.0010
 5.2590	 3.9830
 5.2640	 3.9680
 5.2700	 4.0190
 5.2750	 4.0480
 5.2800	 4.0650
 5.2860	 4.0010
 5.2910	 3.9970
 5.2970	 4.0040
 5.3020	 4.0410
 5.3070	 4.0080
 5.3130	 4.0490
 5.3180	 4.1090
 5.3240	 4.1220
 5.3290	 4.1690
 5.3350	 4.1990
 5.3400	 4.1500
 5.3460	 4.1120
 5.3510	 4.0790
 5.3570	 4.0750
 5.3620	 4.0790
 5.3680	 4.0890
 5.3730	 4.0430
 5.3790	 4.0430
 5.3850	 4.0410
 5.3900	 4.0500
 5.3960	 4.1360
 5.4010	 4.1340
 5.4070	 4.0150
 5.4130	 3.8720
 5.4180	 3.9410
 5.4240	 4.1450
 5.4300	 4.0470
 5.4350	 3.9870
 5.4410	 4.0070
 5.4470	 4.0690
 5.4530	 4.0100
