Name: Magnolia grandiflora
Type: vegetation
Class: Tree
Genus: Magnolia
Species: grandiflora
Sample No.: JPL132
Owner: JPL
Wavelength Range: VSWIR
Origin: 34.12854; -118.1149;; WGS84
Collection Date: 9/7/2016
Description: Samples were collected at the Huntington Garden in San Marino California as part of a JPL Subcontract studying HyTES imagery. Samples were taken to JPL and processed within 48 hours of collection. The same leaves were processed in the Nicolet and then measured using the ASD.
Measurement: Bidirectional reflectance
First Column: X
Second Column: Y
X Units: Wavelength (micrometer)
Y Units: Reflectance (percentage)
First X Value: 0.35
Last X Value: 2.5
Number of X Values: 2151
Additional Information: vegetation.tree.magnolia.grandiflora.vswir.jpl132.jpl.asd.ancillary.txt

 0.3500	 8.7090
 0.3510	 8.7370
 0.3520	 8.7980
 0.3530	 8.7510
 0.3540	 8.5580
 0.3550	 8.5220
 0.3560	 8.5540
 0.3570	 8.5730
 0.3580	 8.5240
 0.3590	 8.4740
 0.3600	 8.4610
 0.3610	 8.4650
 0.3620	 8.3870
 0.3630	 8.3780
 0.3640	 8.3980
 0.3650	 8.3760
 0.3660	 8.3350
 0.3670	 8.3130
 0.3680	 8.3240
 0.3690	 8.3610
 0.3700	 8.3390
 0.3710	 8.3180
 0.3720	 8.3240
 0.3730	 8.2850
 0.3740	 8.2420
 0.3750	 8.2190
 0.3760	 8.2230
 0.3770	 8.2150
 0.3780	 8.2070
 0.3790	 8.2080
 0.3800	 8.2220
 0.3810	 8.1870
 0.3820	 8.1750
 0.3830	 8.2150
 0.3840	 8.1910
 0.3850	 8.1390
 0.3860	 8.1160
 0.3870	 8.1630
 0.3880	 8.1550
 0.3890	 8.1330
 0.3900	 8.1160
 0.3910	 8.0910
 0.3920	 8.0890
 0.3930	 8.0960
 0.3940	 8.0930
 0.3950	 8.0550
 0.3960	 8.0460
 0.3970	 8.0610
 0.3980	 8.0660
 0.3990	 8.0800
 0.4000	 8.0750
 0.4010	 8.0530
 0.4020	 8.0570
 0.4030	 8.0550
 0.4040	 8.0490
 0.4050	 8.0500
 0.4060	 8.0780
 0.4070	 8.0830
 0.4080	 8.0660
 0.4090	 8.0600
 0.4100	 8.0700
 0.4110	 8.0990
 0.4120	 8.1310
 0.4130	 8.1120
 0.4140	 8.1060
 0.4150	 8.1160
 0.4160	 8.1240
 0.4170	 8.1480
 0.4180	 8.1640
 0.4190	 8.1730
 0.4200	 8.1910
 0.4210	 8.1900
 0.4220	 8.1980
 0.4230	 8.2260
 0.4240	 8.2330
 0.4250	 8.2380
 0.4260	 8.2480
 0.4270	 8.2560
 0.4280	 8.2600
 0.4290	 8.2630
 0.4300	 8.2640
 0.4310	 8.2700
 0.4320	 8.2810
 0.4330	 8.2920
 0.4340	 8.3000
 0.4350	 8.3090
 0.4360	 8.3150
 0.4370	 8.3160
 0.4380	 8.3150
 0.4390	 8.3240
 0.4400	 8.3360
 0.4410	 8.3470
 0.4420	 8.3590
 0.4430	 8.3660
 0.4440	 8.3690
 0.4450	 8.3710
 0.4460	 8.3870
 0.4470	 8.4020
 0.4480	 8.4120
 0.4490	 8.4240
 0.4500	 8.4350
 0.4510	 8.4450
 0.4520	 8.4530
 0.4530	 8.4600
 0.4540	 8.4690
 0.4550	 8.4810
 0.4560	 8.4900
 0.4570	 8.4910
 0.4580	 8.4940
 0.4590	 8.5020
 0.4600	 8.5050
 0.4610	 8.5000
 0.4620	 8.4940
 0.4630	 8.4950
 0.4640	 8.5000
 0.4650	 8.5050
 0.4660	 8.5070
 0.4670	 8.5060
 0.4680	 8.5070
 0.4690	 8.5080
 0.4700	 8.5090
 0.4710	 8.5080
 0.4720	 8.5100
 0.4730	 8.5140
 0.4740	 8.5200
 0.4750	 8.5220
 0.4760	 8.5220
 0.4770	 8.5210
 0.4780	 8.5240
 0.4790	 8.5260
 0.4800	 8.5290
 0.4810	 8.5360
 0.4820	 8.5390
 0.4830	 8.5400
 0.4840	 8.5420
 0.4850	 8.5480
 0.4860	 8.5560
 0.4870	 8.5620
 0.4880	 8.5680
 0.4890	 8.5900
 0.4900	 8.6030
 0.4910	 8.6110
 0.4920	 8.6300
 0.4930	 8.6520
 0.4940	 8.6730
 0.4950	 8.6960
 0.4960	 8.7250
 0.4970	 8.7570
 0.4980	 8.7880
 0.4990	 8.8220
 0.5000	 8.8670
 0.5010	 8.9160
 0.5020	 8.9670
 0.5030	 9.0280
 0.5040	 9.0900
 0.5050	 9.1560
 0.5060	 9.2300
 0.5070	 9.3110
 0.5080	 9.4030
 0.5090	 9.5060
 0.5100	 9.6160
 0.5110	 9.7310
 0.5120	 9.8520
 0.5130	 9.9830
 0.5140	10.1310
 0.5150	10.2890
 0.5160	10.4570
 0.5170	10.6350
 0.5180	10.8140
 0.5190	11.0030
 0.5200	11.2010
 0.5210	11.4020
 0.5220	11.6080
 0.5230	11.8130
 0.5240	12.0120
 0.5250	12.2040
 0.5260	12.3900
 0.5270	12.5680
 0.5280	12.7380
 0.5290	12.8910
 0.5300	13.0340
 0.5310	13.1690
 0.5320	13.2900
 0.5330	13.3980
 0.5340	13.4940
 0.5350	13.5820
 0.5360	13.6530
 0.5370	13.7190
 0.5380	13.7810
 0.5390	13.8310
 0.5400	13.8780
 0.5410	13.9200
 0.5420	13.9580
 0.5430	13.9980
 0.5440	14.0320
 0.5450	14.0610
 0.5460	14.0870
 0.5470	14.1100
 0.5480	14.1330
 0.5490	14.1540
 0.5500	14.1690
 0.5510	14.1780
 0.5520	14.1780
 0.5530	14.1640
 0.5540	14.1350
 0.5550	14.0980
 0.5560	14.0530
 0.5570	13.9940
 0.5580	13.9270
 0.5590	13.8490
 0.5600	13.7580
 0.5610	13.6610
 0.5620	13.5560
 0.5630	13.4470
 0.5640	13.3370
 0.5650	13.2220
 0.5660	13.1030
 0.5670	12.9790
 0.5680	12.8500
 0.5690	12.7220
 0.5700	12.5950
 0.5710	12.4660
 0.5720	12.3410
 0.5730	12.2160
 0.5740	12.0970
 0.5750	11.9910
 0.5760	11.9060
 0.5770	11.8290
 0.5780	11.7480
 0.5790	11.6680
 0.5800	11.5880
 0.5810	11.5140
 0.5820	11.4490
 0.5830	11.3910
 0.5840	11.3470
 0.5850	11.3120
 0.5860	11.2660
 0.5870	11.2070
 0.5880	11.1370
 0.5890	11.0610
 0.5900	10.9970
 0.5910	10.9460
 0.5920	10.9060
 0.5930	10.8720
 0.5940	10.8410
 0.5950	10.8120
 0.5960	10.7880
 0.5970	10.7710
 0.5980	10.7550
 0.5990	10.7380
 0.6000	10.7150
 0.6010	10.6900
 0.6020	10.6630
 0.6030	10.6350
 0.6040	10.6030
 0.6050	10.5640
 0.6060	10.5200
 0.6070	10.4750
 0.6080	10.4250
 0.6090	10.3710
 0.6100	10.3170
 0.6110	10.2670
 0.6120	10.2140
 0.6130	10.1610
 0.6140	10.1090
 0.6150	10.0620
 0.6160	10.0140
 0.6170	 9.9690
 0.6180	 9.9290
 0.6190	 9.8910
 0.6200	 9.8570
 0.6210	 9.8270
 0.6220	 9.7980
 0.6230	 9.7790
 0.6240	 9.7630
 0.6250	 9.7450
 0.6260	 9.7340
 0.6270	 9.7250
 0.6280	 9.7160
 0.6290	 9.7080
 0.6300	 9.6980
 0.6310	 9.6870
 0.6320	 9.6750
 0.6330	 9.6590
 0.6340	 9.6390
 0.6350	 9.6150
 0.6360	 9.5850
 0.6370	 9.5450
 0.6380	 9.5040
 0.6390	 9.4600
 0.6400	 9.4090
 0.6410	 9.3560
 0.6420	 9.3030
 0.6430	 9.2500
 0.6440	 9.2000
 0.6450	 9.1490
 0.6460	 9.1000
 0.6470	 9.0560
 0.6480	 9.0160
 0.6490	 8.9820
 0.6500	 8.9540
 0.6510	 8.9290
 0.6520	 8.9080
 0.6530	 8.8890
 0.6540	 8.8690
 0.6550	 8.8480
 0.6560	 8.8250
 0.6570	 8.7990
 0.6580	 8.7730
 0.6590	 8.7420
 0.6600	 8.7080
 0.6610	 8.6740
 0.6620	 8.6410
 0.6630	 8.6120
 0.6640	 8.5840
 0.6650	 8.5580
 0.6660	 8.5400
 0.6670	 8.5250
 0.6680	 8.5130
 0.6690	 8.5100
 0.6700	 8.5120
 0.6710	 8.5180
 0.6720	 8.5280
 0.6730	 8.5400
 0.6740	 8.5580
 0.6750	 8.5810
 0.6760	 8.6090
 0.6770	 8.6440
 0.6780	 8.6810
 0.6790	 8.7210
 0.6800	 8.7680
 0.6810	 8.8220
 0.6820	 8.8820
 0.6830	 8.9470
 0.6840	 9.0160
 0.6850	 9.0990
 0.6860	 9.1970
 0.6870	 9.3070
 0.6880	 9.4310
 0.6890	 9.5770
 0.6900	 9.7510
 0.6910	 9.9590
 0.6920	10.2120
 0.6930	10.5150
 0.6940	10.8720
 0.6950	11.2910
 0.6960	11.7710
 0.6970	12.3170
 0.6980	12.9270
 0.6990	13.5940
 0.7000	14.3190
 0.7010	15.0960
 0.7020	15.9150
 0.7030	16.7680
 0.7040	17.6500
 0.7050	18.5550
 0.7060	19.4750
 0.7070	20.4110
 0.7080	21.3610
 0.7090	22.3230
 0.7100	23.3000
 0.7110	24.2900
 0.7120	25.2900
 0.7130	26.2970
 0.7140	27.3160
 0.7150	28.3440
 0.7160	29.3770
 0.7170	30.4180
 0.7180	31.4570
 0.7190	32.4950
 0.7200	33.5350
 0.7210	34.5730
 0.7220	35.5990
 0.7230	36.6090
 0.7240	37.6040
 0.7250	38.5860
 0.7260	39.5450
 0.7270	40.4740
 0.7280	41.3770
 0.7290	42.2540
 0.7300	43.1030
 0.7310	43.9170
 0.7320	44.6990
 0.7330	45.4480
 0.7340	46.1600
 0.7350	46.8350
 0.7360	47.4820
 0.7370	48.0960
 0.7380	48.6750
 0.7390	49.2180
 0.7400	49.7270
 0.7410	50.2030
 0.7420	50.6490
 0.7430	51.0630
 0.7440	51.4460
 0.7450	51.7980
 0.7460	52.1200
 0.7470	52.4180
 0.7480	52.6930
 0.7490	52.9440
 0.7500	53.1700
 0.7510	53.3760
 0.7520	53.5620
 0.7530	53.7260
 0.7540	53.8780
 0.7550	54.0160
 0.7560	54.1390
 0.7570	54.2490
 0.7580	54.3510
 0.7590	54.4440
 0.7600	54.5260
 0.7610	54.5960
 0.7620	54.6540
 0.7630	54.7050
 0.7640	54.7550
 0.7650	54.7960
 0.7660	54.8310
 0.7670	54.8620
 0.7680	54.8930
 0.7690	54.9180
 0.7700	54.9360
 0.7710	54.9480
 0.7720	54.9660
 0.7730	54.9810
 0.7740	54.9930
 0.7750	55.0040
 0.7760	55.0120
 0.7770	55.0190
 0.7780	55.0270
 0.7790	55.0360
 0.7800	55.0420
 0.7810	55.0460
 0.7820	55.0510
 0.7830	55.0600
 0.7840	55.0660
 0.7850	55.0700
 0.7860	55.0760
 0.7870	55.0810
 0.7880	55.0860
 0.7890	55.0910
 0.7900	55.0970
 0.7910	55.0970
 0.7920	55.0980
 0.7930	55.0990
 0.7940	55.0990
 0.7950	55.1040
 0.7960	55.1090
 0.7970	55.1120
 0.7980	55.1170
 0.7990	55.1190
 0.8000	55.1190
 0.8010	55.1200
 0.8020	55.1190
 0.8030	55.1200
 0.8040	55.1190
 0.8050	55.1150
 0.8060	55.1170
 0.8070	55.1170
 0.8080	55.1160
 0.8090	55.1180
 0.8100	55.1200
 0.8110	55.1230
 0.8120	55.1260
 0.8130	55.1280
 0.8140	55.1240
 0.8150	55.1210
 0.8160	55.1230
 0.8170	55.1260
 0.8180	55.1270
 0.8190	55.1270
 0.8200	55.1250
 0.8210	55.1280
 0.8220	55.1320
 0.8230	55.1330
 0.8240	55.1280
 0.8250	55.1300
 0.8260	55.1350
 0.8270	55.1380
 0.8280	55.1380
 0.8290	55.1390
 0.8300	55.1380
 0.8310	55.1310
 0.8320	55.1270
 0.8330	55.1290
 0.8340	55.1320
 0.8350	55.1320
 0.8360	55.1350
 0.8370	55.1390
 0.8380	55.1420
 0.8390	55.1480
 0.8400	55.1570
 0.8410	55.1660
 0.8420	55.1730
 0.8430	55.1800
 0.8440	55.1840
 0.8450	55.1910
 0.8460	55.2010
 0.8470	55.2080
 0.8480	55.2120
 0.8490	55.2150
 0.8500	55.2190
 0.8510	55.2250
 0.8520	55.2320
 0.8530	55.2380
 0.8540	55.2430
 0.8550	55.2540
 0.8560	55.2650
 0.8570	55.2710
 0.8580	55.2730
 0.8590	55.2740
 0.8600	55.2800
 0.8610	55.2890
 0.8620	55.2900
 0.8630	55.2910
 0.8640	55.2930
 0.8650	55.2940
 0.8660	55.2970
 0.8670	55.3020
 0.8680	55.3060
 0.8690	55.3080
 0.8700	55.3130
 0.8710	55.3140
 0.8720	55.3110
 0.8730	55.3140
 0.8740	55.3180
 0.8750	55.3220
 0.8760	55.3250
 0.8770	55.3260
 0.8780	55.3240
 0.8790	55.3240
 0.8800	55.3250
 0.8810	55.3180
 0.8820	55.3160
 0.8830	55.3150
 0.8840	55.3110
 0.8850	55.3090
 0.8860	55.3060
 0.8870	55.3040
 0.8880	55.3060
 0.8890	55.3040
 0.8900	55.2990
 0.8910	55.2940
 0.8920	55.2910
 0.8930	55.2870
 0.8940	55.2820
 0.8950	55.2760
 0.8960	55.2710
 0.8970	55.2630
 0.8980	55.2580
 0.8990	55.2580
 0.9000	55.2540
 0.9010	55.2520
 0.9020	55.2500
 0.9030	55.2440
 0.9040	55.2360
 0.9050	55.2290
 0.9060	55.2200
 0.9070	55.2100
 0.9080	55.2040
 0.9090	55.1910
 0.9100	55.1790
 0.9110	55.1740
 0.9120	55.1680
 0.9130	55.1590
 0.9140	55.1470
 0.9150	55.1360
 0.9160	55.1280
 0.9170	55.1160
 0.9180	55.1030
 0.9190	55.0950
 0.9200	55.0810
 0.9210	55.0690
 0.9220	55.0570
 0.9230	55.0390
 0.9240	55.0160
 0.9250	54.9940
 0.9260	54.9760
 0.9270	54.9570
 0.9280	54.9220
 0.9290	54.8990
 0.9300	54.8860
 0.9310	54.8510
 0.9320	54.8080
 0.9330	54.7760
 0.9340	54.7530
 0.9350	54.7130
 0.9360	54.6790
 0.9370	54.6490
 0.9380	54.6160
 0.9390	54.5660
 0.9400	54.5220
 0.9410	54.4820
 0.9420	54.4380
 0.9430	54.3870
 0.9440	54.3300
 0.9450	54.2730
 0.9460	54.2190
 0.9470	54.1550
 0.9480	54.0880
 0.9490	54.0120
 0.9500	53.9260
 0.9510	53.8550
 0.9520	53.7650
 0.9530	53.6650
 0.9540	53.5730
 0.9550	53.4910
 0.9560	53.4080
 0.9570	53.3220
 0.9580	53.2350
 0.9590	53.1650
 0.9600	53.1000
 0.9610	53.0380
 0.9620	52.9840
 0.9630	52.9440
 0.9640	52.9050
 0.9650	52.8690
 0.9660	52.8430
 0.9670	52.8110
 0.9680	52.7820
 0.9690	52.7590
 0.9700	52.7380
 0.9710	52.7290
 0.9720	52.7100
 0.9730	52.6910
 0.9740	52.6900
 0.9750	52.6800
 0.9760	52.6590
 0.9770	52.6470
 0.9780	52.6580
 0.9790	52.6630
 0.9800	52.6670
 0.9810	52.6660
 0.9820	52.6620
 0.9830	52.6730
 0.9840	52.6950
 0.9850	52.7110
 0.9860	52.7090
 0.9870	52.7380
 0.9880	52.7590
 0.9890	52.7710
 0.9900	52.7950
 0.9910	52.8250
 0.9920	52.8390
 0.9930	52.8540
 0.9940	52.8910
 0.9950	52.9010
 0.9960	52.9210
 0.9970	52.9550
 0.9980	52.9880
 0.9990	53.0110
 1.0000	53.0440
 1.0010	53.3670
 1.0020	53.4030
 1.0030	53.4410
 1.0040	53.4750
 1.0050	53.5070
 1.0060	53.5420
 1.0070	53.5770
 1.0080	53.6120
 1.0090	53.6500
 1.0100	53.6850
 1.0110	53.7180
 1.0120	53.7530
 1.0130	53.7880
 1.0140	53.8230
 1.0150	53.8610
 1.0160	53.8950
 1.0170	53.9270
 1.0180	53.9630
 1.0190	54.0010
 1.0200	54.0370
 1.0210	54.0690
 1.0220	54.1030
 1.0230	54.1360
 1.0240	54.1640
 1.0250	54.1960
 1.0260	54.2330
 1.0270	54.2650
 1.0280	54.2920
 1.0290	54.3240
 1.0300	54.3570
 1.0310	54.3880
 1.0320	54.4200
 1.0330	54.4480
 1.0340	54.4740
 1.0350	54.5030
 1.0360	54.5270
 1.0370	54.5550
 1.0380	54.5800
 1.0390	54.6020
 1.0400	54.6250
 1.0410	54.6490
 1.0420	54.6700
 1.0430	54.6860
 1.0440	54.7070
 1.0450	54.7310
 1.0460	54.7490
 1.0470	54.7680
 1.0480	54.7850
 1.0490	54.7940
 1.0500	54.8080
 1.0510	54.8270
 1.0520	54.8420
 1.0530	54.8570
 1.0540	54.8740
 1.0550	54.8860
 1.0560	54.8930
 1.0570	54.9030
 1.0580	54.9130
 1.0590	54.9220
 1.0600	54.9310
 1.0610	54.9390
 1.0620	54.9420
 1.0630	54.9500
 1.0640	54.9610
 1.0650	54.9690
 1.0660	54.9780
 1.0670	54.9830
 1.0680	54.9850
 1.0690	54.9820
 1.0700	54.9810
 1.0710	54.9790
 1.0720	54.9800
 1.0730	54.9850
 1.0740	54.9860
 1.0750	54.9860
 1.0760	54.9850
 1.0770	54.9790
 1.0780	54.9770
 1.0790	54.9760
 1.0800	54.9750
 1.0810	54.9750
 1.0820	54.9720
 1.0830	54.9680
 1.0840	54.9630
 1.0850	54.9580
 1.0860	54.9490
 1.0870	54.9390
 1.0880	54.9270
 1.0890	54.9160
 1.0900	54.9040
 1.0910	54.8930
 1.0920	54.8850
 1.0930	54.8730
 1.0940	54.8570
 1.0950	54.8440
 1.0960	54.8320
 1.0970	54.8180
 1.0980	54.8030
 1.0990	54.7880
 1.1000	54.7700
 1.1010	54.7540
 1.1020	54.7390
 1.1030	54.7230
 1.1040	54.7050
 1.1050	54.6880
 1.1060	54.6700
 1.1070	54.6510
 1.1080	54.6310
 1.1090	54.6090
 1.1100	54.5860
 1.1110	54.5610
 1.1120	54.5370
 1.1130	54.5120
 1.1140	54.4860
 1.1150	54.4580
 1.1160	54.4280
 1.1170	54.3990
 1.1180	54.3660
 1.1190	54.3320
 1.1200	54.2960
 1.1210	54.2530
 1.1220	54.2070
 1.1230	54.1540
 1.1240	54.0970
 1.1250	54.0310
 1.1260	53.9620
 1.1270	53.8810
 1.1280	53.7910
 1.1290	53.6930
 1.1300	53.5870
 1.1310	53.4680
 1.1320	53.3410
 1.1330	53.2030
 1.1340	53.0530
 1.1350	52.8940
 1.1360	52.7260
 1.1370	52.5500
 1.1380	52.3640
 1.1390	52.1710
 1.1400	51.9690
 1.1410	51.7630
 1.1420	51.5560
 1.1430	51.3470
 1.1440	51.1410
 1.1450	50.9350
 1.1460	50.7350
 1.1470	50.5350
 1.1480	50.3450
 1.1490	50.1580
 1.1500	49.9830
 1.1510	49.8140
 1.1520	49.6580
 1.1530	49.5150
 1.1540	49.3800
 1.1550	49.2530
 1.1560	49.1410
 1.1570	49.0370
 1.1580	48.9440
 1.1590	48.8610
 1.1600	48.7860
 1.1610	48.7180
 1.1620	48.6570
 1.1630	48.6040
 1.1640	48.5570
 1.1650	48.5130
 1.1660	48.4750
 1.1670	48.4380
 1.1680	48.4040
 1.1690	48.3720
 1.1700	48.3410
 1.1710	48.3140
 1.1720	48.2900
 1.1730	48.2660
 1.1740	48.2430
 1.1750	48.2200
 1.1760	48.1970
 1.1770	48.1720
 1.1780	48.1460
 1.1790	48.1200
 1.1800	48.0920
 1.1810	48.0640
 1.1820	48.0370
 1.1830	48.0110
 1.1840	47.9830
 1.1850	47.9560
 1.1860	47.9290
 1.1870	47.9010
 1.1880	47.8760
 1.1890	47.8510
 1.1900	47.8300
 1.1910	47.8110
 1.1920	47.7930
 1.1930	47.7780
 1.1940	47.7650
 1.1950	47.7540
 1.1960	47.7450
 1.1970	47.7400
 1.1980	47.7380
 1.1990	47.7400
 1.2000	47.7430
 1.2010	47.7490
 1.2020	47.7580
 1.2030	47.7690
 1.2040	47.7830
 1.2050	47.8000
 1.2060	47.8170
 1.2070	47.8400
 1.2080	47.8640
 1.2090	47.8910
 1.2100	47.9220
 1.2110	47.9530
 1.2120	47.9850
 1.2130	48.0200
 1.2140	48.0580
 1.2150	48.0990
 1.2160	48.1440
 1.2170	48.1880
 1.2180	48.2330
 1.2190	48.2810
 1.2200	48.3280
 1.2210	48.3790
 1.2220	48.4310
 1.2230	48.4820
 1.2240	48.5330
 1.2250	48.5830
 1.2260	48.6320
 1.2270	48.6790
 1.2280	48.7270
 1.2290	48.7740
 1.2300	48.8200
 1.2310	48.8660
 1.2320	48.9070
 1.2330	48.9480
 1.2340	48.9890
 1.2350	49.0290
 1.2360	49.0690
 1.2370	49.1090
 1.2380	49.1450
 1.2390	49.1790
 1.2400	49.2130
 1.2410	49.2460
 1.2420	49.2770
 1.2430	49.3090
 1.2440	49.3380
 1.2450	49.3660
 1.2460	49.3970
 1.2470	49.4260
 1.2480	49.4540
 1.2490	49.4810
 1.2500	49.5030
 1.2510	49.5280
 1.2520	49.5500
 1.2530	49.5710
 1.2540	49.5930
 1.2550	49.6110
 1.2560	49.6290
 1.2570	49.6460
 1.2580	49.6630
 1.2590	49.6780
 1.2600	49.6930
 1.2610	49.7040
 1.2620	49.7120
 1.2630	49.7180
 1.2640	49.7260
 1.2650	49.7310
 1.2660	49.7340
 1.2670	49.7380
 1.2680	49.7390
 1.2690	49.7370
 1.2700	49.7340
 1.2710	49.7320
 1.2720	49.7270
 1.2730	49.7210
 1.2740	49.7150
 1.2750	49.7050
 1.2760	49.6920
 1.2770	49.6780
 1.2780	49.6610
 1.2790	49.6420
 1.2800	49.6220
 1.2810	49.6000
 1.2820	49.5760
 1.2830	49.5490
 1.2840	49.5200
 1.2850	49.4890
 1.2860	49.4570
 1.2870	49.4200
 1.2880	49.3800
 1.2890	49.3370
 1.2900	49.2930
 1.2910	49.2450
 1.2920	49.1960
 1.2930	49.1430
 1.2940	49.0870
 1.2950	49.0270
 1.2960	48.9610
 1.2970	48.8940
 1.2980	48.8250
 1.2990	48.7500
 1.3000	48.6750
 1.3010	48.5970
 1.3020	48.5120
 1.3030	48.4250
 1.3040	48.3350
 1.3050	48.2410
 1.3060	48.1430
 1.3070	48.0420
 1.3080	47.9380
 1.3090	47.8300
 1.3100	47.7180
 1.3110	47.6040
 1.3120	47.4830
 1.3130	47.3590
 1.3140	47.2310
 1.3150	47.0970
 1.3160	46.9590
 1.3170	46.8180
 1.3180	46.6720
 1.3190	46.5210
 1.3200	46.3650
 1.3210	46.2050
 1.3220	46.0410
 1.3230	45.8730
 1.3240	45.7020
 1.3250	45.5310
 1.3260	45.3540
 1.3270	45.1730
 1.3280	44.9890
 1.3290	44.8000
 1.3300	44.6080
 1.3310	44.4140
 1.3320	44.2180
 1.3330	44.0230
 1.3340	43.8260
 1.3350	43.6280
 1.3360	43.4290
 1.3370	43.2290
 1.3380	43.0280
 1.3390	42.8290
 1.3400	42.6290
 1.3410	42.4330
 1.3420	42.2390
 1.3430	42.0460
 1.3440	41.8560
 1.3450	41.6660
 1.3460	41.4760
 1.3470	41.2920
 1.3480	41.1100
 1.3490	40.9310
 1.3500	40.7570
 1.3510	40.5850
 1.3520	40.4130
 1.3530	40.2430
 1.3540	40.0720
 1.3550	39.9000
 1.3560	39.7270
 1.3570	39.5530
 1.3580	39.3770
 1.3590	39.1990
 1.3600	39.0190
 1.3610	38.8340
 1.3620	38.6410
 1.3630	38.4420
 1.3640	38.2340
 1.3650	38.0160
 1.3660	37.7900
 1.3670	37.5540
 1.3680	37.3040
 1.3690	37.0420
 1.3700	36.7610
 1.3710	36.4650
 1.3720	36.1510
 1.3730	35.8160
 1.3740	35.4650
 1.3750	35.0920
 1.3760	34.6920
 1.3770	34.2670
 1.3780	33.8120
 1.3790	33.3290
 1.3800	32.8220
 1.3810	32.2840
 1.3820	31.7260
 1.3830	31.1440
 1.3840	30.5430
 1.3850	29.9180
 1.3860	29.2840
 1.3870	28.6250
 1.3880	27.9700
 1.3890	27.3060
 1.3900	26.6370
 1.3910	25.9760
 1.3920	25.3160
 1.3930	24.6580
 1.3940	24.0120
 1.3950	23.3730
 1.3960	22.7500
 1.3970	22.1490
 1.3980	21.5650
 1.3990	21.0100
 1.4000	20.4770
 1.4010	19.9640
 1.4020	19.4820
 1.4030	19.0220
 1.4040	18.5880
 1.4050	18.1830
 1.4060	17.8030
 1.4070	17.4500
 1.4080	17.1210
 1.4090	16.8130
 1.4100	16.5280
 1.4110	16.2620
 1.4120	16.0160
 1.4130	15.7890
 1.4140	15.5790
 1.4150	15.3880
 1.4160	15.2130
 1.4170	15.0500
 1.4180	14.9020
 1.4190	14.7640
 1.4200	14.6370
 1.4210	14.5200
 1.4220	14.4120
 1.4230	14.3150
 1.4240	14.2260
 1.4250	14.1430
 1.4260	14.0690
 1.4270	14.0000
 1.4280	13.9370
 1.4290	13.8800
 1.4300	13.8290
 1.4310	13.7820
 1.4320	13.7420
 1.4330	13.7050
 1.4340	13.6730
 1.4350	13.6440
 1.4360	13.6190
 1.4370	13.5980
 1.4380	13.5800
 1.4390	13.5650
 1.4400	13.5540
 1.4410	13.5460
 1.4420	13.5400
 1.4430	13.5360
 1.4440	13.5340
 1.4450	13.5360
 1.4460	13.5380
 1.4470	13.5420
 1.4480	13.5480
 1.4490	13.5540
 1.4500	13.5620
 1.4510	13.5720
 1.4520	13.5830
 1.4530	13.5950
 1.4540	13.6090
 1.4550	13.6250
 1.4560	13.6430
 1.4570	13.6640
 1.4580	13.6870
 1.4590	13.7130
 1.4600	13.7430
 1.4610	13.7750
 1.4620	13.8100
 1.4630	13.8490
 1.4640	13.8920
 1.4650	13.9380
 1.4660	13.9880
 1.4670	14.0420
 1.4680	14.1020
 1.4690	14.1650
 1.4700	14.2320
 1.4710	14.3040
 1.4720	14.3770
 1.4730	14.4530
 1.4740	14.5330
 1.4750	14.6150
 1.4760	14.7000
 1.4770	14.7870
