Name: Quercus agrifolia 2
Type: vegetation
Class: Tree
Genus: Quercus
Species: agrifolia
Sample No.: VH276
Owner: UCSB
Wavelength Range: TIR
Origin: 34.7156; -120.0603; WGS84
Collection Date: 11/2/2013
Description: Samples were collected as part of the HyspIRI Airborne Campaign. 48 individual plants were sampled in three times in 2013 - spring  summer  and fall. The name of the sample includes a 1  2  or 3 which references a different individual of the species. Samples were taken to JPL and processed within 48 hours of collection. The same leaves were processed in the Nicolet and then measured using the ASD.
Measurement: Hemispherical reflectance
First Column: X
Second Column: Y
X Units: Wavelength (micrometers)
Y Units: Reflectance (percentage)
First X Value: 2.501
Last X Value: 15.387
Number of X Values: 1737
Additional Information: vegetation.tree.quercus.agrifolia.tir.vh276.ucsb.nicolet.ancillary.txt

 2.5010	 8.0510
 2.5030	 7.8870
 2.5040	 7.9230
 2.5050	 7.9820
 2.5060	 7.8010
 2.5070	 7.6510
 2.5090	 7.6220
 2.5100	 7.7530
 2.5110	 8.0160
 2.5120	 7.8690
 2.5140	 7.5490
 2.5150	 7.5780
 2.5160	 7.7080
 2.5170	 7.5730
 2.5180	 7.5000
 2.5200	 7.5910
 2.5210	 7.6550
 2.5220	 7.6400
 2.5230	 7.7850
 2.5250	 7.7900
 2.5260	 7.6530
 2.5270	 7.6670
 2.5280	 7.6740
 2.5290	 7.6100
 2.5310	 7.6030
 2.5320	 7.6440
 2.5330	 7.6270
 2.5340	 7.5090
 2.5360	 7.6580
 2.5370	 7.6470
 2.5380	 7.6800
 2.5390	 7.8980
 2.5410	 7.8950
 2.5420	 7.6780
 2.5430	 7.5950
 2.5440	 7.5840
 2.5460	 7.5830
 2.5470	 7.6090
 2.5480	 7.7760
 2.5490	 7.8880
 2.5510	 7.7570
 2.5520	 7.6440
 2.5530	 7.7070
 2.5540	 7.7250
 2.5560	 7.6230
 2.5570	 7.7200
 2.5580	 7.8370
 2.5590	 7.7880
 2.5610	 7.7170
 2.5620	 7.5930
 2.5630	 7.4870
 2.5640	 7.6160
 2.5660	 7.8140
 2.5670	 7.8120
 2.5680	 7.8690
 2.5700	 7.7630
 2.5710	 7.5950
 2.5720	 7.6840
 2.5730	 7.7760
 2.5750	 7.7950
 2.5760	 7.8380
 2.5770	 7.8680
 2.5790	 7.7470
 2.5800	 7.7040
 2.5810	 7.8290
 2.5820	 7.9510
 2.5840	 7.9130
 2.5850	 7.9210
 2.5860	 7.8170
 2.5880	 7.6320
 2.5890	 7.8020
 2.5900	 7.8790
 2.5910	 7.5490
 2.5930	 7.3710
 2.5940	 7.4490
 2.5950	 7.5240
 2.5970	 7.4470
 2.5980	 7.4390
 2.5990	 7.4810
 2.6000	 7.3970
 2.6020	 7.4850
 2.6030	 7.4850
 2.6040	 7.5060
 2.6060	 7.4780
 2.6070	 7.4360
 2.6080	 7.4280
 2.6100	 7.2390
 2.6110	 7.1660
 2.6120	 7.2450
 2.6140	 7.2300
 2.6150	 7.2060
 2.6160	 7.2390
 2.6180	 7.3690
 2.6190	 7.2990
 2.6200	 7.1440
 2.6220	 7.0370
 2.6230	 7.0950
 2.6240	 6.9900
 2.6260	 6.7910
 2.6270	 6.7540
 2.6280	 6.9180
 2.6300	 6.7940
 2.6310	 6.6240
 2.6320	 6.7600
 2.6340	 6.7960
 2.6350	 6.7280
 2.6360	 6.7750
 2.6380	 6.7400
 2.6390	 6.6250
 2.6400	 6.4940
 2.6420	 6.5310
 2.6430	 6.6620
 2.6440	 6.5410
 2.6460	 6.4590
 2.6470	 6.5070
 2.6480	 6.5080
 2.6500	 6.3320
 2.6510	 6.1960
 2.6520	 6.4920
 2.6540	 6.3830
 2.6550	 6.0750
 2.6560	 6.0270
 2.6580	 6.0240
 2.6590	 6.0350
 2.6610	 5.9960
 2.6620	 5.8500
 2.6630	 5.6260
 2.6650	 5.5330
 2.6660	 5.6010
 2.6670	 5.5320
 2.6690	 5.5930
 2.6700	 5.5400
 2.6720	 5.4240
 2.6730	 5.4390
 2.6740	 5.5000
 2.6760	 5.4830
 2.6770	 5.4810
 2.6780	 5.3190
 2.6800	 5.1440
 2.6810	 5.1600
 2.6830	 5.3160
 2.6840	 5.3310
 2.6850	 5.1600
 2.6870	 5.0210
 2.6880	 4.9860
 2.6900	 4.9040
 2.6910	 4.8600
 2.6920	 4.6680
 2.6940	 4.5480
 2.6950	 4.4900
 2.6970	 4.3570
 2.6980	 4.3620
 2.6990	 4.5570
 2.7010	 4.5280
 2.7020	 4.2420
 2.7040	 4.0250
 2.7050	 3.9820
 2.7060	 4.0670
 2.7080	 4.1890
 2.7090	 4.1890
 2.7110	 3.9980
 2.7120	 3.9440
 2.7130	 4.1100
 2.7150	 4.0720
 2.7160	 4.0210
 2.7180	 4.0310
 2.7190	 3.9880
 2.7210	 3.8420
 2.7220	 3.8420
 2.7230	 3.9220
 2.7250	 3.9190
 2.7260	 3.8340
 2.7280	 3.7330
 2.7290	 3.6340
 2.7310	 3.7800
 2.7320	 3.6940
 2.7330	 3.4170
 2.7350	 3.2780
 2.7360	 3.3670
 2.7380	 3.4840
 2.7390	 3.7520
 2.7410	 3.8090
 2.7420	 3.6960
 2.7440	 3.7130
 2.7450	 3.5770
 2.7470	 3.4590
 2.7480	 3.4070
 2.7490	 3.5060
 2.7510	 3.7900
 2.7520	 3.7750
 2.7540	 3.6750
 2.7550	 3.8040
 2.7570	 3.6600
 2.7580	 3.3980
 2.7600	 3.5320
 2.7610	 3.6470
 2.7630	 3.7540
 2.7640	 3.8340
 2.7660	 3.7050
 2.7670	 3.5500
 2.7680	 3.5880
 2.7700	 3.3630
 2.7710	 3.1130
 2.7730	 3.4120
 2.7740	 3.5840
 2.7760	 3.4540
 2.7770	 3.5720
 2.7790	 3.4290
 2.7800	 3.2140
 2.7820	 3.4170
 2.7830	 3.5960
 2.7850	 3.4850
 2.7860	 3.6130
 2.7880	 3.6570
 2.7890	 3.7470
 2.7910	 3.6510
 2.7920	 3.7230
 2.7940	 3.8220
 2.7950	 3.6670
 2.7970	 3.5060
 2.7980	 3.6190
 2.8000	 3.7170
 2.8010	 3.7060
 2.8030	 3.6970
 2.8040	 3.5080
 2.8060	 3.4410
 2.8070	 3.6140
 2.8090	 3.5840
 2.8110	 3.6230
 2.8120	 3.7240
 2.8140	 3.6710
 2.8150	 3.5290
 2.8170	 3.3960
 2.8180	 3.5190
 2.8200	 3.6930
 2.8210	 3.5420
 2.8230	 3.5330
 2.8240	 3.5930
 2.8260	 3.6470
 2.8270	 3.5820
 2.8290	 3.5930
 2.8300	 3.4740
 2.8320	 3.4210
 2.8340	 3.2950
 2.8350	 3.2800
 2.8370	 3.3500
 2.8380	 3.4790
 2.8400	 3.6180
 2.8410	 3.6220
 2.8430	 3.5010
 2.8440	 3.5410
 2.8460	 3.5250
 2.8480	 3.2660
 2.8490	 3.3220
 2.8510	 3.5570
 2.8520	 3.4590
 2.8540	 3.3660
 2.8550	 3.3690
 2.8570	 3.2110
 2.8590	 3.1750
 2.8600	 3.4420
 2.8620	 3.6030
 2.8630	 3.6560
 2.8650	 3.6990
 2.8660	 3.5800
 2.8680	 3.4250
 2.8700	 3.5810
 2.8710	 3.6650
 2.8730	 3.6410
 2.8740	 3.6970
 2.8760	 3.8030
 2.8780	 3.8460
 2.8790	 3.5380
 2.8810	 3.6220
 2.8820	 3.5210
 2.8840	 3.6310
 2.8860	 3.6360
 2.8870	 3.5350
 2.8890	 3.5500
 2.8900	 3.3580
 2.8920	 3.4840
 2.8940	 3.5490
 2.8950	 3.6110
 2.8970	 3.6560
 2.8980	 3.6320
 2.9000	 3.6190
 2.9020	 3.5540
 2.9030	 3.4080
 2.9050	 3.2360
 2.9070	 3.2830
 2.9080	 3.6380
 2.9100	 3.7290
 2.9120	 3.4780
 2.9130	 3.3950
 2.9150	 3.5750
 2.9160	 3.7030
 2.9180	 3.7030
 2.9200	 3.5330
 2.9210	 3.5520
 2.9230	 3.6420
 2.9250	 3.5870
 2.9260	 3.6580
 2.9280	 3.7070
 2.9300	 3.5810
 2.9310	 3.5460
 2.9330	 3.5600
 2.9350	 3.5290
 2.9360	 3.5280
 2.9380	 3.4490
 2.9400	 3.2590
 2.9410	 3.3300
 2.9430	 3.7380
 2.9450	 3.9390
 2.9460	 3.9010
 2.9480	 3.6460
 2.9500	 3.6330
 2.9510	 3.7370
 2.9530	 3.7450
 2.9550	 4.1010
 2.9560	 4.1240
 2.9580	 3.6000
 2.9600	 3.5880
 2.9610	 3.8560
 2.9630	 4.2160
 2.9650	 4.1840
 2.9660	 4.3040
 2.9680	 4.4710
 2.9700	 3.8420
 2.9720	 2.7320
 2.9730	 2.8500
 2.9750	 3.3370
 2.9770	 3.0440
 2.9780	 3.1450
 2.9800	 3.4580
 2.9820	 3.8740
 2.9840	 3.8190
 2.9850	 3.3050
 2.9870	 3.5000
 2.9890	 4.3750
 2.9900	 4.7620
 2.9920	 4.3260
 2.9940	 3.5520
 2.9960	 3.3220
 2.9970	 4.1890
 2.9990	 4.5980
 3.0010	 3.4050
 3.0030	 3.3760
 3.0040	 3.4690
 3.0060	 3.6140
 3.0080	 3.4510
 3.0100	 3.4510
 3.0110	 3.6420
 3.0130	 3.8460
 3.0150	 4.0410
 3.0170	 4.3740
 3.0180	 4.1600
 3.0200	 3.8520
 3.0220	 3.8690
 3.0240	 3.6870
 3.0250	 3.5120
 3.0270	 3.7350
 3.0290	 3.6030
 3.0310	 3.6190
 3.0320	 3.8650
 3.0340	 4.3200
 3.0360	 3.8830
 3.0380	 3.3620
 3.0400	 4.4480
 3.0410	 4.6510
 3.0430	 4.3240
 3.0450	 5.3580
 3.0470	 4.5820
 3.0480	 2.7380
 3.0500	 2.0190
 3.0520	 2.6720
 3.0540	 2.8090
 3.0560	 2.7160
 3.0570	 2.7270
 3.0590	 3.2020
 3.0610	 3.3250
 3.0630	 2.8900
 3.0650	 2.7570
 3.0660	 3.2670
 3.0680	 3.5130
 3.0700	 3.2460
 3.0720	 3.3890
 3.0740	 3.4940
 3.0760	 3.2210
 3.0770	 3.1980
 3.0790	 3.3140
 3.0810	 3.5030
 3.0830	 3.6100
 3.0850	 3.5220
 3.0870	 3.5360
 3.0880	 3.4520
 3.0900	 3.4040
 3.0920	 3.3420
 3.0940	 3.2480
 3.0960	 3.4210
 3.0980	 3.6460
 3.0990	 3.7170
 3.1010	 3.5030
 3.1030	 3.2220
 3.1050	 3.1760
 3.1070	 3.2060
 3.1090	 3.0820
 3.1110	 3.2470
 3.1120	 3.3830
 3.1140	 3.4720
 3.1160	 3.3800
 3.1180	 3.2350
 3.1200	 3.3890
 3.1220	 3.4970
 3.1240	 3.5400
 3.1260	 3.7000
 3.1270	 3.7530
 3.1290	 3.6570
 3.1310	 3.6680
 3.1330	 3.7480
 3.1350	 3.5680
 3.1370	 3.0650
 3.1390	 2.3210
 3.1410	 2.9750
 3.1430	 3.4640
 3.1450	 2.3070
 3.1460	 2.7350
 3.1480	 3.8290
 3.1500	 3.6600
 3.1520	 3.2300
 3.1540	 2.4830
 3.1560	 3.5250
 3.1580	 3.9210
 3.1600	 3.9420
 3.1620	 3.8510
 3.1640	 3.7730
 3.1660	 3.8670
 3.1680	 4.3770
 3.1700	 3.9170
 3.1710	 3.6910
 3.1730	 3.2370
 3.1750	 3.2300
 3.1770	 5.1600
 3.1790	 4.8710
 3.1810	 3.4490
 3.1830	 3.3660
 3.1850	 3.5540
 3.1870	 3.4810
 3.1890	 3.7580
 3.1910	 3.6250
 3.1930	 3.5020
 3.1950	 3.3460
 3.1970	 3.4770
 3.1990	 3.5520
 3.2010	 3.5120
 3.2030	 3.5730
 3.2050	 3.6100
 3.2070	 3.5200
 3.2090	 3.5690
 3.2110	 3.3750
 3.2130	 3.1500
 3.2150	 3.3050
 3.2170	 3.4420
 3.2190	 3.4440
 3.2210	 3.2810
 3.2230	 3.3400
 3.2250	 3.5180
 3.2270	 3.3770
 3.2290	 3.2020
 3.2310	 3.2700
 3.2330	 3.3700
 3.2350	 3.4340
 3.2370	 3.5130
 3.2390	 3.5230
 3.2410	 3.5650
 3.2430	 3.3950
 3.2450	 3.1940
 3.2470	 3.1110
 3.2490	 3.3750
 3.2510	 3.4520
 3.2530	 3.2330
 3.2550	 3.2340
 3.2570	 3.3820
 3.2590	 3.4370
 3.2610	 3.3980
 3.2630	 3.4490
 3.2650	 3.3670
 3.2670	 3.1710
 3.2690	 3.0670
 3.2720	 3.2440
 3.2740	 3.3440
 3.2760	 3.3740
 3.2780	 3.3070
 3.2800	 3.2360
 3.2820	 3.2190
 3.2840	 3.2920
 3.2860	 3.2720
 3.2880	 3.2380
 3.2900	 3.3690
 3.2920	 3.3350
 3.2940	 3.0080
 3.2960	 3.0470
 3.2990	 3.0580
 3.3010	 3.2270
 3.3030	 3.4820
 3.3050	 3.4700
 3.3070	 3.4150
 3.3090	 3.5790
 3.3110	 3.5530
 3.3130	 3.3680
 3.3150	 3.1740
 3.3180	 3.1570
 3.3200	 3.2460
 3.3220	 3.0840
 3.3240	 2.9300
 3.3260	 2.8610
 3.3280	 2.8350
 3.3300	 3.0120
 3.3330	 3.1190
 3.3350	 3.0330
 3.3370	 2.9960
 3.3390	 3.0580
 3.3410	 2.8750
 3.3430	 2.7950
 3.3450	 2.8790
 3.3480	 2.8060
 3.3500	 2.7790
 3.3520	 2.9180
 3.3540	 2.9010
 3.3560	 2.7790
 3.3580	 2.7100
 3.3610	 2.6800
 3.3630	 2.7690
 3.3650	 2.8060
 3.3670	 2.7520
 3.3690	 2.8160
 3.3720	 2.7580
 3.3740	 2.7730
 3.3760	 2.7460
 3.3780	 2.6810
 3.3800	 2.6770
 3.3830	 2.6060
 3.3850	 2.7190
 3.3870	 2.8870
 3.3890	 2.8040
 3.3910	 2.7070
 3.3940	 2.5570
 3.3960	 2.3500
 3.3980	 2.1470
 3.4000	 2.1070
 3.4020	 2.2000
 3.4050	 2.2810
 3.4070	 2.2800
 3.4090	 2.3250
 3.4110	 2.4610
 3.4140	 2.6310
 3.4160	 2.8800
 3.4180	 3.4310
 3.4200	 4.3630
 3.4230	 5.7020
 3.4250	 7.0990
 3.4270	 8.5680
 3.4290	 9.4370
 3.4320	 9.1630
 3.4340	 8.1980
 3.4360	 7.2500
 3.4390	 6.5660
 3.4410	 6.0850
 3.4430	 5.6490
 3.4450	 5.3250
 3.4480	 5.3640
 3.4500	 5.2700
 3.4520	 4.8700
 3.4550	 4.8930
 3.4570	 4.8620
 3.4590	 4.7760
 3.4620	 4.8580
 3.4640	 4.7650
 3.4660	 4.6020
 3.4680	 4.4790
 3.4710	 4.4000
 3.4730	 4.4350
 3.4750	 4.3750
 3.4780	 4.2270
 3.4800	 4.0460
 3.4820	 3.9000
 3.4850	 3.8030
 3.4870	 3.7430
 3.4890	 3.7140
 3.4920	 3.5310
 3.4940	 3.3760
 3.4970	 3.2940
 3.4990	 3.2120
 3.5010	 3.1300
 3.5040	 3.2730
 3.5060	 4.2410
 3.5080	 6.0680
 3.5110	 7.9090
 3.5130	 8.3370
 3.5160	 7.5930
 3.5180	 6.8020
 3.5200	 6.2440
 3.5230	 5.8030
 3.5250	 5.5270
 3.5270	 5.3650
 3.5300	 5.2700
 3.5320	 5.3040
 3.5350	 5.2850
 3.5370	 5.1760
 3.5400	 5.1550
 3.5420	 4.9790
 3.5440	 4.8420
 3.5470	 4.8830
 3.5490	 4.8250
 3.5520	 4.7180
 3.5540	 4.6070
 3.5570	 4.5170
 3.5590	 4.6180
 3.5610	 4.7350
 3.5640	 4.6710
 3.5660	 4.6100
 3.5690	 4.6420
 3.5710	 4.6370
 3.5740	 4.6410
 3.5760	 4.7090
 3.5790	 4.7400
 3.5810	 4.6970
 3.5840	 4.6620
 3.5860	 4.5670
 3.5890	 4.4570
 3.5910	 4.4880
 3.5930	 4.6100
 3.5960	 4.7310
 3.5980	 4.7690
 3.6010	 4.7170
 3.6030	 4.5340
 3.6060	 4.2670
 3.6080	 4.2740
 3.6110	 4.4450
 3.6140	 4.6320
 3.6160	 4.6380
 3.6190	 4.5370
 3.6210	 4.4700
 3.6240	 4.4610
 3.6260	 4.4550
 3.6290	 4.4810
 3.6310	 4.5740
 3.6340	 4.6440
 3.6360	 4.6390
 3.6390	 4.5440
 3.6410	 4.5300
 3.6440	 4.5690
 3.6470	 4.4920
 3.6490	 4.3580
 3.6520	 4.3940
 3.6540	 4.5230
 3.6570	 4.5870
 3.6590	 4.4930
 3.6620	 4.4490
 3.6650	 4.5230
 3.6670	 4.5480
 3.6700	 4.5130
 3.6720	 4.4070
 3.6750	 4.4010
 3.6780	 4.5920
 3.6800	 4.6510
 3.6830	 4.5690
 3.6850	 4.5090
 3.6880	 4.5120
 3.6910	 4.4580
 3.6930	 4.4360
 3.6960	 4.4690
 3.6990	 4.5140
 3.7010	 4.5490
 3.7040	 4.6320
 3.7060	 4.6860
 3.7090	 4.6030
 3.7120	 4.6740
 3.7140	 4.7220
 3.7170	 4.5490
 3.7200	 4.4090
 3.7220	 4.4260
 3.7250	 4.4410
 3.7280	 4.4400
 3.7300	 4.4250
 3.7330	 4.4360
 3.7360	 4.4910
 3.7390	 4.5390
 3.7410	 4.5680
 3.7440	 4.6660
 3.7470	 4.6940
 3.7490	 4.6990
 3.7520	 4.6600
 3.7550	 4.5250
 3.7580	 4.6180
 3.7600	 4.7300
 3.7630	 4.6110
 3.7660	 4.4540
 3.7680	 4.5620
 3.7710	 4.7160
 3.7740	 4.7270
 3.7770	 4.8230
 3.7790	 4.8090
 3.7820	 4.7120
 3.7850	 4.7330
 3.7880	 4.7690
 3.7900	 4.8130
 3.7930	 4.7650
 3.7960	 4.6310
 3.7990	 4.6060
 3.8020	 4.6850
 3.8040	 4.7030
 3.8070	 4.7120
 3.8100	 4.7380
 3.8130	 4.6690
 3.8160	 4.5910
 3.8180	 4.6530
 3.8210	 4.6830
 3.8240	 4.6840
 3.8270	 4.6820
 3.8300	 4.6390
 3.8330	 4.6160
 3.8350	 4.6570
 3.8380	 4.7550
 3.8410	 4.8200
 3.8440	 4.7390
 3.8470	 4.6670
 3.8500	 4.6080
 3.8520	 4.7300
 3.8550	 4.9170
 3.8580	 4.9510
 3.8610	 4.9330
 3.8640	 4.8790
 3.8670	 4.8420
 3.8700	 4.8300
 3.8730	 4.8500
 3.8750	 4.8560
 3.8780	 4.9030
 3.8810	 4.9280
 3.8840	 4.8850
 3.8870	 4.8550
 3.8900	 4.8790
 3.8930	 4.9900
 3.8960	 5.0610
 3.8990	 5.0660
 3.9020	 4.9900
 3.9050	 4.9420
 3.9080	 5.0110
 3.9110	 5.0840
 3.9140	 5.0280
 3.9160	 4.9130
 3.9190	 4.9180
 3.9220	 4.9250
 3.9250	 4.9110
 3.9280	 4.8730
 3.9310	 4.8790
 3.9340	 4.9840
 3.9370	 4.9960
 3.9400	 4.9590
 3.9430	 4.9060
 3.9460	 4.8790
 3.9490	 4.8410
 3.9520	 4.9620
 3.9550	 5.0080
 3.9580	 4.9410
 3.9610	 4.9580
 3.9640	 4.9990
 3.9670	 5.0230
 3.9700	 5.0120
 3.9730	 5.0580
 3.9770	 5.1010
 3.9800	 5.1330
 3.9830	 5.1200
 3.9860	 5.1110
 3.9890	 5.0720
 3.9920	 5.0550
 3.9950	 4.9870
 3.9980	 4.9360
 4.0010	 4.9700
 4.0040	 4.9820
 4.0070	 5.0110
 4.0100	 5.0150
 4.0130	 4.9710
 4.0170	 4.9960
 4.0200	 5.0440
 4.0230	 4.9740
 4.0260	 4.8650
 4.0290	 4.9400
 4.0320	 5.0760
 4.0350	 5.0950
 4.0380	 5.1690
 4.0420	 5.1780
 4.0450	 5.1390
 4.0480	 5.1680
 4.0510	 5.1900
 4.0540	 5.0790
 4.0570	 5.0090
 4.0610	 5.0670
 4.0640	 5.1220
 4.0670	 5.0860
 4.0700	 5.1490
 4.0730	 5.1800
 4.0770	 5.1320
 4.0800	 5.1400
 4.0830	 5.1670
 4.0860	 5.2000
 4.0890	 5.2010
 4.0930	 5.1780
 4.0960	 5.1860
 4.0990	 5.1230
 4.1020	 5.0350
 4.1060	 5.0660
 4.1090	 5.1660
 4.1120	 5.2260
 4.1150	 5.2430
 4.1190	 5.1530
 4.1220	 5.0800
 4.1250	 5.0540
 4.1280	 5.0450
 4.1320	 5.0760
 4.1350	 5.1650
 4.1380	 5.1410
 4.1420	 5.1360
 4.1450	 5.1530
 4.1480	 5.2360
 4.1520	 5.1970
 4.1550	 5.1060
 4.1580	 5.0850
 4.1620	 5.0960
 4.1650	 5.0970
 4.1680	 5.0940
 4.1720	 5.1290
 4.1750	 5.1780
 4.1780	 5.1060
 4.1820	 5.0850
 4.1850	 5.0780
 4.1890	 5.0480
 4.1920	 5.1660
 4.1950	 5.2620
 4.1990	 5.1890
 4.2020	 5.2100
 4.2060	 5.2430
 4.2090	 5.2730
 4.2120	 5.5020
 4.2160	 5.7370
 4.2190	 5.9150
 4.2230	 6.0570
 4.2260	 6.3270
 4.2300	 6.3620
 4.2330	 6.0780
 4.2360	 5.9860
 4.2400	 6.1020
 4.2430	 5.8830
 4.2470	 5.8500
 4.2500	 6.0660
 4.2540	 5.8050
 4.2570	 5.7410
 4.2610	 5.8550
 4.2640	 6.0570
 4.2680	 6.0550
 4.2710	 6.0500
 4.2750	 5.8980
 4.2780	 5.7470
 4.2820	 5.7050
 4.2850	 5.7510
 4.2890	 5.6660
 4.2930	 5.6150
 4.2960	 5.3930
 4.3000	 5.4210
 4.3030	 5.5680
 4.3070	 5.4560
 4.3100	 5.3790
 4.3140	 5.4230
 4.3180	 5.4570
 4.3210	 5.3800
 4.3250	 5.1800
 4.3280	 5.1950
 4.3320	 5.1730
 4.3360	 5.0680
 4.3390	 4.9550
 4.3430	 4.8710
 4.3470	 4.8640
 4.3500	 4.8880
 4.3540	 4.9100
 4.3570	 4.9660
 4.3610	 4.9380
 4.3650	 4.8810
 4.3680	 4.8310
 4.3720	 4.8430
 4.3760	 4.8750
 4.3800	 4.8160
 4.3830	 4.7340
 4.3870	 4.7970
 4.3910	 4.8300
 4.3940	 4.7560
 4.3980	 4.6830
 4.4020	 4.7550
 4.4060	 4.8020
 4.4090	 4.7350
 4.4130	 4.6630
 4.4170	 4.7380
 4.4210	 4.7970
 4.4240	 4.7500
 4.4280	 4.6890
 4.4320	 4.7000
 4.4360	 4.7530
 4.4400	 4.7200
 4.4430	 4.6500
 4.4470	 4.6130
 4.4510	 4.6510
 4.4550	 4.6760
 4.4590	 4.5830
 4.4620	 4.5910
 4.4660	 4.5770
 4.4700	 4.6060
 4.4740	 4.6130
 4.4780	 4.5960
 4.4820	 4.5690
 4.4860	 4.5690
 4.4900	 4.5330
 4.4930	 4.4930
 4.4970	 4.4780
 4.5010	 4.4910
 4.5050	 4.5260
 4.5090	 4.4750
 4.5130	 4.4000
 4.5170	 4.4660
 4.5210	 4.4940
 4.5250	 4.5210
 4.5290	 4.4630
 4.5330	 4.4750
 4.5370	 4.4400
 4.5410	 4.4410
 4.5450	 4.4170
 4.5490	 4.4050
 4.5530	 4.3350
 4.5570	 4.3170
 4.5610	 4.3880
 4.5650	 4.5280
 4.5690	 4.5480
 4.5730	 4.4380
 4.5770	 4.4010
 4.5810	 4.4460
 4.5850	 4.4420
 4.5890	 4.3910
 4.5930	 4.3320
 4.5970	 4.3130
 4.6010	 4.3840
 4.6050	 4.3080
 4.6090	 4.2310
 4.6130	 4.3350
 4.6170	 4.4160
 4.6220	 4.4120
 4.6260	 4.2370
 4.6300	 4.2860
 4.6340	 4.3670
 4.6380	 4.4240
 4.6420	 4.3850
 4.6460	 4.3500
 4.6510	 4.3950
 4.6550	 4.3820
 4.6590	 4.1620
 4.6630	 4.1590
 4.6670	 4.2200
 4.6720	 4.2190
 4.6760	 4.2220
 4.6800	 4.3020
 4.6840	 4.3540
 4.6880	 4.3380
 4.6930	 4.3240
 4.6970	 4.4270
 4.7010	 4.3980
 4.7050	 4.3940
 4.7100	 4.3960
 4.7140	 4.3460
 4.7180	 4.1920
 4.7230	 4.2130
 4.7270	 4.2000
 4.7310	 4.1510
 4.7360	 4.2360
 4.7400	 4.3260
 4.7440	 4.3040
 4.7490	 4.2840
 4.7530	 4.2140
 4.7570	 4.3080
 4.7620	 4.4310
 4.7660	 4.3670
 4.7700	 4.2900
 4.7750	 4.3970
 4.7790	 4.3160
 4.7840	 4.1220
 4.7880	 4.0900
 4.7920	 4.3480
 4.7970	 4.4710
 4.8010	 4.4940
 4.8060	 4.3780
 4.8100	 4.3560
 4.8150	 4.3130
 4.8190	 4.3980
 4.8240	 4.5250
 4.8280	 4.5720
 4.8330	 4.4670
 4.8370	 4.4000
 4.8420	 4.3370
 4.8460	 4.3580
 4.8510	 4.3490
 4.8550	 4.4260
 4.8600	 4.3590
 4.8640	 4.3070
 4.8690	 4.2900
 4.8730	 4.3430
 4.8780	 4.3500
 4.8830	 4.3520
 4.8870	 4.2960
 4.8920	 4.2620
 4.8960	 4.3590
 4.9010	 4.4420
 4.9060	 4.3970
 4.9100	 4.4110
 4.9150	 4.3930
 4.9200	 4.4030
 4.9240	 4.4440
 4.9290	 4.4690
 4.9340	 4.4320
 4.9380	 4.4780
 4.9430	 4.4610
 4.9480	 4.4570
 4.9530	 4.4240
 4.9570	 4.4420
 4.9620	 4.4930
 4.9670	 4.6080
 4.9720	 4.5990
 4.9760	 4.5870
 4.9810	 4.5760
 4.9860	 4.5730
 4.9910	 4.4810
 4.9960	 4.4730
 5.0000	 4.4550
 5.0050	 4.4980
 5.0100	 4.5280
 5.0150	 4.5920
 5.0200	 4.6130
 5.0250	 4.6070
 5.0290	 4.5630
 5.0340	 4.5200
 5.0390	 4.5840
 5.0440	 4.6350
 5.0490	 4.5670
 5.0540	 4.6530
 5.0590	 4.6830
 5.0640	 4.7100
 5.0690	 4.6570
 5.0740	 4.6210
 5.0790	 4.5580
 5.0840	 4.6630
 5.0890	 4.7290
 5.0940	 4.6900
 5.0990	 4.6170
 5.1040	 4.7070
 5.1090	 4.6910
 5.1140	 4.7020
 5.1190	 4.6890
 5.1240	 4.6710
 5.1290	 4.6020
 5.1340	 4.6480
 5.1390	 4.6760
 5.1440	 4.7610
 5.1490	 4.7680
 5.1540	 4.8330
 5.1600	 4.8640
 5.1650	 4.8870
 5.1700	 4.8350
 5.1750	 4.7500
 5.1800	 4.7050
 5.1850	 4.7590
 5.1910	 4.7850
 5.1960	 4.7810
 5.2010	 4.7970
 5.2060	 4.8250
 5.2110	 4.7610
 5.2170	 4.7800
 5.2220	 4.7530
 5.2270	 4.8690
 5.2320	 4.8520
 5.2380	 4.7160
 5.2430	 4.5940
 5.2480	 4.6750
 5.2540	 4.8050
 5.2590	 4.8780
 5.2640	 4.7170
 5.2700	 4.6320
 5.2750	 4.7050
 5.2800	 4.7340
 5.2860	 4.6140
 5.2910	 4.7310
 5.2970	 4.8320
 5.3020	 4.7810
 5.3070	 4.7400
 5.3130	 4.7720
 5.3180	 4.7620
 5.3240	 4.8260
 5.3290	 4.8150
 5.3350	 4.8410
 5.3400	 4.7740
 5.3460	 4.6750
 5.3510	 4.6390
 5.3570	 4.7380
 5.3620	 4.6610
 5.3680	 4.7060
 5.3730	 4.6900
 5.3790	 4.6690
 5.3850	 4.6730
 5.3900	 4.6790
 5.3960	 4.6060
 5.4010	 4.6260
 5.4070	 4.6100
 5.4130	 4.5450
 5.4180	 4.4600
 5.4240	 4.5240
 5.4300	 4.5380
 5.4350	 4.5690
 5.4410	 4.4800
