Name: Quercus agrifolia 2
Type: vegetation
Class: Tree
Genus: Quercus
Species: agrifolia
Sample No.: VH275
Owner: UCSB
Wavelength Range: VSWIR
Origin: 34.7156; -120.0603; WGS84
Collection Date: 11/2/2013
Description: Samples were collected as part of the HyspIRI Airborne Campaign. 48 individual plants were sampled in three times in 2013 - spring  summer  and fall. The name of the sample includes a 1  2  or 3 which references a different individual of the species. Samples were taken to JPL and processed within 48 hours of collection. The same leaves were processed in the Nicolet and then measured using the ASD.
Measurement: Bidirectional reflectance
First Column: X
Second Column: Y
X Units: Wavelength (micrometers)
Y Units: Reflectance (percentage)
First X Value: 0.35
Last X Value: 2.5
Number of X Values: 2151
Additional Information: vegetation.tree.quercus.agrifolia.vswir.vh275.ucsb.asd.ancillary.txt

 0.3500	 8.9020
 0.3510	 8.9270
 0.3520	 8.9360
 0.3530	 8.9700
 0.3540	 9.0070
 0.3550	 8.7350
 0.3560	 8.6790
 0.3570	 8.8280
 0.3580	 8.8900
 0.3590	 8.8220
 0.3600	 8.7250
 0.3610	 8.6560
 0.3620	 8.5790
 0.3630	 8.6610
 0.3640	 8.7800
 0.3650	 8.7970
 0.3660	 8.8000
 0.3670	 8.7420
 0.3680	 8.6790
 0.3690	 8.7110
 0.3700	 8.6820
 0.3710	 8.6560
 0.3720	 8.6660
 0.3730	 8.6210
 0.3740	 8.6420
 0.3750	 8.6980
 0.3760	 8.7150
 0.3770	 8.6620
 0.3780	 8.6350
 0.3790	 8.6500
 0.3800	 8.6550
 0.3810	 8.6940
 0.3820	 8.7080
 0.3830	 8.6750
 0.3840	 8.6750
 0.3850	 8.6800
 0.3860	 8.6570
 0.3870	 8.5930
 0.3880	 8.6180
 0.3890	 8.6090
 0.3900	 8.5540
 0.3910	 8.5640
 0.3920	 8.5710
 0.3930	 8.5810
 0.3940	 8.6050
 0.3950	 8.6380
 0.3960	 8.6390
 0.3970	 8.6160
 0.3980	 8.5980
 0.3990	 8.5750
 0.4000	 8.5810
 0.4010	 8.6170
 0.4020	 8.6330
 0.4030	 8.6330
 0.4040	 8.6450
 0.4050	 8.6860
 0.4060	 8.6990
 0.4070	 8.6930
 0.4080	 8.6970
 0.4090	 8.7440
 0.4100	 8.7360
 0.4110	 8.7450
 0.4120	 8.7970
 0.4130	 8.7820
 0.4140	 8.8140
 0.4150	 8.8550
 0.4160	 8.8480
 0.4170	 8.8520
 0.4180	 8.8840
 0.4190	 8.9280
 0.4200	 8.9440
 0.4210	 8.9620
 0.4220	 8.9840
 0.4230	 9.0070
 0.4240	 9.0230
 0.4250	 9.0380
 0.4260	 9.0580
 0.4270	 9.0900
 0.4280	 9.1140
 0.4290	 9.1400
 0.4300	 9.1660
 0.4310	 9.1740
 0.4320	 9.1770
 0.4330	 9.1840
 0.4340	 9.2010
 0.4350	 9.2240
 0.4360	 9.2380
 0.4370	 9.2460
 0.4380	 9.2610
 0.4390	 9.2780
 0.4400	 9.2970
 0.4410	 9.3190
 0.4420	 9.3380
 0.4430	 9.3530
 0.4440	 9.3640
 0.4450	 9.3770
 0.4460	 9.3980
 0.4470	 9.4130
 0.4480	 9.4190
 0.4490	 9.4250
 0.4500	 9.4400
 0.4510	 9.4560
 0.4520	 9.4670
 0.4530	 9.4780
 0.4540	 9.4880
 0.4550	 9.4970
 0.4560	 9.5020
 0.4570	 9.5090
 0.4580	 9.5160
 0.4590	 9.5230
 0.4600	 9.5270
 0.4610	 9.5280
 0.4620	 9.5340
 0.4630	 9.5500
 0.4640	 9.5620
 0.4650	 9.5640
 0.4660	 9.5610
 0.4670	 9.5670
 0.4680	 9.5740
 0.4690	 9.5790
 0.4700	 9.5810
 0.4710	 9.5810
 0.4720	 9.5940
 0.4730	 9.6110
 0.4740	 9.6080
 0.4750	 9.6140
 0.4760	 9.6210
 0.4770	 9.6260
 0.4780	 9.6360
 0.4790	 9.6400
 0.4800	 9.6430
 0.4810	 9.6530
 0.4820	 9.6570
 0.4830	 9.6620
 0.4840	 9.6700
 0.4850	 9.6740
 0.4860	 9.6890
 0.4870	 9.7080
 0.4880	 9.7250
 0.4890	 9.7340
 0.4900	 9.7580
 0.4910	 9.7920
 0.4920	 9.8170
 0.4930	 9.8440
 0.4940	 9.8760
 0.4950	 9.9150
 0.4960	 9.9610
 0.4970	10.0020
 0.4980	10.0450
 0.4990	10.1010
 0.5000	10.1640
 0.5010	10.2350
 0.5020	10.3130
 0.5030	10.3950
 0.5040	10.4790
 0.5050	10.5690
 0.5060	10.6690
 0.5070	10.7840
 0.5080	10.9080
 0.5090	11.0410
 0.5100	11.1830
 0.5110	11.3300
 0.5120	11.4890
 0.5130	11.6630
 0.5140	11.8460
 0.5150	12.0360
 0.5160	12.2320
 0.5170	12.4330
 0.5180	12.6380
 0.5190	12.8480
 0.5200	13.0600
 0.5210	13.2640
 0.5220	13.4660
 0.5230	13.6600
 0.5240	13.8440
 0.5250	14.0210
 0.5260	14.1860
 0.5270	14.3370
 0.5280	14.4720
 0.5290	14.5970
 0.5300	14.7100
 0.5310	14.8090
 0.5320	14.8970
 0.5330	14.9740
 0.5340	15.0400
 0.5350	15.0960
 0.5360	15.1410
 0.5370	15.1860
 0.5380	15.2290
 0.5390	15.2650
 0.5400	15.2940
 0.5410	15.3230
 0.5420	15.3540
 0.5430	15.3780
 0.5440	15.4150
 0.5450	15.4620
 0.5460	15.5070
 0.5470	15.5520
 0.5480	15.5970
 0.5490	15.6360
 0.5500	15.6530
 0.5510	15.6680
 0.5520	15.6780
 0.5530	15.6750
 0.5540	15.6590
 0.5550	15.6350
 0.5560	15.6000
 0.5570	15.5510
 0.5580	15.4920
 0.5590	15.4220
 0.5600	15.3400
 0.5610	15.2510
 0.5620	15.1510
 0.5630	15.0420
 0.5640	14.9270
 0.5650	14.8000
 0.5660	14.6670
 0.5670	14.5310
 0.5680	14.3950
 0.5690	14.2600
 0.5700	14.1230
 0.5710	13.9860
 0.5720	13.8620
 0.5730	13.7470
 0.5740	13.6420
 0.5750	13.5500
 0.5760	13.4640
 0.5770	13.3890
 0.5780	13.3250
 0.5790	13.2670
 0.5800	13.2080
 0.5810	13.1450
 0.5820	13.0730
 0.5830	12.9950
 0.5840	12.9160
 0.5850	12.8390
 0.5860	12.7730
 0.5870	12.7190
 0.5880	12.6830
 0.5890	12.6680
 0.5900	12.6580
 0.5910	12.6360
 0.5920	12.6020
 0.5930	12.5650
 0.5940	12.5310
 0.5950	12.5060
 0.5960	12.4860
 0.5970	12.4570
 0.5980	12.4200
 0.5990	12.3770
 0.6000	12.3300
 0.6010	12.2800
 0.6020	12.2290
 0.6030	12.1750
 0.6040	12.1200
 0.6050	12.0630
 0.6060	12.0030
 0.6070	11.9390
 0.6080	11.8720
 0.6090	11.8030
 0.6100	11.7280
 0.6110	11.6460
 0.6120	11.5870
 0.6130	11.5390
 0.6140	11.4940
 0.6150	11.4540
 0.6160	11.4150
 0.6170	11.3760
 0.6180	11.3380
 0.6190	11.3030
 0.6200	11.2750
 0.6210	11.2530
 0.6220	11.2350
 0.6230	11.2250
 0.6240	11.2180
 0.6250	11.2100
 0.6260	11.2060
 0.6270	11.2060
 0.6280	11.2080
 0.6290	11.2110
 0.6300	11.2160
 0.6310	11.2180
 0.6320	11.2150
 0.6330	11.2150
 0.6340	11.2110
 0.6350	11.1960
 0.6360	11.1690
 0.6370	11.1360
 0.6380	11.0920
 0.6390	11.0400
 0.6400	10.9880
 0.6410	10.9210
 0.6420	10.8490
 0.6430	10.7820
 0.6440	10.7140
 0.6450	10.6430
 0.6460	10.5740
 0.6470	10.5110
 0.6480	10.4560
 0.6490	10.4020
 0.6500	10.3500
 0.6510	10.3090
 0.6520	10.2680
 0.6530	10.2270
 0.6540	10.1860
 0.6550	10.1480
 0.6560	10.1080
 0.6570	10.0670
 0.6580	10.0260
 0.6590	 9.9840
 0.6600	 9.9440
 0.6610	 9.9080
 0.6620	 9.8780
 0.6630	 9.8510
 0.6640	 9.8280
 0.6650	 9.8120
 0.6660	 9.8060
 0.6670	 9.8010
 0.6680	 9.8010
 0.6690	 9.8150
 0.6700	 9.8280
 0.6710	 9.8440
 0.6720	 9.8660
 0.6730	 9.8980
 0.6740	 9.9350
 0.6750	 9.9770
 0.6760	10.0240
 0.6770	10.0760
 0.6780	10.1350
 0.6790	10.2020
 0.6800	10.2770
 0.6810	10.3580
 0.6820	10.4510
 0.6830	10.5610
 0.6840	10.6870
 0.6850	10.8290
 0.6860	10.9950
 0.6870	11.1950
 0.6880	11.4270
 0.6890	11.7050
 0.6900	12.0360
 0.6910	12.4210
 0.6920	12.8750
 0.6930	13.4000
 0.6940	13.9980
 0.6950	14.6730
 0.6960	15.4260
 0.6970	16.2510
 0.6980	17.1390
 0.6990	18.0850
 0.7000	19.0870
 0.7010	20.1330
 0.7020	21.2060
 0.7030	22.2980
 0.7040	23.3960
 0.7050	24.4920
 0.7060	25.5900
 0.7070	26.6700
 0.7080	27.7280
 0.7090	28.7710
 0.7100	29.7890
 0.7110	30.7820
 0.7120	31.7480
 0.7130	32.6840
 0.7140	33.5950
 0.7150	34.4740
 0.7160	35.3150
 0.7170	36.1290
 0.7180	36.9160
 0.7190	37.6740
 0.7200	38.4010
 0.7210	39.0900
 0.7220	39.7560
 0.7230	40.3980
 0.7240	41.0060
 0.7250	41.5830
 0.7260	42.1330
 0.7270	42.6560
 0.7280	43.1550
 0.7290	43.6230
 0.7300	44.0650
 0.7310	44.4880
 0.7320	44.8890
 0.7330	45.2630
 0.7340	45.6120
 0.7350	45.9470
 0.7360	46.2630
 0.7370	46.5570
 0.7380	46.8300
 0.7390	47.0930
 0.7400	47.3330
 0.7410	47.5530
 0.7420	47.7600
 0.7430	47.9470
 0.7440	48.1220
 0.7450	48.2850
 0.7460	48.4340
 0.7470	48.5730
 0.7480	48.6970
 0.7490	48.8030
 0.7500	48.9030
 0.7510	48.9930
 0.7520	49.0740
 0.7530	49.1480
 0.7540	49.2110
 0.7550	49.2590
 0.7560	49.3010
 0.7570	49.3520
 0.7580	49.3890
 0.7590	49.4210
 0.7600	49.4530
 0.7610	49.4780
 0.7620	49.4970
 0.7630	49.5120
 0.7640	49.5220
 0.7650	49.5270
 0.7660	49.5310
 0.7670	49.5360
 0.7680	49.5420
 0.7690	49.5420
 0.7700	49.5370
 0.7710	49.5330
 0.7720	49.5290
 0.7730	49.5270
 0.7740	49.5250
 0.7750	49.5230
 0.7760	49.5180
 0.7770	49.5140
 0.7780	49.5100
 0.7790	49.5040
 0.7800	49.4920
 0.7810	49.4880
 0.7820	49.4890
 0.7830	49.4850
 0.7840	49.4840
 0.7850	49.4790
 0.7860	49.4710
 0.7870	49.4720
 0.7880	49.4740
 0.7890	49.4740
 0.7900	49.4760
 0.7910	49.4790
 0.7920	49.4800
 0.7930	49.4790
 0.7940	49.4760
 0.7950	49.4820
 0.7960	49.4910
 0.7970	49.4960
 0.7980	49.4960
 0.7990	49.5020
 0.8000	49.5110
 0.8010	49.5170
 0.8020	49.5150
 0.8030	49.5200
 0.8040	49.5330
 0.8050	49.5490
 0.8060	49.5650
 0.8070	49.5770
 0.8080	49.5880
 0.8090	49.5990
 0.8100	49.6100
 0.8110	49.6230
 0.8120	49.6390
 0.8130	49.6440
 0.8140	49.6610
 0.8150	49.6830
 0.8160	49.7030
 0.8170	49.7210
 0.8180	49.7380
 0.8190	49.7560
 0.8200	49.7800
 0.8210	49.8010
 0.8220	49.8180
 0.8230	49.8310
 0.8240	49.8460
 0.8250	49.8650
 0.8260	49.8820
 0.8270	49.8960
 0.8280	49.9200
 0.8290	49.9450
 0.8300	49.9630
 0.8310	49.9750
 0.8320	49.9980
 0.8330	50.0190
 0.8340	50.0390
 0.8350	50.0620
 0.8360	50.0820
 0.8370	50.0940
 0.8380	50.1050
 0.8390	50.1290
 0.8400	50.1510
 0.8410	50.1680
 0.8420	50.1830
 0.8430	50.2050
 0.8440	50.2250
 0.8450	50.2430
 0.8460	50.2620
 0.8470	50.2800
 0.8480	50.2980
 0.8490	50.3150
 0.8500	50.3310
 0.8510	50.3470
 0.8520	50.3630
 0.8530	50.3800
 0.8540	50.3970
 0.8550	50.4040
 0.8560	50.4120
 0.8570	50.4240
 0.8580	50.4360
 0.8590	50.4520
 0.8600	50.4670
 0.8610	50.4760
 0.8620	50.4760
 0.8630	50.4840
 0.8640	50.4940
 0.8650	50.5020
 0.8660	50.5110
 0.8670	50.5150
 0.8680	50.5190
 0.8690	50.5270
 0.8700	50.5240
 0.8710	50.5280
 0.8720	50.5390
 0.8730	50.5420
 0.8740	50.5420
 0.8750	50.5410
 0.8760	50.5390
 0.8770	50.5380
 0.8780	50.5400
 0.8790	50.5390
 0.8800	50.5360
 0.8810	50.5370
 0.8820	50.5400
 0.8830	50.5400
 0.8840	50.5320
 0.8850	50.5230
 0.8860	50.5170
 0.8870	50.5150
 0.8880	50.5150
 0.8890	50.4940
 0.8900	50.4840
 0.8910	50.4840
 0.8920	50.4750
 0.8930	50.4610
 0.8940	50.4470
 0.8950	50.4420
 0.8960	50.4470
 0.8970	50.4360
 0.8980	50.4250
 0.8990	50.4180
 0.9000	50.4040
 0.9010	50.3850
 0.9020	50.3690
 0.9030	50.3610
 0.9040	50.3620
 0.9050	50.3500
 0.9060	50.3310
 0.9070	50.3170
 0.9080	50.3130
 0.9090	50.3000
 0.9100	50.2890
 0.9110	50.2900
 0.9120	50.2720
 0.9130	50.2590
 0.9140	50.2460
 0.9150	50.2260
 0.9160	50.2130
 0.9170	50.2020
 0.9180	50.1930
 0.9190	50.1860
 0.9200	50.1760
 0.9210	50.1600
 0.9220	50.1420
 0.9230	50.1280
 0.9240	50.1170
 0.9250	50.1010
 0.9260	50.0810
 0.9270	50.0650
 0.9280	50.0470
 0.9290	50.0330
 0.9300	50.0220
 0.9310	50.0010
 0.9320	49.9850
 0.9330	49.9640
 0.9340	49.9380
 0.9350	49.9220
 0.9360	49.9130
 0.9370	49.9010
 0.9380	49.8840
 0.9390	49.8660
 0.9400	49.8460
 0.9410	49.8260
 0.9420	49.8050
 0.9430	49.7750
 0.9440	49.7610
 0.9450	49.7460
 0.9460	49.7190
 0.9470	49.6920
 0.9480	49.6500
 0.9490	49.6100
 0.9500	49.5840
 0.9510	49.5530
 0.9520	49.5140
 0.9530	49.4730
 0.9540	49.4320
 0.9550	49.3930
 0.9560	49.3500
 0.9570	49.3120
 0.9580	49.2860
 0.9590	49.2390
 0.9600	49.2090
 0.9610	49.1860
 0.9620	49.1540
 0.9630	49.1380
 0.9640	49.1280
 0.9650	49.1080
 0.9660	49.0760
 0.9670	49.0780
 0.9680	49.0780
 0.9690	49.0700
 0.9700	49.0650
 0.9710	49.0620
 0.9720	49.0550
 0.9730	49.0500
 0.9740	49.0550
 0.9750	49.0530
 0.9760	49.0490
 0.9770	49.0510
 0.9780	49.0590
 0.9790	49.0510
 0.9800	49.0620
 0.9810	49.0860
 0.9820	49.0980
 0.9830	49.0920
 0.9840	49.1060
 0.9850	49.1340
 0.9860	49.1500
 0.9870	49.1680
 0.9880	49.1920
 0.9890	49.2100
 0.9900	49.2130
 0.9910	49.2280
 0.9920	49.2620
 0.9930	49.2990
 0.9940	49.3200
 0.9950	49.3240
 0.9960	49.3320
 0.9970	49.3520
 0.9980	49.3810
 0.9990	49.3990
 1.0000	49.4120
 1.0010	49.3610
 1.0020	49.3600
 1.0030	49.3850
 1.0040	49.4060
 1.0050	49.4260
 1.0060	49.4500
 1.0070	49.4730
 1.0080	49.4950
 1.0090	49.5160
 1.0100	49.5380
 1.0110	49.5570
 1.0120	49.5780
 1.0130	49.6030
 1.0140	49.6230
 1.0150	49.6400
 1.0160	49.6590
 1.0170	49.6820
 1.0180	49.7000
 1.0190	49.7200
 1.0200	49.7450
 1.0210	49.7670
 1.0220	49.7860
 1.0230	49.8050
 1.0240	49.8220
 1.0250	49.8380
 1.0260	49.8530
 1.0270	49.8680
 1.0280	49.8820
 1.0290	49.8990
 1.0300	49.9190
 1.0310	49.9350
 1.0320	49.9500
 1.0330	49.9650
 1.0340	49.9800
 1.0350	49.9930
 1.0360	50.0070
 1.0370	50.0250
 1.0380	50.0370
 1.0390	50.0440
 1.0400	50.0530
 1.0410	50.0580
 1.0420	50.0650
 1.0430	50.0690
 1.0440	50.0770
 1.0450	50.0850
 1.0460	50.0930
 1.0470	50.1020
 1.0480	50.1100
 1.0490	50.1170
 1.0500	50.1240
 1.0510	50.1310
 1.0520	50.1380
 1.0530	50.1450
 1.0540	50.1500
 1.0550	50.1570
 1.0560	50.1640
 1.0570	50.1730
 1.0580	50.1850
 1.0590	50.1940
 1.0600	50.2050
 1.0610	50.2130
 1.0620	50.2150
 1.0630	50.2210
 1.0640	50.2260
 1.0650	50.2310
 1.0660	50.2410
 1.0670	50.2470
 1.0680	50.2500
 1.0690	50.2530
 1.0700	50.2540
 1.0710	50.2530
 1.0720	50.2550
 1.0730	50.2590
 1.0740	50.2630
 1.0750	50.2720
 1.0760	50.2750
 1.0770	50.2790
 1.0780	50.2790
 1.0790	50.2730
 1.0800	50.2690
 1.0810	50.2630
 1.0820	50.2580
 1.0830	50.2540
 1.0840	50.2490
 1.0850	50.2410
 1.0860	50.2340
 1.0870	50.2290
 1.0880	50.2240
 1.0890	50.2190
 1.0900	50.2170
 1.0910	50.2130
 1.0920	50.2080
 1.0930	50.2020
 1.0940	50.1960
 1.0950	50.1860
 1.0960	50.1720
 1.0970	50.1590
 1.0980	50.1450
 1.0990	50.1320
 1.1000	50.1210
 1.1010	50.1070
 1.1020	50.0940
 1.1030	50.0790
 1.1040	50.0600
 1.1050	50.0410
 1.1060	50.0240
 1.1070	50.0070
 1.1080	49.9900
 1.1090	49.9720
 1.1100	49.9550
 1.1110	49.9400
 1.1120	49.9210
 1.1130	49.9020
 1.1140	49.8820
 1.1150	49.8600
 1.1160	49.8380
 1.1170	49.8190
 1.1180	49.7950
 1.1190	49.7660
 1.1200	49.7370
 1.1210	49.7090
 1.1220	49.6750
 1.1230	49.6410
 1.1240	49.6030
 1.1250	49.5600
 1.1260	49.5120
 1.1270	49.4620
 1.1280	49.4100
 1.1290	49.3540
 1.1300	49.2970
 1.1310	49.2330
 1.1320	49.1650
 1.1330	49.0910
 1.1340	49.0120
 1.1350	48.9290
 1.1360	48.8430
 1.1370	48.7510
 1.1380	48.6540
 1.1390	48.5540
 1.1400	48.4480
 1.1410	48.3390
 1.1420	48.2280
 1.1430	48.1130
 1.1440	48.0000
 1.1450	47.8860
 1.1460	47.7730
 1.1470	47.6580
 1.1480	47.5510
 1.1490	47.4460
 1.1500	47.3470
 1.1510	47.2520
 1.1520	47.1640
 1.1530	47.0790
 1.1540	47.0030
 1.1550	46.9360
 1.1560	46.8750
 1.1570	46.8170
 1.1580	46.7640
 1.1590	46.7150
 1.1600	46.6710
 1.1610	46.6330
 1.1620	46.6010
 1.1630	46.5730
 1.1640	46.5500
 1.1650	46.5300
 1.1660	46.5180
 1.1670	46.5030
 1.1680	46.4900
 1.1690	46.4780
 1.1700	46.4660
 1.1710	46.4560
 1.1720	46.4500
 1.1730	46.4420
 1.1740	46.4340
 1.1750	46.4240
 1.1760	46.4140
 1.1770	46.4040
 1.1780	46.3940
 1.1790	46.3860
 1.1800	46.3780
 1.1810	46.3640
 1.1820	46.3500
 1.1830	46.3380
 1.1840	46.3240
 1.1850	46.3140
 1.1860	46.3020
 1.1870	46.2890
 1.1880	46.2790
 1.1890	46.2700
 1.1900	46.2610
 1.1910	46.2510
 1.1920	46.2420
 1.1930	46.2320
 1.1940	46.2250
 1.1950	46.2190
 1.1960	46.2170
 1.1970	46.2150
 1.1980	46.2130
 1.1990	46.2120
 1.2000	46.2140
 1.2010	46.2200
 1.2020	46.2270
 1.2030	46.2340
 1.2040	46.2400
 1.2050	46.2450
 1.2060	46.2520
 1.2070	46.2630
 1.2080	46.2770
 1.2090	46.2930
 1.2100	46.3100
 1.2110	46.3280
 1.2120	46.3470
 1.2130	46.3690
 1.2140	46.3930
 1.2150	46.4190
 1.2160	46.4490
 1.2170	46.4780
 1.2180	46.5080
 1.2190	46.5380
 1.2200	46.5690
 1.2210	46.6020
 1.2220	46.6360
 1.2230	46.6690
 1.2240	46.7040
 1.2250	46.7380
 1.2260	46.7700
 1.2270	46.8040
 1.2280	46.8360
 1.2290	46.8690
 1.2300	46.9000
 1.2310	46.9290
 1.2320	46.9600
 1.2330	46.9880
 1.2340	47.0150
 1.2350	47.0420
 1.2360	47.0700
 1.2370	47.0950
 1.2380	47.1190
 1.2390	47.1460
 1.2400	47.1700
 1.2410	47.1910
 1.2420	47.2100
 1.2430	47.2280
 1.2440	47.2440
 1.2450	47.2590
 1.2460	47.2770
 1.2470	47.2950
 1.2480	47.3150
 1.2490	47.3330
 1.2500	47.3470
 1.2510	47.3590
 1.2520	47.3680
 1.2530	47.3790
 1.2540	47.3910
 1.2550	47.4030
 1.2560	47.4150
 1.2570	47.4260
 1.2580	47.4350
 1.2590	47.4440
 1.2600	47.4540
 1.2610	47.4610
 1.2620	47.4670
 1.2630	47.4700
 1.2640	47.4730
 1.2650	47.4770
 1.2660	47.4800
 1.2670	47.4820
 1.2680	47.4810
 1.2690	47.4780
 1.2700	47.4750
 1.2710	47.4710
 1.2720	47.4690
 1.2730	47.4640
 1.2740	47.4560
 1.2750	47.4500
 1.2760	47.4420
 1.2770	47.4360
 1.2780	47.4290
 1.2790	47.4200
 1.2800	47.4100
 1.2810	47.3990
 1.2820	47.3890
 1.2830	47.3790
 1.2840	47.3700
 1.2850	47.3640
 1.2860	47.3560
 1.2870	47.3440
 1.2880	47.3300
 1.2890	47.3150
 1.2900	47.2990
 1.2910	47.2800
 1.2920	47.2630
 1.2930	47.2460
 1.2940	47.2250
 1.2950	47.2020
 1.2960	47.1790
 1.2970	47.1530
 1.2980	47.1260
 1.2990	47.0980
 1.3000	47.0660
 1.3010	47.0330
 1.3020	46.9980
 1.3030	46.9590
 1.3040	46.9200
 1.3050	46.8790
 1.3060	46.8350
 1.3070	46.7870
 1.3080	46.7370
 1.3090	46.6830
 1.3100	46.6260
 1.3110	46.5660
 1.3120	46.5040
 1.3130	46.4390
 1.3140	46.3700
 1.3150	46.2960
 1.3160	46.2210
 1.3170	46.1430
 1.3180	46.0610
 1.3190	45.9790
 1.3200	45.8910
 1.3210	45.7980
 1.3220	45.7050
 1.3230	45.6060
 1.3240	45.5050
 1.3250	45.4020
 1.3260	45.2940
 1.3270	45.1860
 1.3280	45.0770
 1.3290	44.9620
 1.3300	44.8460
 1.3310	44.7270
 1.3320	44.6060
 1.3330	44.4870
 1.3340	44.3650
 1.3350	44.2390
 1.3360	44.1110
 1.3370	43.9800
 1.3380	43.8500
 1.3390	43.7190
 1.3400	43.5880
 1.3410	43.4610
 1.3420	43.3320
 1.3430	43.2030
 1.3440	43.0780
 1.3450	42.9500
 1.3460	42.8200
 1.3470	42.6930
 1.3480	42.5660
 1.3490	42.4420
 1.3500	42.3200
 1.3510	42.2010
 1.3520	42.0830
 1.3530	41.9680
 1.3540	41.8520
 1.3550	41.7350
 1.3560	41.6140
 1.3570	41.4930
 1.3580	41.3710
 1.3590	41.2440
 1.3600	41.1160
 1.3610	40.9840
 1.3620	40.8440
 1.3630	40.7010
 1.3640	40.5530
 1.3650	40.3980
 1.3660	40.2360
 1.3670	40.0650
 1.3680	39.8840
 1.3690	39.6950
 1.3700	39.4930
 1.3710	39.2830
 1.3720	39.0630
 1.3730	38.8260
 1.3740	38.5780
 1.3750	38.3140
 1.3760	38.0320
 1.3770	37.7310
 1.3780	37.4050
 1.3790	37.0590
 1.3800	36.6930
 1.3810	36.3000
 1.3820	35.8900
 1.3830	35.4640
 1.3840	35.0140
 1.3850	34.5400
 1.3860	34.0530
 1.3870	33.5420
 1.3880	33.0250
 1.3890	32.4950
 1.3900	31.9520
 1.3910	31.4070
 1.3920	30.8560
 1.3930	30.2990
 1.3940	29.7440
 1.3950	29.1850
 1.3960	28.6310
 1.3970	28.0850
 1.3980	27.5460
 1.3990	27.0260
 1.4000	26.5170
 1.4010	26.0200
 1.4020	25.5430
 1.4030	25.0780
 1.4040	24.6360
 1.4050	24.2160
 1.4060	23.8150
 1.4070	23.4400
 1.4080	23.0870
 1.4090	22.7520
 1.4100	22.4430
 1.4110	22.1510
 1.4120	21.8790
 1.4130	21.6290
 1.4140	21.3970
 1.4150	21.1870
 1.4160	20.9940
 1.4170	20.8170
 1.4180	20.6560
 1.4190	20.5080
 1.4200	20.3740
 1.4210	20.2530
 1.4220	20.1460
 1.4230	20.0520
 1.4240	19.9690
 1.4250	19.8920
 1.4260	19.8260
 1.4270	19.7660
 1.4280	19.7150
 1.4290	19.6700
 1.4300	19.6330
 1.4310	19.6020
 1.4320	19.5790
 1.4330	19.5600
 1.4340	19.5480
 1.4350	19.5400
 1.4360	19.5360
 1.4370	19.5360
 1.4380	19.5400
 1.4390	19.5470
 1.4400	19.5570
 1.4410	19.5710
 1.4420	19.5870
 1.4430	19.6060
 1.4440	19.6280
 1.4450	19.6500
 1.4460	19.6750
 1.4470	19.7020
 1.4480	19.7290
 1.4490	19.7570
 1.4500	19.7850
 1.4510	19.8150
 1.4520	19.8440
 1.4530	19.8750
 1.4540	19.9060
 1.4550	19.9390
 1.4560	19.9740
 1.4570	20.0110
 1.4580	20.0500
 1.4590	20.0910
 1.4600	20.1370
 1.4610	20.1870
 1.4620	20.2420
 1.4630	20.3010
 1.4640	20.3630
 1.4650	20.4300
 1.4660	20.5020
 1.4670	20.5800
 1.4680	20.6640
 1.4690	20.7510
 1.4700	20.8410
