Name: Baccharis pilularis 3
Type: vegetation
Class: Shrub
Genus: Baccharis
Species: pilularis
Sample No.: VH101
Owner: UCSB
Wavelength Range: VSWIR
Origin: 34.418; -119.8456; WGS84
Collection Date: 6/3/2013
Description: Samples were collected as part of the HyspIRI Airborne Campaign. 48 individual plants were sampled in three times in 2013 - spring  summer  and fall. The name of the sample includes a 1  2  or 3 which references a different individual of the species. Samples were taken to JPL and processed within 48 hours of collection. The same leaves were processed in the Nicolet and then measured using the ASD.
Measurement: Bidirectional reflectance
First Column: X
Second Column: Y
X Units: Wavelength (micrometers)
Y Units: Reflectance (percentage)
First X Value: 0.35
Last X Value: 2.5
Number of X Values: 2151
Additional Information: vegetation.shrub.baccharis.pilularis.vswir.vh101.ucsb.asd.ancillary.txt

 0.3500	 4.6170
 0.3510	 4.7500
 0.3520	 4.7640
 0.3530	 4.6730
 0.3540	 4.5380
 0.3550	 4.4480
 0.3560	 4.5350
 0.3570	 4.6750
 0.3580	 4.6420
 0.3590	 4.5190
 0.3600	 4.4240
 0.3610	 4.4160
 0.3620	 4.4720
 0.3630	 4.5660
 0.3640	 4.6020
 0.3650	 4.5250
 0.3660	 4.4800
 0.3670	 4.4540
 0.3680	 4.4710
 0.3690	 4.5640
 0.3700	 4.5350
 0.3710	 4.4830
 0.3720	 4.4850
 0.3730	 4.5030
 0.3740	 4.4580
 0.3750	 4.4380
 0.3760	 4.5270
 0.3770	 4.5170
 0.3780	 4.5230
 0.3790	 4.5630
 0.3800	 4.5620
 0.3810	 4.5610
 0.3820	 4.5890
 0.3830	 4.6510
 0.3840	 4.6920
 0.3850	 4.6870
 0.3860	 4.6740
 0.3870	 4.7040
 0.3880	 4.7030
 0.3890	 4.7230
 0.3900	 4.7640
 0.3910	 4.7660
 0.3920	 4.7610
 0.3930	 4.7610
 0.3940	 4.7710
 0.3950	 4.7720
 0.3960	 4.8220
 0.3970	 4.8860
 0.3980	 4.8990
 0.3990	 4.9220
 0.4000	 4.9520
 0.4010	 4.9840
 0.4020	 5.0240
 0.4030	 5.0390
 0.4040	 5.0660
 0.4050	 5.1310
 0.4060	 5.1730
 0.4070	 5.2100
 0.4080	 5.2370
 0.4090	 5.2400
 0.4100	 5.2980
 0.4110	 5.3580
 0.4120	 5.3910
 0.4130	 5.4330
 0.4140	 5.4720
 0.4150	 5.5110
 0.4160	 5.5550
 0.4170	 5.5870
 0.4180	 5.6330
 0.4190	 5.6910
 0.4200	 5.7400
 0.4210	 5.7910
 0.4220	 5.8440
 0.4230	 5.8940
 0.4240	 5.9300
 0.4250	 5.9610
 0.4260	 6.0040
 0.4270	 6.0720
 0.4280	 6.1170
 0.4290	 6.1520
 0.4300	 6.1890
 0.4310	 6.2380
 0.4320	 6.2820
 0.4330	 6.3190
 0.4340	 6.3520
 0.4350	 6.3940
 0.4360	 6.4310
 0.4370	 6.4560
 0.4380	 6.4670
 0.4390	 6.5010
 0.4400	 6.5360
 0.4410	 6.5580
 0.4420	 6.5800
 0.4430	 6.6040
 0.4440	 6.6330
 0.4450	 6.6690
 0.4460	 6.6960
 0.4470	 6.7170
 0.4480	 6.7390
 0.4490	 6.7810
 0.4500	 6.8050
 0.4510	 6.8220
 0.4520	 6.8490
 0.4530	 6.8750
 0.4540	 6.8930
 0.4550	 6.9090
 0.4560	 6.9330
 0.4570	 6.9420
 0.4580	 6.9490
 0.4590	 6.9660
 0.4600	 6.9830
 0.4610	 6.9970
 0.4620	 7.0090
 0.4630	 7.0190
 0.4640	 7.0260
 0.4650	 7.0340
 0.4660	 7.0400
 0.4670	 7.0420
 0.4680	 7.0520
 0.4690	 7.0600
 0.4700	 7.0630
 0.4710	 7.0700
 0.4720	 7.0850
 0.4730	 7.0970
 0.4740	 7.0940
 0.4750	 7.0940
 0.4760	 7.0970
 0.4770	 7.1060
 0.4780	 7.1230
 0.4790	 7.1340
 0.4800	 7.1390
 0.4810	 7.1430
 0.4820	 7.1540
 0.4830	 7.1690
 0.4840	 7.1850
 0.4850	 7.2000
 0.4860	 7.2140
 0.4870	 7.2340
 0.4880	 7.2640
 0.4890	 7.2840
 0.4900	 7.3110
 0.4910	 7.3400
 0.4920	 7.3620
 0.4930	 7.4000
 0.4940	 7.4410
 0.4950	 7.4810
 0.4960	 7.5250
 0.4970	 7.5810
 0.4980	 7.6440
 0.4990	 7.7100
 0.5000	 7.7710
 0.5010	 7.8460
 0.5020	 7.9340
 0.5030	 8.0200
 0.5040	 8.1180
 0.5050	 8.2310
 0.5060	 8.3590
 0.5070	 8.4840
 0.5080	 8.6230
 0.5090	 8.7770
 0.5100	 8.9440
 0.5110	 9.1260
 0.5120	 9.3220
 0.5130	 9.5280
 0.5140	 9.7420
 0.5150	 9.9710
 0.5160	10.2130
 0.5170	10.4640
 0.5180	10.7220
 0.5190	10.9870
 0.5200	11.2560
 0.5210	11.5290
 0.5220	11.8010
 0.5230	12.0710
 0.5240	12.3360
 0.5250	12.5850
 0.5260	12.8250
 0.5270	13.0540
 0.5280	13.2660
 0.5290	13.4630
 0.5300	13.6500
 0.5310	13.8260
 0.5320	13.9800
 0.5330	14.1190
 0.5340	14.2440
 0.5350	14.3540
 0.5360	14.4590
 0.5370	14.5490
 0.5380	14.6240
 0.5390	14.6950
 0.5400	14.7670
 0.5410	14.8390
 0.5420	14.9080
 0.5430	14.9700
 0.5440	15.0300
 0.5450	15.0830
 0.5460	15.1230
 0.5470	15.1510
 0.5480	15.1770
 0.5490	15.2070
 0.5500	15.2340
 0.5510	15.2510
 0.5520	15.2580
 0.5530	15.2560
 0.5540	15.2420
 0.5550	15.2110
 0.5560	15.1630
 0.5570	15.0990
 0.5580	15.0210
 0.5590	14.9350
 0.5600	14.8430
 0.5610	14.7380
 0.5620	14.6250
 0.5630	14.5060
 0.5640	14.3770
 0.5650	14.2370
 0.5660	14.0860
 0.5670	13.9270
 0.5680	13.7680
 0.5690	13.6020
 0.5700	13.4310
 0.5710	13.2630
 0.5720	13.1000
 0.5730	12.9550
 0.5740	12.8220
 0.5750	12.6910
 0.5760	12.5660
 0.5770	12.4470
 0.5780	12.3340
 0.5790	12.2220
 0.5800	12.1150
 0.5810	12.0190
 0.5820	11.9350
 0.5830	11.8560
 0.5840	11.7800
 0.5850	11.7050
 0.5860	11.6320
 0.5870	11.5640
 0.5880	11.5030
 0.5890	11.4510
 0.5900	11.4060
 0.5910	11.3720
 0.5920	11.3420
 0.5930	11.3050
 0.5940	11.2680
 0.5950	11.2380
 0.5960	11.2130
 0.5970	11.1830
 0.5980	11.1510
 0.5990	11.1180
 0.6000	11.0830
 0.6010	11.0440
 0.6020	10.9960
 0.6030	10.9430
 0.6040	10.8910
 0.6050	10.8330
 0.6060	10.7670
 0.6070	10.6950
 0.6080	10.6220
 0.6090	10.5490
 0.6100	10.4780
 0.6110	10.4060
 0.6120	10.3160
 0.6130	10.2220
 0.6140	10.1350
 0.6150	10.0510
 0.6160	 9.9710
 0.6170	 9.9000
 0.6180	 9.8400
 0.6190	 9.7830
 0.6200	 9.7280
 0.6210	 9.6780
 0.6220	 9.6370
 0.6230	 9.6010
 0.6240	 9.5660
 0.6250	 9.5360
 0.6260	 9.5190
 0.6270	 9.5050
 0.6280	 9.4920
 0.6290	 9.4800
 0.6300	 9.4700
 0.6310	 9.4590
 0.6320	 9.4430
 0.6330	 9.4210
 0.6340	 9.3920
 0.6350	 9.3570
 0.6360	 9.3120
 0.6370	 9.2600
 0.6380	 9.1980
 0.6390	 9.1290
 0.6400	 9.0530
 0.6410	 8.9750
 0.6420	 8.8940
 0.6430	 8.8080
 0.6440	 8.7240
 0.6450	 8.6380
 0.6460	 8.5550
 0.6470	 8.4790
 0.6480	 8.4060
 0.6490	 8.3390
 0.6500	 8.2790
 0.6510	 8.2270
 0.6520	 8.1790
 0.6530	 8.1320
 0.6540	 8.0840
 0.6550	 8.0390
 0.6560	 7.9880
 0.6570	 7.9310
 0.6580	 7.8710
 0.6590	 7.8070
 0.6600	 7.7420
 0.6610	 7.6790
 0.6620	 7.6140
 0.6630	 7.5600
 0.6640	 7.5140
 0.6650	 7.4720
 0.6660	 7.4310
 0.6670	 7.3990
 0.6680	 7.3770
 0.6690	 7.3650
 0.6700	 7.3600
 0.6710	 7.3600
 0.6720	 7.3640
 0.6730	 7.3750
 0.6740	 7.3930
 0.6750	 7.4160
 0.6760	 7.4420
 0.6770	 7.4740
 0.6780	 7.5120
 0.6790	 7.5540
 0.6800	 7.6060
 0.6810	 7.6650
 0.6820	 7.7290
 0.6830	 7.8020
 0.6840	 7.8890
 0.6850	 7.9950
 0.6860	 8.1190
 0.6870	 8.2670
 0.6880	 8.4560
 0.6890	 8.6880
 0.6900	 8.9700
 0.6910	 9.3090
 0.6920	 9.7130
 0.6930	10.1840
 0.6940	10.7250
 0.6950	11.3340
 0.6960	12.0020
 0.6970	12.7310
 0.6980	13.5180
 0.6990	14.3510
 0.7000	15.2250
 0.7010	16.1300
 0.7020	17.0550
 0.7030	17.9960
 0.7040	18.9440
 0.7050	19.8910
 0.7060	20.8340
 0.7070	21.7690
 0.7080	22.6960
 0.7090	23.6120
 0.7100	24.5120
 0.7110	25.4000
 0.7120	26.2770
 0.7130	27.1380
 0.7140	27.9800
 0.7150	28.8040
 0.7160	29.6110
 0.7170	30.4000
 0.7180	31.1710
 0.7190	31.9220
 0.7200	32.6470
 0.7210	33.3530
 0.7220	34.0360
 0.7230	34.6950
 0.7240	35.3270
 0.7250	35.9320
 0.7260	36.5090
 0.7270	37.0600
 0.7280	37.5900
 0.7290	38.0900
 0.7300	38.5590
 0.7310	39.0030
 0.7320	39.4280
 0.7330	39.8270
 0.7340	40.2010
 0.7350	40.5500
 0.7360	40.8810
 0.7370	41.1940
 0.7380	41.4850
 0.7390	41.7530
 0.7400	42.0040
 0.7410	42.2390
 0.7420	42.4550
 0.7430	42.6580
 0.7440	42.8420
 0.7450	43.0090
 0.7460	43.1660
 0.7470	43.3110
 0.7480	43.4410
 0.7490	43.5560
 0.7500	43.6670
 0.7510	43.7680
 0.7520	43.8570
 0.7530	43.9340
 0.7540	44.0060
 0.7550	44.0720
 0.7560	44.1320
 0.7570	44.1880
 0.7580	44.2400
 0.7590	44.2870
 0.7600	44.3290
 0.7610	44.3660
 0.7620	44.3990
 0.7630	44.4300
 0.7640	44.4620
 0.7650	44.4900
 0.7660	44.5130
 0.7670	44.5320
 0.7680	44.5520
 0.7690	44.5710
 0.7700	44.5920
 0.7710	44.6110
 0.7720	44.6200
 0.7730	44.6350
 0.7740	44.6540
 0.7750	44.6700
 0.7760	44.6850
 0.7770	44.7000
 0.7780	44.7150
 0.7790	44.7300
 0.7800	44.7420
 0.7810	44.7550
 0.7820	44.7700
 0.7830	44.7870
 0.7840	44.8000
 0.7850	44.8140
 0.7860	44.8290
 0.7870	44.8440
 0.7880	44.8550
 0.7890	44.8670
 0.7900	44.8820
 0.7910	44.8960
 0.7920	44.9100
 0.7930	44.9220
 0.7940	44.9340
 0.7950	44.9400
 0.7960	44.9480
 0.7970	44.9630
 0.7980	44.9740
 0.7990	44.9810
 0.8000	44.9860
 0.8010	44.9930
 0.8020	45.0020
 0.8030	45.0090
 0.8040	45.0150
 0.8050	45.0200
 0.8060	45.0290
 0.8070	45.0350
 0.8080	45.0360
 0.8090	45.0340
 0.8100	45.0360
 0.8110	45.0420
 0.8120	45.0480
 0.8130	45.0490
 0.8140	45.0480
 0.8150	45.0490
 0.8160	45.0540
 0.8170	45.0560
 0.8180	45.0500
 0.8190	45.0450
 0.8200	45.0520
 0.8210	45.0560
 0.8220	45.0530
 0.8230	45.0490
 0.8240	45.0490
 0.8250	45.0440
 0.8260	45.0380
 0.8270	45.0330
 0.8280	45.0290
 0.8290	45.0280
 0.8300	45.0250
 0.8310	45.0180
 0.8320	45.0140
 0.8330	45.0130
 0.8340	45.0130
 0.8350	45.0100
 0.8360	45.0120
 0.8370	45.0130
 0.8380	45.0100
 0.8390	45.0060
 0.8400	45.0070
 0.8410	45.0130
 0.8420	45.0190
 0.8430	45.0190
 0.8440	45.0210
 0.8450	45.0280
 0.8460	45.0360
 0.8470	45.0340
 0.8480	45.0410
 0.8490	45.0500
 0.8500	45.0540
 0.8510	45.0550
 0.8520	45.0600
 0.8530	45.0670
 0.8540	45.0700
 0.8550	45.0740
 0.8560	45.0820
 0.8570	45.0910
 0.8580	45.0940
 0.8590	45.0980
 0.8600	45.1050
 0.8610	45.1140
 0.8620	45.1210
 0.8630	45.1260
 0.8640	45.1330
 0.8650	45.1450
 0.8660	45.1540
 0.8670	45.1620
 0.8680	45.1690
 0.8690	45.1760
 0.8700	45.1850
 0.8710	45.1930
 0.8720	45.2000
 0.8730	45.2100
 0.8740	45.2170
 0.8750	45.2250
 0.8760	45.2330
 0.8770	45.2430
 0.8780	45.2580
 0.8790	45.2670
 0.8800	45.2670
 0.8810	45.2760
 0.8820	45.2940
 0.8830	45.3110
 0.8840	45.3170
 0.8850	45.3190
 0.8860	45.3240
 0.8870	45.3330
 0.8880	45.3450
 0.8890	45.3560
 0.8900	45.3670
 0.8910	45.3770
 0.8920	45.3840
 0.8930	45.3960
 0.8940	45.4080
 0.8950	45.4160
 0.8960	45.4180
 0.8970	45.4300
 0.8980	45.4450
 0.8990	45.4550
 0.9000	45.4550
 0.9010	45.4600
 0.9020	45.4700
 0.9030	45.4810
 0.9040	45.4900
 0.9050	45.5000
 0.9060	45.5110
 0.9070	45.5190
 0.9080	45.5230
 0.9090	45.5320
 0.9100	45.5380
 0.9110	45.5410
 0.9120	45.5550
 0.9130	45.5640
 0.9140	45.5680
 0.9150	45.5710
 0.9160	45.5710
 0.9170	45.5750
 0.9180	45.5830
 0.9190	45.5890
 0.9200	45.5860
 0.9210	45.5820
 0.9220	45.5800
 0.9230	45.5800
 0.9240	45.5730
 0.9250	45.5640
 0.9260	45.5580
 0.9270	45.5520
 0.9280	45.5400
 0.9290	45.5230
 0.9300	45.5040
 0.9310	45.4910
 0.9320	45.4690
 0.9330	45.4500
 0.9340	45.4390
 0.9350	45.4260
 0.9360	45.4050
 0.9370	45.3770
 0.9380	45.3450
 0.9390	45.3100
 0.9400	45.2890
 0.9410	45.2680
 0.9420	45.2340
 0.9430	45.1930
 0.9440	45.1630
 0.9450	45.1350
 0.9460	45.0980
 0.9470	45.0490
 0.9480	44.9860
 0.9490	44.9240
 0.9500	44.8700
 0.9510	44.8090
 0.9520	44.7420
 0.9530	44.6670
 0.9540	44.5890
 0.9550	44.5230
 0.9560	44.4620
 0.9570	44.4020
 0.9580	44.3430
 0.9590	44.2950
 0.9600	44.2530
 0.9610	44.2140
 0.9620	44.1760
 0.9630	44.1390
 0.9640	44.1190
 0.9650	44.1090
 0.9660	44.0950
 0.9670	44.0820
 0.9680	44.0630
 0.9690	44.0490
 0.9700	44.0500
 0.9710	44.0520
 0.9720	44.0460
 0.9730	44.0350
 0.9740	44.0280
 0.9750	44.0330
 0.9760	44.0510
 0.9770	44.0660
 0.9780	44.0660
 0.9790	44.0780
 0.9800	44.0810
 0.9810	44.0760
 0.9820	44.0760
 0.9830	44.0950
 0.9840	44.1250
 0.9850	44.1470
 0.9860	44.1490
 0.9870	44.1660
 0.9880	44.1860
 0.9890	44.2070
 0.9900	44.2300
 0.9910	44.2580
 0.9920	44.2730
 0.9930	44.2880
 0.9940	44.3030
 0.9950	44.3180
 0.9960	44.3330
 0.9970	44.3480
 0.9980	44.3630
 0.9990	44.3780
 1.0000	44.3930
 1.0010	44.4090
 1.0020	44.4240
 1.0030	44.4390
 1.0040	44.4540
 1.0050	44.4690
 1.0060	44.4840
 1.0070	44.4990
 1.0080	44.5140
 1.0090	44.5290
 1.0100	44.5290
 1.0110	44.5570
 1.0120	44.5830
 1.0130	44.6060
 1.0140	44.6310
 1.0150	44.6590
 1.0160	44.6870
 1.0170	44.7110
 1.0180	44.7330
 1.0190	44.7550
 1.0200	44.7800
 1.0210	44.8080
 1.0220	44.8320
 1.0230	44.8550
 1.0240	44.8740
 1.0250	44.8960
 1.0260	44.9170
 1.0270	44.9380
 1.0280	44.9590
 1.0290	44.9810
 1.0300	45.0020
 1.0310	45.0230
 1.0320	45.0460
 1.0330	45.0680
 1.0340	45.0880
 1.0350	45.1090
 1.0360	45.1290
 1.0370	45.1450
 1.0380	45.1620
 1.0390	45.1790
 1.0400	45.1960
 1.0410	45.2130
 1.0420	45.2310
 1.0430	45.2510
 1.0440	45.2670
 1.0450	45.2830
 1.0460	45.2960
 1.0470	45.3030
 1.0480	45.3150
 1.0490	45.3300
 1.0500	45.3420
 1.0510	45.3560
 1.0520	45.3690
 1.0530	45.3810
 1.0540	45.3890
 1.0550	45.3980
 1.0560	45.4070
 1.0570	45.4150
 1.0580	45.4200
 1.0590	45.4290
 1.0600	45.4420
 1.0610	45.4510
 1.0620	45.4590
 1.0630	45.4670
 1.0640	45.4720
 1.0650	45.4750
 1.0660	45.4800
 1.0670	45.4830
 1.0680	45.4850
 1.0690	45.4840
 1.0700	45.4860
 1.0710	45.4900
 1.0720	45.4940
 1.0730	45.5000
 1.0740	45.5020
 1.0750	45.5010
 1.0760	45.5010
 1.0770	45.4970
 1.0780	45.4960
 1.0790	45.4970
 1.0800	45.4960
 1.0810	45.4940
 1.0820	45.4900
 1.0830	45.4830
 1.0840	45.4790
 1.0850	45.4760
 1.0860	45.4710
 1.0870	45.4660
 1.0880	45.4620
 1.0890	45.4550
 1.0900	45.4460
 1.0910	45.4360
 1.0920	45.4260
 1.0930	45.4170
 1.0940	45.4080
 1.0950	45.3980
 1.0960	45.3900
 1.0970	45.3810
 1.0980	45.3720
 1.0990	45.3600
 1.1000	45.3480
 1.1010	45.3350
 1.1020	45.3200
 1.1030	45.3040
 1.1040	45.2900
 1.1050	45.2780
 1.1060	45.2640
 1.1070	45.2530
 1.1080	45.2390
 1.1090	45.2230
 1.1100	45.2070
 1.1110	45.1920
 1.1120	45.1750
 1.1130	45.1570
 1.1140	45.1380
 1.1150	45.1180
 1.1160	45.0940
 1.1170	45.0670
 1.1180	45.0400
 1.1190	45.0110
 1.1200	44.9780
 1.1210	44.9440
 1.1220	44.9080
 1.1230	44.8650
 1.1240	44.8190
 1.1250	44.7680
 1.1260	44.7140
 1.1270	44.6500
 1.1280	44.5810
 1.1290	44.5020
 1.1300	44.4130
 1.1310	44.3180
 1.1320	44.2150
 1.1330	44.1040
 1.1340	43.9870
 1.1350	43.8600
 1.1360	43.7240
 1.1370	43.5810
 1.1380	43.4320
 1.1390	43.2780
 1.1400	43.1200
 1.1410	42.9610
 1.1420	42.7990
 1.1430	42.6370
 1.1440	42.4780
 1.1450	42.3180
 1.1460	42.1650
 1.1470	42.0130
 1.1480	41.8710
 1.1490	41.7300
 1.1500	41.6030
 1.1510	41.4850
 1.1520	41.3760
 1.1530	41.2780
 1.1540	41.1890
 1.1550	41.1080
 1.1560	41.0370
 1.1570	40.9770
 1.1580	40.9270
 1.1590	40.8840
 1.1600	40.8460
 1.1610	40.8120
 1.1620	40.7810
 1.1630	40.7530
 1.1640	40.7320
 1.1650	40.7120
 1.1660	40.6980
 1.1670	40.6850
 1.1680	40.6760
 1.1690	40.6680
 1.1700	40.6630
 1.1710	40.6580
 1.1720	40.6540
 1.1730	40.6470
 1.1740	40.6410
 1.1750	40.6330
 1.1760	40.6270
 1.1770	40.6180
 1.1780	40.6080
 1.1790	40.6000
 1.1800	40.5900
 1.1810	40.5790
 1.1820	40.5720
 1.1830	40.5630
 1.1840	40.5520
 1.1850	40.5400
 1.1860	40.5290
 1.1870	40.5210
 1.1880	40.5140
 1.1890	40.5090
 1.1900	40.5060
 1.1910	40.5040
 1.1920	40.5040
 1.1930	40.5070
 1.1940	40.5090
 1.1950	40.5120
 1.1960	40.5170
 1.1970	40.5220
 1.1980	40.5310
 1.1990	40.5460
 1.2000	40.5590
 1.2010	40.5730
 1.2020	40.5880
 1.2030	40.6040
 1.2040	40.6210
 1.2050	40.6400
 1.2060	40.6610
 1.2070	40.6810
 1.2080	40.7010
 1.2090	40.7240
 1.2100	40.7480
 1.2110	40.7720
 1.2120	40.8000
 1.2130	40.8260
 1.2140	40.8530
 1.2150	40.8810
 1.2160	40.9080
 1.2170	40.9350
 1.2180	40.9650
 1.2190	40.9930
 1.2200	41.0210
 1.2210	41.0500
 1.2220	41.0760
 1.2230	41.1030
 1.2240	41.1340
 1.2250	41.1650
 1.2260	41.1930
 1.2270	41.2210
 1.2280	41.2480
 1.2290	41.2720
 1.2300	41.2970
 1.2310	41.3210
 1.2320	41.3450
 1.2330	41.3680
 1.2340	41.3910
 1.2350	41.4140
 1.2360	41.4360
 1.2370	41.4560
 1.2380	41.4760
 1.2390	41.4960
 1.2400	41.5150
 1.2410	41.5350
 1.2420	41.5540
 1.2430	41.5740
 1.2440	41.5920
 1.2450	41.6100
 1.2460	41.6270
 1.2470	41.6420
 1.2480	41.6550
 1.2490	41.6680
 1.2500	41.6810
 1.2510	41.6950
 1.2520	41.7080
 1.2530	41.7190
 1.2540	41.7270
 1.2550	41.7340
 1.2560	41.7410
 1.2570	41.7490
 1.2580	41.7560
 1.2590	41.7630
 1.2600	41.7680
 1.2610	41.7720
 1.2620	41.7730
 1.2630	41.7740
 1.2640	41.7740
 1.2650	41.7700
 1.2660	41.7670
 1.2670	41.7620
 1.2680	41.7550
 1.2690	41.7510
 1.2700	41.7450
 1.2710	41.7370
 1.2720	41.7280
 1.2730	41.7180
 1.2740	41.7050
 1.2750	41.6900
 1.2760	41.6740
 1.2770	41.6550
 1.2780	41.6360
 1.2790	41.6180
 1.2800	41.5990
 1.2810	41.5760
 1.2820	41.5520
 1.2830	41.5270
 1.2840	41.4990
 1.2850	41.4720
 1.2860	41.4430
 1.2870	41.4110
 1.2880	41.3760
 1.2890	41.3380
 1.2900	41.3010
 1.2910	41.2630
 1.2920	41.2260
 1.2930	41.1860
 1.2940	41.1420
 1.2950	41.0920
 1.2960	41.0390
 1.2970	40.9850
 1.2980	40.9330
 1.2990	40.8790
 1.3000	40.8230
 1.3010	40.7640
 1.3020	40.7000
 1.3030	40.6310
 1.3040	40.5620
 1.3050	40.4900
 1.3060	40.4150
 1.3070	40.3380
 1.3080	40.2570
 1.3090	40.1700
 1.3100	40.0810
 1.3110	39.9860
 1.3120	39.8880
 1.3130	39.7900
 1.3140	39.6880
 1.3150	39.5830
 1.3160	39.4750
 1.3170	39.3650
 1.3180	39.2490
 1.3190	39.1290
 1.3200	39.0050
 1.3210	38.8760
 1.3220	38.7450
 1.3230	38.6130
 1.3240	38.4800
 1.3250	38.3450
 1.3260	38.2050
 1.3270	38.0620
 1.3280	37.9160
 1.3290	37.7660
 1.3300	37.6160
 1.3310	37.4670
 1.3320	37.3140
 1.3330	37.1630
 1.3340	37.0110
 1.3350	36.8560
 1.3360	36.7020
 1.3370	36.5470
 1.3380	36.3910
 1.3390	36.2350
 1.3400	36.0820
 1.3410	35.9310
 1.3420	35.7820
 1.3430	35.6340
 1.3440	35.4870
 1.3450	35.3410
 1.3460	35.1940
 1.3470	35.0510
 1.3480	34.9100
 1.3490	34.7710
 1.3500	34.6330
 1.3510	34.4950
 1.3520	34.3570
 1.3530	34.2190
 1.3540	34.0790
 1.3550	33.9400
 1.3560	33.8000
 1.3570	33.6570
 1.3580	33.5140
 1.3590	33.3670
 1.3600	33.2150
 1.3610	33.0580
 1.3620	32.8960
 1.3630	32.7280
 1.3640	32.5510
 1.3650	32.3650
 1.3660	32.1710
 1.3670	31.9670
 1.3680	31.7530
 1.3690	31.5250
 1.3700	31.2820
 1.3710	31.0240
 1.3720	30.7520
 1.3730	30.4610
 1.3740	30.1560
 1.3750	29.8320
 1.3760	29.4860
 1.3770	29.1200
 1.3780	28.7270
 1.3790	28.3120
 1.3800	27.8760
 1.3810	27.4150
 1.3820	26.9400
 1.3830	26.4470
 1.3840	25.9410
 1.3850	25.4170
 1.3860	24.8850
 1.3870	24.3350
 1.3880	23.7880
 1.3890	23.2350
 1.3900	22.6780
 1.3910	22.1300
 1.3920	21.5810
 1.3930	21.0340
 1.3940	20.4980
 1.3950	19.9660
 1.3960	19.4490
 1.3970	18.9500
 1.3980	18.4680
 1.3990	18.0080
 1.4000	17.5680
 1.4010	17.1460
 1.4020	16.7480
 1.4030	16.3710
 1.4040	16.0160
 1.4050	15.6840
 1.4060	15.3730
 1.4070	15.0850
 1.4080	14.8180
 1.4090	14.5690
 1.4100	14.3410
 1.4110	14.1310
 1.4120	13.9380
 1.4130	13.7610
 1.4140	13.5990
 1.4150	13.4540
 1.4160	13.3210
 1.4170	13.1990
 1.4180	13.0900
 1.4190	12.9910
 1.4200	12.9010
 1.4210	12.8200
 1.4220	12.7470
 1.4230	12.6830
 1.4240	12.6250
 1.4250	12.5730
 1.4260	12.5280
 1.4270	12.4890
 1.4280	12.4550
 1.4290	12.4250
 1.4300	12.4010
 1.4310	12.3790
 1.4320	12.3620
 1.4330	12.3490
 1.4340	12.3390
 1.4350	12.3330
 1.4360	12.3300
 1.4370	12.3290
 1.4380	12.3290
 1.4390	12.3330
 1.4400	12.3380
 1.4410	12.3450
 1.4420	12.3550
 1.4430	12.3660
 1.4440	12.3790
 1.4450	12.3930
 1.4460	12.4070
 1.4470	12.4230
 1.4480	12.4400
 1.4490	12.4580
 1.4500	12.4780
 1.4510	12.4980
 1.4520	12.5190
 1.4530	12.5420
 1.4540	12.5660
 1.4550	12.5910
 1.4560	12.6200
 1.4570	12.6500
 1.4580	12.6830
 1.4590	12.7200
 1.4600	12.7610
 1.4610	12.8050
 1.4620	12.8520
 1.4630	12.9050
 1.4640	12.9610
 1.4650	13.0210
 1.4660	13.0850
 1.4670	13.1530
 1.4680	13.2260
 1.4690	13.3030
 1.4700	13.3830
