Name: Cassia leptophylla
Type: vegetation
Class: Tree
Genus: Cassia
Species: leptophylla
Sample No.: JPL092
Owner: JPL
Wavelength Range: TIR
Origin: 34.1257; - 118.1138; WGS84
Collection Date: 2/2/2016
Description: Samples were collected at the Huntington Garden in San Marino California as part of a JPL Subcontract studying HyTES imagery. Samples were taken to JPL and processed within 48 hours of collection. The same leaves were processed in the Nicolet and then measured using the ASD.
Measurement: Hemispherical reflectance
First Column: X
Second Column: Y
X Units: Wavelength (micrometer)
Y Units: Reflectance (percentage)
First X Value: 2.501
Last X Value: 15.387
Number of X Values: 1737
Additional Information: 

 2.5010	 8.2590
 2.5030	 8.2150
 2.5040	 8.1550
 2.5050	 8.1400
 2.5060	 8.1260
 2.5070	 8.0880
 2.5090	 8.0980
 2.5100	 8.0660
 2.5110	 8.0100
 2.5120	 7.9460
 2.5140	 7.9310
 2.5150	 7.9320
 2.5160	 7.9420
 2.5170	 7.9510
 2.5180	 7.9090
 2.5200	 7.8220
 2.5210	 7.7960
 2.5220	 7.7610
 2.5230	 7.8090
 2.5250	 7.8100
 2.5260	 7.8060
 2.5270	 7.7780
 2.5280	 7.7770
 2.5300	 7.7850
 2.5310	 7.7980
 2.5320	 7.7350
 2.5330	 7.7750
 2.5340	 7.7940
 2.5360	 7.7730
 2.5370	 7.7270
 2.5380	 7.7810
 2.5390	 7.7640
 2.5410	 7.7580
 2.5420	 7.6930
 2.5430	 7.6370
 2.5440	 7.6790
 2.5460	 7.7760
 2.5470	 7.7410
 2.5480	 7.7260
 2.5490	 7.7780
 2.5510	 7.8120
 2.5520	 7.7550
 2.5530	 7.7370
 2.5540	 7.7690
 2.5560	 7.7880
 2.5570	 7.8420
 2.5580	 7.9130
 2.5590	 7.8550
 2.5610	 7.6990
 2.5620	 7.5200
 2.5630	 7.5580
 2.5650	 7.5960
 2.5660	 7.7100
 2.5670	 7.8300
 2.5680	 7.7730
 2.5700	 7.6050
 2.5710	 7.6570
 2.5720	 7.7460
 2.5730	 7.6180
 2.5750	 7.6430
 2.5760	 7.7850
 2.5770	 7.7020
 2.5790	 7.7010
 2.5800	 7.7530
 2.5810	 7.6790
 2.5820	 7.5570
 2.5840	 7.4180
 2.5850	 7.3730
 2.5860	 7.4570
 2.5880	 7.3890
 2.5890	 7.5030
 2.5900	 7.5220
 2.5910	 7.5400
 2.5930	 7.4610
 2.5940	 7.0960
 2.5950	 6.7180
 2.5970	 6.9280
 2.5980	 7.2120
 2.5990	 7.3380
 2.6010	 7.2890
 2.6020	 7.1930
 2.6030	 7.0390
 2.6040	 6.9160
 2.6060	 6.7920
 2.6070	 6.7930
 2.6080	 6.8130
 2.6100	 6.8300
 2.6110	 6.8280
 2.6120	 6.8230
 2.6140	 6.7330
 2.6150	 6.6870
 2.6160	 6.4690
 2.6180	 6.3630
 2.6190	 6.4230
 2.6200	 6.2930
 2.6220	 6.2150
 2.6230	 6.2940
 2.6240	 6.2700
 2.6260	 6.1670
 2.6270	 5.9490
 2.6280	 5.9780
 2.6300	 5.8650
 2.6310	 5.6650
 2.6320	 5.6760
 2.6340	 5.7660
 2.6350	 5.7280
 2.6360	 5.7240
 2.6380	 5.6820
 2.6390	 5.6530
 2.6400	 5.5190
 2.6420	 5.3700
 2.6430	 5.3350
 2.6440	 5.3350
 2.6460	 5.1820
 2.6470	 5.1480
 2.6480	 5.1650
 2.6500	 5.1400
 2.6510	 4.9830
 2.6520	 4.8150
 2.6540	 4.7780
 2.6550	 4.8120
 2.6570	 4.6810
 2.6580	 4.6460
 2.6590	 4.5960
 2.6610	 4.5200
 2.6620	 4.4230
 2.6630	 4.3440
 2.6650	 4.1440
 2.6660	 3.9940
 2.6670	 3.9430
 2.6690	 4.0140
 2.6700	 3.8630
 2.6720	 3.8030
 2.6730	 3.9540
 2.6740	 3.9150
 2.6760	 3.7590
 2.6770	 3.6470
 2.6780	 3.6290
 2.6800	 3.6750
 2.6810	 3.6730
 2.6830	 3.6210
 2.6840	 3.5170
 2.6850	 3.4920
 2.6870	 3.4180
 2.6880	 3.4820
 2.6900	 3.4770
 2.6910	 3.3870
 2.6920	 3.2790
 2.6940	 3.1860
 2.6950	 3.1070
 2.6970	 3.2010
 2.6980	 3.2210
 2.6990	 3.1580
 2.7010	 3.0070
 2.7020	 3.0130
 2.7040	 3.0500
 2.7050	 3.1060
 2.7060	 3.0610
 2.7080	 2.9840
 2.7090	 2.8950
 2.7110	 2.8730
 2.7120	 2.8750
 2.7130	 2.9570
 2.7150	 2.9710
 2.7160	 2.9660
 2.7180	 2.9140
 2.7190	 2.9050
 2.7210	 2.7520
 2.7220	 2.7390
 2.7230	 2.7680
 2.7250	 2.7560
 2.7260	 2.7530
 2.7280	 2.9230
 2.7290	 3.0090
 2.7310	 3.0580
 2.7320	 3.0160
 2.7340	 2.9680
 2.7350	 2.8650
 2.7360	 2.8800
 2.7380	 2.8940
 2.7390	 2.8010
 2.7410	 2.7420
 2.7420	 2.8260
 2.7440	 2.9240
 2.7450	 2.9860
 2.7470	 2.8870
 2.7480	 2.8890
 2.7490	 2.8730
 2.7510	 2.8970
 2.7520	 2.9180
 2.7540	 2.8810
 2.7550	 2.7480
 2.7570	 2.7710
 2.7580	 2.8210
 2.7600	 2.8970
 2.7610	 2.8560
 2.7630	 2.7610
 2.7640	 2.7260
 2.7660	 2.8280
 2.7670	 2.8560
 2.7690	 2.8820
 2.7700	 2.8950
 2.7720	 2.8700
 2.7730	 2.8310
 2.7740	 2.8990
 2.7760	 2.9050
 2.7770	 2.8790
 2.7790	 2.8590
 2.7800	 2.9030
 2.7820	 2.7680
 2.7830	 2.7850
 2.7850	 2.8290
 2.7860	 2.7900
 2.7880	 2.6980
 2.7890	 2.7900
 2.7910	 2.7820
 2.7920	 2.8130
 2.7940	 2.7830
 2.7950	 2.7860
 2.7970	 2.7950
 2.7980	 2.8720
 2.8000	 2.8680
 2.8010	 2.8420
 2.8030	 2.7520
 2.8040	 2.8180
 2.8060	 2.8320
 2.8080	 2.7970
 2.8090	 2.7980
 2.8110	 2.8570
 2.8120	 2.8680
 2.8140	 2.8890
 2.8150	 2.8070
 2.8170	 2.7030
 2.8180	 2.7110
 2.8200	 2.8130
 2.8210	 2.7790
 2.8230	 2.7360
 2.8240	 2.7490
 2.8260	 2.8520
 2.8270	 2.8680
 2.8290	 2.8560
 2.8310	 2.7960
 2.8320	 2.7420
 2.8340	 2.6820
 2.8350	 2.6850
 2.8370	 2.7150
 2.8380	 2.7430
 2.8400	 2.6810
 2.8410	 2.6900
 2.8430	 2.6660
 2.8440	 2.6720
 2.8460	 2.7380
 2.8480	 2.7770
 2.8490	 2.6860
 2.8510	 2.6930
 2.8520	 2.6630
 2.8540	 2.6580
 2.8550	 2.6830
 2.8570	 2.7350
 2.8590	 2.6860
 2.8600	 2.6500
 2.8620	 2.6280
 2.8630	 2.6510
 2.8650	 2.6350
 2.8660	 2.6550
 2.8680	 2.6450
 2.8700	 2.7000
 2.8710	 2.6870
 2.8730	 2.6390
 2.8740	 2.6070
 2.8760	 2.6900
 2.8780	 2.7210
 2.8790	 2.7500
 2.8810	 2.7200
 2.8820	 2.6940
 2.8840	 2.6010
 2.8860	 2.5810
 2.8870	 2.6130
 2.8890	 2.6810
 2.8900	 2.6600
 2.8920	 2.6500
 2.8940	 2.6060
 2.8950	 2.6140
 2.8970	 2.6070
 2.8990	 2.6740
 2.9000	 2.6590
 2.9020	 2.6290
 2.9030	 2.5970
 2.9050	 2.6780
 2.9070	 2.6700
 2.9080	 2.6070
 2.9100	 2.5500
 2.9120	 2.5860
 2.9130	 2.6120
 2.9150	 2.5820
 2.9160	 2.4820
 2.9180	 2.5060
 2.9200	 2.5110
 2.9210	 2.4740
 2.9230	 2.4260
 2.9250	 2.4580
 2.9260	 2.4180
 2.9280	 2.4470
 2.9300	 2.4460
 2.9310	 2.5220
 2.9330	 2.4900
 2.9350	 2.4310
 2.9360	 2.4840
 2.9380	 2.5250
 2.9400	 2.4200
 2.9410	 2.4040
 2.9430	 2.3960
 2.9450	 2.4280
 2.9460	 2.3870
 2.9480	 2.3770
 2.9500	 2.3860
 2.9510	 2.4280
 2.9530	 2.3250
 2.9550	 2.3080
 2.9560	 2.3440
 2.9580	 2.3960
 2.9600	 2.3560
 2.9610	 2.3330
 2.9630	 2.3120
 2.9650	 2.3290
 2.9670	 2.2840
 2.9680	 2.3010
 2.9700	 2.2920
 2.9720	 2.3030
 2.9730	 2.3000
 2.9750	 2.3190
 2.9770	 2.3090
 2.9780	 2.3060
 2.9800	 2.2470
 2.9820	 2.2680
 2.9840	 2.2480
 2.9850	 2.2540
 2.9870	 2.2740
 2.9890	 2.2910
 2.9900	 2.2510
 2.9920	 2.2260
 2.9940	 2.2110
 2.9960	 2.2850
 2.9970	 2.2750
 2.9990	 2.2730
 3.0010	 2.2940
 3.0030	 2.3070
 3.0040	 2.2440
 3.0060	 2.2100
 3.0080	 2.1990
 3.0100	 2.2660
 3.0110	 2.2600
 3.0130	 2.3010
 3.0150	 2.2820
 3.0170	 2.2430
 3.0180	 2.2230
 3.0200	 2.1690
 3.0220	 2.1070
 3.0240	 2.1450
 3.0250	 2.0810
 3.0270	 2.1320
 3.0290	 2.1900
 3.0310	 2.2350
 3.0320	 2.2460
 3.0340	 2.2080
 3.0360	 2.1800
 3.0380	 2.2430
 3.0400	 2.2370
 3.0410	 2.2160
 3.0430	 2.1790
 3.0450	 2.1590
 3.0470	 2.1590
 3.0480	 2.1700
 3.0500	 2.0930
 3.0520	 2.1190
 3.0540	 2.1710
 3.0560	 2.2030
 3.0570	 2.1300
 3.0590	 2.1550
 3.0610	 2.1790
 3.0630	 2.2070
 3.0650	 2.1800
 3.0670	 2.1490
 3.0680	 2.1500
 3.0700	 2.1890
 3.0720	 2.1870
 3.0740	 2.1900
 3.0760	 2.1220
 3.0770	 2.1400
 3.0790	 2.1170
 3.0810	 2.0900
 3.0830	 2.0610
 3.0850	 2.0930
 3.0870	 2.1120
 3.0880	 2.1380
 3.0900	 2.1140
 3.0920	 2.1510
 3.0940	 2.1610
 3.0960	 2.1440
 3.0980	 2.0940
 3.1000	 2.0810
 3.1010	 2.0760
 3.1030	 2.1430
 3.1050	 2.1430
 3.1070	 2.1010
 3.1090	 2.0610
 3.1110	 2.0990
 3.1130	 2.1220
 3.1140	 2.1320
 3.1160	 2.0950
 3.1180	 2.1530
 3.1200	 2.1530
 3.1220	 2.1390
 3.1240	 2.1470
 3.1260	 2.1560
 3.1280	 2.0830
 3.1290	 2.0640
 3.1310	 2.0650
 3.1330	 2.0810
 3.1350	 2.1040
 3.1370	 2.1480
 3.1390	 2.1250
 3.1410	 2.1410
 3.1430	 2.1250
 3.1450	 2.1160
 3.1470	 2.0670
 3.1480	 2.1050
 3.1500	 2.1380
 3.1520	 2.1290
 3.1540	 2.0850
 3.1560	 2.0530
 3.1580	 2.0450
 3.1600	 2.0860
 3.1620	 2.1050
 3.1640	 2.1150
 3.1660	 2.0610
 3.1680	 2.1150
 3.1700	 2.1620
 3.1720	 2.1310
 3.1730	 2.0630
 3.1750	 2.0690
 3.1770	 2.1270
 3.1790	 2.1890
 3.1810	 2.1370
 3.1830	 2.1150
 3.1850	 2.0880
 3.1870	 2.0690
 3.1890	 2.0750
 3.1910	 2.1310
 3.1930	 2.1200
 3.1950	 2.1170
 3.1970	 2.0980
 3.1990	 2.1310
 3.2010	 2.1180
 3.2030	 2.1150
 3.2050	 2.1020
 3.2070	 2.1020
 3.2090	 2.0630
 3.2110	 2.1010
 3.2130	 2.1060
 3.2150	 2.0980
 3.2170	 2.0790
 3.2190	 2.0990
 3.2210	 2.0850
 3.2230	 2.0690
 3.2250	 2.0500
 3.2270	 2.0910
 3.2290	 2.0920
 3.2310	 2.0850
 3.2330	 2.0730
 3.2350	 2.1320
 3.2370	 2.1380
 3.2390	 2.1150
 3.2410	 2.1250
 3.2430	 2.1400
 3.2450	 2.1150
 3.2470	 2.1140
 3.2490	 2.1000
 3.2510	 2.1270
 3.2530	 2.1120
 3.2550	 2.1210
 3.2570	 2.0830
 3.2590	 2.0760
 3.2610	 2.0760
 3.2630	 2.1370
 3.2650	 2.1660
 3.2670	 2.1660
 3.2700	 2.1010
 3.2720	 2.1050
 3.2740	 2.1160
 3.2760	 2.1270
 3.2780	 2.0820
 3.2800	 2.1090
 3.2820	 2.1110
 3.2840	 2.1350
 3.2860	 2.1330
 3.2880	 2.1210
 3.2900	 2.1100
 3.2920	 2.1180
 3.2940	 2.1080
 3.2970	 2.0910
 3.2990	 2.0930
 3.3010	 2.1210
 3.3030	 2.0940
 3.3050	 2.0990
 3.3070	 2.0650
 3.3090	 2.0490
 3.3110	 2.0760
 3.3130	 2.1030
 3.3160	 2.0610
 3.3180	 2.0610
 3.3200	 2.0580
 3.3220	 2.0840
 3.3240	 2.0820
 3.3260	 2.0920
 3.3280	 2.0810
 3.3300	 2.0610
 3.3330	 2.0340
 3.3350	 2.0690
 3.3370	 2.0750
 3.3390	 2.0920
 3.3410	 2.0810
 3.3430	 2.0870
 3.3450	 2.0790
 3.3480	 2.0300
 3.3500	 2.0120
 3.3520	 2.0470
 3.3540	 2.0080
 3.3560	 1.9860
 3.3580	 1.9700
 3.3610	 1.9720
 3.3630	 1.9740
 3.3650	 1.9580
 3.3670	 1.8940
 3.3690	 1.8900
 3.3720	 1.9390
 3.3740	 1.9960
 3.3760	 2.0110
 3.3780	 2.0140
 3.3800	 2.0070
 3.3830	 2.0280
 3.3850	 2.0380
 3.3870	 2.0050
 3.3890	 1.9410
 3.3910	 1.9400
 3.3940	 1.9400
 3.3960	 2.0320
 3.3980	 2.0910
 3.4000	 2.1120
 3.4030	 2.1590
 3.4050	 2.2600
 3.4070	 2.3710
 3.4090	 2.4880
 3.4110	 2.5260
 3.4140	 2.6820
 3.4160	 2.8860
 3.4180	 3.1610
 3.4200	 3.4670
 3.4230	 3.8020
 3.4250	 4.0660
 3.4270	 4.3660
 3.4300	 4.4030
 3.4320	 4.1270
 3.4340	 3.7680
 3.4360	 3.5260
 3.4390	 3.2920
 3.4410	 3.1520
 3.4430	 3.1110
 3.4450	 3.1110
 3.4480	 3.0570
 3.4500	 3.0400
 3.4520	 3.0260
 3.4550	 2.9830
 3.4570	 2.9040
 3.4590	 2.9150
 3.4620	 2.8950
 3.4640	 2.8740
 3.4660	 2.8620
 3.4690	 2.8030
 3.4710	 2.7190
 3.4730	 2.7270
 3.4760	 2.6860
 3.4780	 2.6460
 3.4800	 2.6500
 3.4830	 2.6370
 3.4850	 2.6120
 3.4870	 2.5640
 3.4900	 2.5270
 3.4920	 2.5590
 3.4940	 2.6200
 3.4970	 2.6690
 3.4990	 2.7240
 3.5010	 2.8350
 3.5040	 3.0370
 3.5060	 3.4660
 3.5080	 3.9090
 3.5110	 4.1450
 3.5130	 4.0090
 3.5160	 3.7020
 3.5180	 3.4400
 3.5200	 3.3330
 3.5230	 3.1790
 3.5250	 3.0830
 3.5280	 3.0750
 3.5300	 3.0800
 3.5320	 3.0300
 3.5350	 2.9960
 3.5370	 2.9750
 3.5400	 3.0050
 3.5420	 2.9930
 3.5440	 2.9900
 3.5470	 2.9100
 3.5490	 2.8600
 3.5520	 2.8860
 3.5540	 2.9140
 3.5570	 2.9070
 3.5590	 2.9010
 3.5610	 2.9190
 3.5640	 2.8970
 3.5660	 2.8770
 3.5690	 2.9380
 3.5710	 2.9510
 3.5740	 2.9670
 3.5760	 2.9480
 3.5790	 2.9190
 3.5810	 2.9120
 3.5840	 2.9680
 3.5860	 2.9660
 3.5890	 2.9530
 3.5910	 2.9280
 3.5940	 2.9250
 3.5960	 2.9320
 3.5990	 2.9410
 3.6010	 2.9280
 3.6040	 2.9520
 3.6060	 2.9540
 3.6090	 2.9640
 3.6110	 2.9570
 3.6140	 2.9570
 3.6160	 2.9760
 3.6190	 3.0060
 3.6210	 2.9740
 3.6240	 2.9910
 3.6260	 2.9980
 3.6290	 2.9940
 3.6310	 2.9900
 3.6340	 3.0270
 3.6360	 3.0060
 3.6390	 2.9880
 3.6410	 3.0020
 3.6440	 3.0310
 3.6470	 3.0180
 3.6490	 3.0160
 3.6520	 3.0130
 3.6540	 3.0890
 3.6570	 3.1220
 3.6590	 3.1120
 3.6620	 3.1040
 3.6650	 3.1460
 3.6670	 3.1520
 3.6700	 3.1150
 3.6720	 3.0750
 3.6750	 3.1230
 3.6780	 3.1230
 3.6800	 3.1160
 3.6830	 3.1430
 3.6850	 3.1920
 3.6880	 3.1830
 3.6910	 3.1770
 3.6930	 3.1830
 3.6960	 3.2090
 3.6990	 3.2570
 3.7010	 3.2740
 3.7040	 3.2460
 3.7070	 3.2530
 3.7090	 3.2710
 3.7120	 3.2700
 3.7150	 3.2530
 3.7170	 3.2620
 3.7200	 3.2800
 3.7230	 3.3060
 3.7250	 3.3220
 3.7280	 3.3710
 3.7310	 3.4020
 3.7330	 3.3700
 3.7360	 3.3520
 3.7390	 3.3820
 3.7410	 3.3790
 3.7440	 3.4060
 3.7470	 3.4610
 3.7490	 3.5000
 3.7520	 3.5080
 3.7550	 3.5480
 3.7580	 3.5730
 3.7600	 3.5580
 3.7630	 3.5490
 3.7660	 3.5440
 3.7690	 3.5730
 3.7710	 3.6260
 3.7740	 3.6430
 3.7770	 3.6210
 3.7790	 3.6280
 3.7820	 3.6830
 3.7850	 3.7190
 3.7880	 3.7220
 3.7910	 3.7070
 3.7930	 3.7120
 3.7960	 3.7370
 3.7990	 3.7430
 3.8020	 3.7510
 3.8040	 3.8020
 3.8070	 3.8220
 3.8100	 3.8360
 3.8130	 3.8410
 3.8160	 3.8190
 3.8180	 3.8200
 3.8210	 3.8640
 3.8240	 3.8600
 3.8270	 3.8640
 3.8300	 3.8910
 3.8330	 3.9030
 3.8350	 3.8910
 3.8380	 3.8930
 3.8410	 3.8860
 3.8440	 3.9230
 3.8470	 3.9680
 3.8500	 3.9890
 3.8520	 3.9950
 3.8550	 4.0220
 3.8580	 4.0320
 3.8610	 4.0330
 3.8640	 4.0340
 3.8670	 4.0620
 3.8700	 4.0410
 3.8730	 4.0340
 3.8760	 4.0570
 3.8780	 4.0850
 3.8810	 4.0530
 3.8840	 4.0520
 3.8870	 4.0880
 3.8900	 4.1170
 3.8930	 4.1030
 3.8960	 4.0700
 3.8990	 4.0520
 3.9020	 4.1040
 3.9050	 4.1380
 3.9080	 4.1150
 3.9110	 4.0940
 3.9140	 4.1410
 3.9170	 4.1270
 3.9190	 4.1020
 3.9220	 4.0790
 3.9250	 4.0670
 3.9280	 4.0820
 3.9310	 4.0980
 3.9340	 4.0970
 3.9370	 4.1040
 3.9400	 4.0830
 3.9430	 4.0780
 3.9460	 4.0760
 3.9490	 4.0720
 3.9520	 4.0800
 3.9550	 4.1100
 3.9580	 4.1270
 3.9610	 4.1270
 3.9640	 4.0980
 3.9670	 4.0810
 3.9700	 4.0700
 3.9740	 4.0800
 3.9770	 4.0850
 3.9800	 4.0860
 3.9830	 4.0550
 3.9860	 4.0640
 3.9890	 4.0970
 3.9920	 4.0730
 3.9950	 4.0590
 3.9980	 4.0680
 4.0010	 4.0600
 4.0040	 4.0680
 4.0070	 4.0390
 4.0100	 4.0390
 4.0140	 4.0380
 4.0170	 4.0460
 4.0200	 4.0340
 4.0230	 3.9920
 4.0260	 3.9790
 4.0290	 4.0230
 4.0320	 4.0580
 4.0350	 4.0360
 4.0390	 4.0130
 4.0420	 4.0000
 4.0450	 3.9890
 4.0480	 3.9730
 4.0510	 3.9580
 4.0540	 3.9490
 4.0570	 3.9260
 4.0610	 3.9370
 4.0640	 3.9390
 4.0670	 3.9490
 4.0700	 3.9360
 4.0730	 3.9230
 4.0770	 3.9300
 4.0800	 3.9190
 4.0830	 3.9210
 4.0860	 3.9370
 4.0890	 3.9210
 4.0930	 3.8820
 4.0960	 3.8760
 4.0990	 3.8830
 4.1020	 3.8590
 4.1060	 3.8620
 4.1090	 3.8630
 4.1120	 3.8750
 4.1150	 3.8890
 4.1190	 3.8720
 4.1220	 3.8310
 4.1250	 3.8180
 4.1290	 3.8400
 4.1320	 3.8170
 4.1350	 3.7870
 4.1380	 3.7660
 4.1420	 3.7350
 4.1450	 3.7590
 4.1480	 3.7480
 4.1520	 3.7370
 4.1550	 3.7480
 4.1580	 3.7280
 4.1620	 3.7180
 4.1650	 3.7280
 4.1680	 3.6930
 4.1720	 3.6720
 4.1750	 3.6660
 4.1780	 3.6460
 4.1820	 3.6470
 4.1850	 3.6280
 4.1890	 3.6430
 4.1920	 3.6810
 4.1950	 3.6680
 4.1990	 3.6510
 4.2020	 3.6440
 4.2060	 3.5810
 4.2090	 3.5730
 4.2120	 3.6120
 4.2160	 3.5920
 4.2190	 3.5420
 4.2230	 3.4680
 4.2260	 3.4850
 4.2300	 3.5310
 4.2330	 3.5370
 4.2360	 3.6110
 4.2400	 3.5940
 4.2430	 3.5470
 4.2470	 3.4340
 4.2500	 3.3650
 4.2540	 3.3980
 4.2570	 3.4060
 4.2610	 3.4280
 4.2640	 3.4360
 4.2680	 3.4410
 4.2710	 3.4680
 4.2750	 3.3930
 4.2780	 3.3420
 4.2820	 3.3370
 4.2850	 3.3030
 4.2890	 3.2160
 4.2930	 3.1930
 4.2960	 3.2470
 4.3000	 3.3170
 4.3030	 3.2920
 4.3070	 3.2360
 4.3100	 3.1790
 4.3140	 3.1530
 4.3180	 3.1740
 4.3210	 3.2100
 4.3250	 3.1960
 4.3280	 3.1940
 4.3320	 3.1630
 4.3360	 3.1110
 4.3390	 3.1510
 4.3430	 3.1900
 4.3470	 3.1690
 4.3500	 3.1610
 4.3540	 3.1330
 4.3580	 3.1010
 4.3610	 3.1100
 4.3650	 3.1540
 4.3690	 3.1190
 4.3720	 3.0710
 4.3760	 3.0640
 4.3800	 3.0810
 4.3830	 3.0540
 4.3870	 3.0560
 4.3910	 3.0460
 4.3940	 3.0290
 4.3980	 3.0580
 4.4020	 3.0660
 4.4060	 3.0590
 4.4090	 3.0310
 4.4130	 3.0090
 4.4170	 3.0210
 4.4210	 3.0180
 4.4240	 3.0130
 4.4280	 2.9980
 4.4320	 3.0000
 4.4360	 3.0090
 4.4400	 2.9890
 4.4430	 2.9780
 4.4470	 2.9810
 4.4510	 2.9780
 4.4550	 2.9560
 4.4590	 2.9560
 4.4630	 2.9640
 4.4660	 2.9530
 4.4700	 2.9340
 4.4740	 2.8890
 4.4780	 2.8800
 4.4820	 2.8690
 4.4860	 2.8950
 4.4900	 2.8880
 4.4930	 2.8580
 4.4970	 2.8800
 4.5010	 2.8880
 4.5050	 2.8680
 4.5090	 2.8550
 4.5130	 2.8910
 4.5170	 2.9060
 4.5210	 2.8650
 4.5250	 2.8690
 4.5290	 2.8660
 4.5330	 2.8460
 4.5370	 2.8260
 4.5410	 2.8080
 4.5450	 2.8150
 4.5490	 2.8290
 4.5530	 2.8430
 4.5570	 2.8310
 4.5610	 2.8040
 4.5650	 2.8150
 4.5690	 2.8300
 4.5730	 2.8110
 4.5770	 2.7920
 4.5810	 2.7970
 4.5850	 2.7750
 4.5890	 2.7640
 4.5930	 2.7660
 4.5970	 2.7900
 4.6010	 2.7590
 4.6050	 2.7690
 4.6090	 2.8140
 4.6130	 2.7700
 4.6170	 2.7160
 4.6220	 2.7530
 4.6260	 2.7850
 4.6300	 2.7610
 4.6340	 2.7350
 4.6380	 2.7630
 4.6420	 2.7690
 4.6460	 2.7820
 4.6510	 2.7780
 4.6550	 2.7870
 4.6590	 2.7940
 4.6630	 2.7860
 4.6670	 2.7850
 4.6720	 2.7960
 4.6760	 2.7870
 4.6800	 2.7880
 4.6840	 2.7730
 4.6880	 2.7860
 4.6930	 2.7950
 4.6970	 2.7780
 4.7010	 2.7490
 4.7050	 2.7510
 4.7100	 2.7570
 4.7140	 2.8060
 4.7180	 2.8140
 4.7230	 2.7690
 4.7270	 2.7300
 4.7310	 2.7480
 4.7360	 2.7530
 4.7400	 2.7690
 4.7440	 2.7760
 4.7490	 2.7760
 4.7530	 2.7510
 4.7570	 2.7550
 4.7620	 2.7640
 4.7660	 2.7470
 4.7700	 2.7300
 4.7750	 2.7470
 4.7790	 2.7720
 4.7840	 2.8090
 4.7880	 2.7970
 4.7920	 2.7880
 4.7970	 2.7860
 4.8010	 2.7930
 4.8060	 2.8080
 4.8100	 2.8020
 4.8150	 2.8000
 4.8190	 2.8250
 4.8240	 2.8220
 4.8280	 2.8020
 4.8330	 2.7940
 4.8370	 2.8160
 4.8420	 2.8120
 4.8460	 2.8380
 4.8510	 2.8300
 4.8550	 2.8470
 4.8600	 2.8470
 4.8640	 2.8420
 4.8690	 2.8370
 4.8740	 2.8500
 4.8780	 2.8270
 4.8830	 2.8260
 4.8870	 2.8250
 4.8920	 2.8300
 4.8970	 2.8260
 4.9010	 2.8550
 4.9060	 2.8760
 4.9100	 2.8960
 4.9150	 2.8770
 4.9200	 2.8800
 4.9240	 2.8660
 4.9290	 2.8860
 4.9340	 2.9320
 4.9390	 2.9790
 4.9430	 2.9400
 4.9480	 2.9420
 4.9530	 2.9510
 4.9570	 2.9770
 4.9620	 2.9700
 4.9670	 2.9510
 4.9720	 2.9420
 4.9760	 2.9690
 4.9810	 2.9650
 4.9860	 2.9730
 4.9910	 2.9540
 4.9960	 2.9880
 5.0000	 3.0300
 5.0050	 3.0580
 5.0100	 3.0390
 5.0150	 3.0240
 5.0200	 3.0080
 5.0250	 3.0370
 5.0300	 3.0700
 5.0340	 3.0870
 5.0390	 3.0480
 5.0440	 3.0690
 5.0490	 3.0700
 5.0540	 3.0650
 5.0590	 3.1070
 5.0640	 3.1540
 5.0690	 3.1450
 5.0740	 3.1420
 5.0790	 3.1340
 5.0840	 3.1530
 5.0890	 3.1540
 5.0940	 3.1590
 5.0990	 3.1600
 5.1040	 3.1850
 5.1090	 3.1820
 5.1140	 3.2130
 5.1190	 3.2060
 5.1240	 3.2150
 5.1290	 3.2140
 5.1340	 3.2180
 5.1390	 3.2220
 5.1440	 3.2140
 5.1490	 3.2250
 5.1550	 3.3370
 5.1600	 3.3660
 5.1650	 3.3440
 5.1700	 3.2910
 5.1750	 3.2840
 5.1800	 3.2740
 5.1850	 3.3120
 5.1910	 3.3190
 5.1960	 3.3220
 5.2010	 3.3080
 5.2060	 3.3330
 5.2110	 3.3270
 5.2170	 3.3240
 5.2220	 3.3130
 5.2270	 3.3420
 5.2330	 3.3360
 5.2380	 3.3540
 5.2430	 3.3490
 5.2480	 3.3810
 5.2540	 3.3830
 5.2590	 3.3690
 5.2640	 3.3360
 5.2700	 3.3760
 5.2750	 3.3840
 5.2800	 3.3780
 5.2860	 3.3510
 5.2910	 3.3780
 5.2970	 3.3590
 5.3020	 3.3620
 5.3080	 3.3460
 5.3130	 3.3530
 5.3180	 3.3500
 5.3240	 3.3470
 5.3290	 3.3640
 5.3350	 3.3870
 5.3400	 3.3620
 5.3460	 3.3530
 5.3510	 3.3130
 5.3570	 3.3400
 5.3620	 3.3470
 5.3680	 3.3440
 5.3740	 3.3120
 5.3790	 3.3270
 5.3850	 3.3100
 5.3900	 3.3100
 5.3960	 3.2750
 5.4010	 3.2840
 5.4070	 3.2820
 5.4130	 3.2920
 5.4180	 3.2070
 5.4240	 3.1570
 5.4300	 3.2230
 5.4350	 3.2830
 5.4410	 3.2690
 5.4470	 3.2660
 5.4530	 3.2030
 5.4580	 3.1530
 5.4640	 3.0960
 5.4700	 3.1410
 5.4760	 3.1380
 5.4810	 3.1340
 5.4870	 3.1490
 5.4930	 3.1450
 5.4990	 3.1060
 5.5050	 3.0960
