Name: Abies concolor 2
Type: vegetation
Class: Tree
Genus: Abies
Species: concolor
Sample No.: VH160
Owner: UCSB
Wavelength Range: VSWIR
Origin: 37.0437; -119.3025; WGS84
Collection Date: 6/8/2013
Description: Samples were collected as part of the HyspIRI Airborne Campaign. 48 individual plants were sampled in three times in 2013 - spring  summer  and fall. The name of the sample includes a 1  2  or 3 which references a different individual of the species. Samples were taken to JPL and processed within 48 hours of collection. The same leaves were processed in the Nicolet and then measured using the ASD.
Measurement: Bidirectional reflectance
First Column: X
Second Column: Y
X Units: Wavelength (micrometers)
Y Units: Reflectance (percentage)
First X Value: 0.35
Last X Value: 2.5
Number of X Values: 2151
Additional Information: vegetation.tree.abies.concolor.vswir.vh160.ucsb.asd.ancillary.txt

 0.3500	 6.7850
 0.3510	 6.7390
 0.3520	 6.6390
 0.3530	 6.5280
 0.3540	 6.4460
 0.3550	 6.5320
 0.3560	 6.5660
 0.3570	 6.4750
 0.3580	 6.3110
 0.3590	 6.3960
 0.3600	 6.5010
 0.3610	 6.4770
 0.3620	 6.3990
 0.3630	 6.3210
 0.3640	 6.3270
 0.3650	 6.4360
 0.3660	 6.4440
 0.3670	 6.4240
 0.3680	 6.4000
 0.3690	 6.3530
 0.3700	 6.3010
 0.3710	 6.2990
 0.3720	 6.3420
 0.3730	 6.3310
 0.3740	 6.3040
 0.3750	 6.2730
 0.3760	 6.2500
 0.3770	 6.2620
 0.3780	 6.2470
 0.3790	 6.1890
 0.3800	 6.1150
 0.3810	 6.1280
 0.3820	 6.1460
 0.3830	 6.1220
 0.3840	 6.1420
 0.3850	 6.1990
 0.3860	 6.2200
 0.3870	 6.1480
 0.3880	 6.1440
 0.3890	 6.1810
 0.3900	 6.1990
 0.3910	 6.1060
 0.3920	 6.1040
 0.3930	 6.1540
 0.3940	 6.1870
 0.3950	 6.1890
 0.3960	 6.2070
 0.3970	 6.2090
 0.3980	 6.1470
 0.3990	 6.1510
 0.4000	 6.1850
 0.4010	 6.2130
 0.4020	 6.2060
 0.4030	 6.2220
 0.4040	 6.2540
 0.4050	 6.2850
 0.4060	 6.3340
 0.4070	 6.3470
 0.4080	 6.3550
 0.4090	 6.4330
 0.4100	 6.4480
 0.4110	 6.4400
 0.4120	 6.4660
 0.4130	 6.5440
 0.4140	 6.5890
 0.4150	 6.6210
 0.4160	 6.6840
 0.4170	 6.7100
 0.4180	 6.7450
 0.4190	 6.8090
 0.4200	 6.8780
 0.4210	 6.9490
 0.4220	 7.0170
 0.4230	 7.0870
 0.4240	 7.1430
 0.4250	 7.2040
 0.4260	 7.2750
 0.4270	 7.3540
 0.4280	 7.4170
 0.4290	 7.4790
 0.4300	 7.5390
 0.4310	 7.5800
 0.4320	 7.6420
 0.4330	 7.7160
 0.4340	 7.7800
 0.4350	 7.8340
 0.4360	 7.8890
 0.4370	 7.9470
 0.4380	 7.9930
 0.4390	 8.0240
 0.4400	 8.0620
 0.4410	 8.1110
 0.4420	 8.1520
 0.4430	 8.1980
 0.4440	 8.2490
 0.4450	 8.3020
 0.4460	 8.3450
 0.4470	 8.3880
 0.4480	 8.4410
 0.4490	 8.5050
 0.4500	 8.5440
 0.4510	 8.5740
 0.4520	 8.6160
 0.4530	 8.6560
 0.4540	 8.6830
 0.4550	 8.7000
 0.4560	 8.7320
 0.4570	 8.7560
 0.4580	 8.7730
 0.4590	 8.7830
 0.4600	 8.8000
 0.4610	 8.8070
 0.4620	 8.8090
 0.4630	 8.8180
 0.4640	 8.8460
 0.4650	 8.8560
 0.4660	 8.8450
 0.4670	 8.8400
 0.4680	 8.8390
 0.4690	 8.8390
 0.4700	 8.8400
 0.4710	 8.8480
 0.4720	 8.8540
 0.4730	 8.8550
 0.4740	 8.8540
 0.4750	 8.8660
 0.4760	 8.8740
 0.4770	 8.8680
 0.4780	 8.8650
 0.4790	 8.8660
 0.4800	 8.8710
 0.4810	 8.8800
 0.4820	 8.8850
 0.4830	 8.8900
 0.4840	 8.9000
 0.4850	 8.9170
 0.4860	 8.9300
 0.4870	 8.9370
 0.4880	 8.9470
 0.4890	 8.9670
 0.4900	 8.9950
 0.4910	 9.0270
 0.4920	 9.0580
 0.4930	 9.1090
 0.4940	 9.1600
 0.4950	 9.2030
 0.4960	 9.2490
 0.4970	 9.3220
 0.4980	 9.4060
 0.4990	 9.4890
 0.5000	 9.5650
 0.5010	 9.6560
 0.5020	 9.7650
 0.5030	 9.8860
 0.5040	10.0130
 0.5050	10.1510
 0.5060	10.3000
 0.5070	10.4670
 0.5080	10.6400
 0.5090	10.8260
 0.5100	11.0330
 0.5110	11.2480
 0.5120	11.4760
 0.5130	11.7160
 0.5140	11.9650
 0.5150	12.2240
 0.5160	12.4990
 0.5170	12.7880
 0.5180	13.0740
 0.5190	13.3630
 0.5200	13.6580
 0.5210	13.9600
 0.5220	14.2580
 0.5230	14.5390
 0.5240	14.8020
 0.5250	15.0630
 0.5260	15.3110
 0.5270	15.5420
 0.5280	15.7540
 0.5290	15.9510
 0.5300	16.1290
 0.5310	16.2880
 0.5320	16.4320
 0.5330	16.5670
 0.5340	16.6880
 0.5350	16.7950
 0.5360	16.8930
 0.5370	16.9810
 0.5380	17.0590
 0.5390	17.1300
 0.5400	17.2010
 0.5410	17.2670
 0.5420	17.3260
 0.5430	17.3910
 0.5440	17.4550
 0.5450	17.5150
 0.5460	17.5730
 0.5470	17.6290
 0.5480	17.6780
 0.5490	17.7200
 0.5500	17.7590
 0.5510	17.7900
 0.5520	17.8100
 0.5530	17.8120
 0.5540	17.8000
 0.5550	17.7650
 0.5560	17.7090
 0.5570	17.6390
 0.5580	17.5530
 0.5590	17.4550
 0.5600	17.3490
 0.5610	17.2350
 0.5620	17.1190
 0.5630	16.9940
 0.5640	16.8570
 0.5650	16.7160
 0.5660	16.5660
 0.5670	16.4070
 0.5680	16.2360
 0.5690	16.0630
 0.5700	15.8860
 0.5710	15.7060
 0.5720	15.5280
 0.5730	15.3590
 0.5740	15.1990
 0.5750	15.0450
 0.5760	14.8910
 0.5770	14.7450
 0.5780	14.6110
 0.5790	14.4890
 0.5800	14.3770
 0.5810	14.2730
 0.5820	14.1730
 0.5830	14.0760
 0.5840	13.9810
 0.5850	13.8900
 0.5860	13.8070
 0.5870	13.7320
 0.5880	13.6670
 0.5890	13.6100
 0.5900	13.5590
 0.5910	13.5120
 0.5920	13.4690
 0.5930	13.4290
 0.5940	13.3840
 0.5950	13.3430
 0.5960	13.3120
 0.5970	13.2830
 0.5980	13.2490
 0.5990	13.2120
 0.6000	13.1730
 0.6010	13.1280
 0.6020	13.0750
 0.6030	13.0160
 0.6040	12.9500
 0.6050	12.8800
 0.6060	12.8040
 0.6070	12.7190
 0.6080	12.6180
 0.6090	12.5180
 0.6100	12.4210
 0.6110	12.3240
 0.6120	12.2170
 0.6130	12.1050
 0.6140	11.9960
 0.6150	11.8930
 0.6160	11.7940
 0.6170	11.7040
 0.6180	11.6280
 0.6190	11.5540
 0.6200	11.4850
 0.6210	11.4230
 0.6220	11.3690
 0.6230	11.3230
 0.6240	11.2860
 0.6250	11.2560
 0.6260	11.2250
 0.6270	11.2010
 0.6280	11.1830
 0.6290	11.1680
 0.6300	11.1580
 0.6310	11.1450
 0.6320	11.1280
 0.6330	11.1050
 0.6340	11.0720
 0.6350	11.0290
 0.6360	10.9760
 0.6370	10.9110
 0.6380	10.8390
 0.6390	10.7590
 0.6400	10.6710
 0.6410	10.5720
 0.6420	10.4690
 0.6430	10.3670
 0.6440	10.2560
 0.6450	10.1430
 0.6460	10.0300
 0.6470	 9.9210
 0.6480	 9.8250
 0.6490	 9.7310
 0.6500	 9.6460
 0.6510	 9.5700
 0.6520	 9.4980
 0.6530	 9.4320
 0.6540	 9.3670
 0.6550	 9.2910
 0.6560	 9.2070
 0.6570	 9.1160
 0.6580	 9.0180
 0.6590	 8.9060
 0.6600	 8.7880
 0.6610	 8.6640
 0.6620	 8.5460
 0.6630	 8.4260
 0.6640	 8.3120
 0.6650	 8.2100
 0.6660	 8.1140
 0.6670	 8.0280
 0.6680	 7.9590
 0.6690	 7.8980
 0.6700	 7.8480
 0.6710	 7.8060
 0.6720	 7.7760
 0.6730	 7.7520
 0.6740	 7.7350
 0.6750	 7.7290
 0.6760	 7.7270
 0.6770	 7.7320
 0.6780	 7.7440
 0.6790	 7.7660
 0.6800	 7.7980
 0.6810	 7.8520
 0.6820	 7.9250
 0.6830	 8.0180
 0.6840	 8.1440
 0.6850	 8.3050
 0.6860	 8.5080
 0.6870	 8.7510
 0.6880	 9.0540
 0.6890	 9.4160
 0.6900	 9.8410
 0.6910	10.3270
 0.6920	10.8880
 0.6930	11.5160
 0.6940	12.2030
 0.6950	12.9480
 0.6960	13.7550
 0.6970	14.6130
 0.6980	15.5070
 0.6990	16.4370
 0.7000	17.3940
 0.7010	18.3690
 0.7020	19.3530
 0.7030	20.3430
 0.7040	21.3330
 0.7050	22.3180
 0.7060	23.3030
 0.7070	24.2840
 0.7080	25.2590
 0.7090	26.2330
 0.7100	27.2100
 0.7110	28.1900
 0.7120	29.1710
 0.7130	30.1530
 0.7140	31.1390
 0.7150	32.1280
 0.7160	33.1190
 0.7170	34.1110
 0.7180	35.1050
 0.7190	36.1030
 0.7200	37.1070
 0.7210	38.0940
 0.7220	39.0750
 0.7230	40.0550
 0.7240	41.0270
 0.7250	41.9770
 0.7260	42.9090
 0.7270	43.8240
 0.7280	44.7180
 0.7290	45.5860
 0.7300	46.4300
 0.7310	47.2490
 0.7320	48.0380
 0.7330	48.7960
 0.7340	49.5250
 0.7350	50.2300
 0.7360	50.9000
 0.7370	51.5390
 0.7380	52.1520
 0.7390	52.7340
 0.7400	53.2880
 0.7410	53.8110
 0.7420	54.3020
 0.7430	54.7690
 0.7440	55.2040
 0.7450	55.6080
 0.7460	55.9930
 0.7470	56.3510
 0.7480	56.6790
 0.7490	56.9770
 0.7500	57.2620
 0.7510	57.5250
 0.7520	57.7630
 0.7530	57.9790
 0.7540	58.1780
 0.7550	58.3660
 0.7560	58.5380
 0.7570	58.6870
 0.7580	58.8300
 0.7590	58.9640
 0.7600	59.0840
 0.7610	59.1860
 0.7620	59.2830
 0.7630	59.3750
 0.7640	59.4580
 0.7650	59.5370
 0.7660	59.6070
 0.7670	59.6740
 0.7680	59.7450
 0.7690	59.7910
 0.7700	59.8370
 0.7710	59.8910
 0.7720	59.9320
 0.7730	59.9680
 0.7740	60.0020
 0.7750	60.0390
 0.7760	60.0830
 0.7770	60.1270
 0.7780	60.1610
 0.7790	60.1790
 0.7800	60.2020
 0.7810	60.2360
 0.7820	60.2700
 0.7830	60.2840
 0.7840	60.3070
 0.7850	60.3380
 0.7860	60.3690
 0.7870	60.3920
 0.7880	60.4100
 0.7890	60.4260
 0.7900	60.4450
 0.7910	60.4600
 0.7920	60.4810
 0.7930	60.5060
 0.7940	60.5220
 0.7950	60.5380
 0.7960	60.5540
 0.7970	60.5690
 0.7980	60.5830
 0.7990	60.5960
 0.8000	60.6120
 0.8010	60.6300
 0.8020	60.6360
 0.8030	60.6430
 0.8040	60.6550
 0.8050	60.6700
 0.8060	60.6760
 0.8070	60.6840
 0.8080	60.6970
 0.8090	60.7090
 0.8100	60.7190
 0.8110	60.7240
 0.8120	60.7260
 0.8130	60.7370
 0.8140	60.7460
 0.8150	60.7500
 0.8160	60.7520
 0.8170	60.7620
 0.8180	60.7680
 0.8190	60.7720
 0.8200	60.7800
 0.8210	60.7900
 0.8220	60.7930
 0.8230	60.7940
 0.8240	60.8080
 0.8250	60.8160
 0.8260	60.8130
 0.8270	60.8050
 0.8280	60.8080
 0.8290	60.8090
 0.8300	60.8070
 0.8310	60.8020
 0.8320	60.7980
 0.8330	60.7960
 0.8340	60.7960
 0.8350	60.7980
 0.8360	60.8130
 0.8370	60.8190
 0.8380	60.8200
 0.8390	60.8390
 0.8400	60.8510
 0.8410	60.8630
 0.8420	60.8790
 0.8430	60.8910
 0.8440	60.8970
 0.8450	60.9100
 0.8460	60.9330
 0.8470	60.9400
 0.8480	60.9530
 0.8490	60.9740
 0.8500	60.9950
 0.8510	61.0050
 0.8520	61.0160
 0.8530	61.0240
 0.8540	61.0280
 0.8550	61.0480
 0.8560	61.0720
 0.8570	61.0900
 0.8580	61.1000
 0.8590	61.1070
 0.8600	61.1180
 0.8610	61.1310
 0.8620	61.1350
 0.8630	61.1520
 0.8640	61.1660
 0.8650	61.1660
 0.8660	61.1760
 0.8670	61.1850
 0.8680	61.1910
 0.8690	61.1940
 0.8700	61.2040
 0.8710	61.2080
 0.8720	61.2110
 0.8730	61.2250
 0.8740	61.2270
 0.8750	61.2300
 0.8760	61.2410
 0.8770	61.2560
 0.8780	61.2550
 0.8790	61.2520
 0.8800	61.2530
 0.8810	61.2430
 0.8820	61.2410
 0.8830	61.2480
 0.8840	61.2590
 0.8850	61.2530
 0.8860	61.2420
 0.8870	61.2370
 0.8880	61.2450
 0.8890	61.2350
 0.8900	61.2290
 0.8910	61.2230
 0.8920	61.2070
 0.8930	61.1960
 0.8940	61.1870
 0.8950	61.1810
 0.8960	61.1740
 0.8970	61.1660
 0.8980	61.1530
 0.8990	61.1380
 0.9000	61.1230
 0.9010	61.1170
 0.9020	61.1140
 0.9030	61.1050
 0.9040	61.0760
 0.9050	61.0580
 0.9060	61.0460
 0.9070	61.0300
 0.9080	61.0080
 0.9090	60.9940
 0.9100	60.9860
 0.9110	60.9730
 0.9120	60.9460
 0.9130	60.9290
 0.9140	60.9160
 0.9150	60.8950
 0.9160	60.8580
 0.9170	60.8440
 0.9180	60.8380
 0.9190	60.8130
 0.9200	60.7910
 0.9210	60.7540
 0.9220	60.7170
 0.9230	60.7010
 0.9240	60.6750
 0.9250	60.6350
 0.9260	60.5800
 0.9270	60.5190
 0.9280	60.4750
 0.9290	60.4350
 0.9300	60.3900
 0.9310	60.3400
 0.9320	60.2620
 0.9330	60.1900
 0.9340	60.1350
 0.9350	60.0750
 0.9360	59.9960
 0.9370	59.9180
 0.9380	59.8440
 0.9390	59.7530
 0.9400	59.6680
 0.9410	59.5800
 0.9420	59.4830
 0.9430	59.3820
 0.9440	59.2690
 0.9450	59.1500
 0.9460	59.0280
 0.9470	58.8880
 0.9480	58.7490
 0.9490	58.5950
 0.9500	58.4220
 0.9510	58.2600
 0.9520	58.0730
 0.9530	57.8670
 0.9540	57.6630
 0.9550	57.4740
 0.9560	57.2920
 0.9570	57.1130
 0.9580	56.9360
 0.9590	56.7710
 0.9600	56.6300
 0.9610	56.5000
 0.9620	56.3700
 0.9630	56.2660
 0.9640	56.1840
 0.9650	56.0980
 0.9660	55.9920
 0.9670	55.9310
 0.9680	55.8800
 0.9690	55.8200
 0.9700	55.7490
 0.9710	55.7130
 0.9720	55.6750
 0.9730	55.6300
 0.9740	55.5890
 0.9750	55.5620
 0.9760	55.5370
 0.9770	55.5120
 0.9780	55.4900
 0.9790	55.4790
 0.9800	55.4870
 0.9810	55.4920
 0.9820	55.4790
 0.9830	55.5120
 0.9840	55.5460
 0.9850	55.5650
 0.9860	55.5780
 0.9870	55.6150
 0.9880	55.6510
 0.9890	55.6830
 0.9900	55.7200
 0.9910	55.7880
 0.9920	55.8430
 0.9930	55.8910
 0.9940	55.9540
 0.9950	55.9830
 0.9960	56.0350
 0.9970	56.1150
 0.9980	56.2040
 0.9990	56.2820
 1.0000	56.2870
 1.0010	56.2190
 1.0020	56.2560
 1.0030	56.3290
 1.0040	56.4060
 1.0050	56.4820
 1.0060	56.5630
 1.0070	56.6420
 1.0080	56.7230
 1.0090	56.8070
 1.0100	56.8870
 1.0110	56.9660
 1.0120	57.0470
 1.0130	57.1250
 1.0140	57.2050
 1.0150	57.2900
 1.0160	57.3710
 1.0170	57.4540
 1.0180	57.5360
 1.0190	57.6140
 1.0200	57.6960
 1.0210	57.7760
 1.0220	57.8540
 1.0230	57.9320
 1.0240	58.0120
 1.0250	58.0890
 1.0260	58.1640
 1.0270	58.2380
 1.0280	58.3100
 1.0290	58.3840
 1.0300	58.4620
 1.0310	58.5350
 1.0320	58.6080
 1.0330	58.6800
 1.0340	58.7480
 1.0350	58.8110
 1.0360	58.8760
 1.0370	58.9430
 1.0380	59.0070
 1.0390	59.0700
 1.0400	59.1300
 1.0410	59.1860
 1.0420	59.2440
 1.0430	59.3020
 1.0440	59.3540
 1.0450	59.4040
 1.0460	59.4560
 1.0470	59.5040
 1.0480	59.5540
 1.0490	59.6090
 1.0500	59.6580
 1.0510	59.7030
 1.0520	59.7460
 1.0530	59.7890
 1.0540	59.8320
 1.0550	59.8720
 1.0560	59.9100
 1.0570	59.9470
 1.0580	59.9830
 1.0590	60.0150
 1.0600	60.0440
 1.0610	60.0760
 1.0620	60.1090
 1.0630	60.1370
 1.0640	60.1670
 1.0650	60.1950
 1.0660	60.2160
 1.0670	60.2380
 1.0680	60.2600
 1.0690	60.2820
 1.0700	60.3020
 1.0710	60.3230
 1.0720	60.3360
 1.0730	60.3450
 1.0740	60.3540
 1.0750	60.3580
 1.0760	60.3620
 1.0770	60.3670
 1.0780	60.3690
 1.0790	60.3660
 1.0800	60.3640
 1.0810	60.3650
 1.0820	60.3620
 1.0830	60.3590
 1.0840	60.3540
 1.0850	60.3460
 1.0860	60.3370
 1.0870	60.3220
 1.0880	60.3020
 1.0890	60.2830
 1.0900	60.2590
 1.0910	60.2350
 1.0920	60.2120
 1.0930	60.1870
 1.0940	60.1580
 1.0950	60.1300
 1.0960	60.1020
 1.0970	60.0720
 1.0980	60.0450
 1.0990	60.0100
 1.1000	59.9680
 1.1010	59.9280
 1.1020	59.8840
 1.1030	59.8410
 1.1040	59.8040
 1.1050	59.7650
 1.1060	59.7200
 1.1070	59.6730
 1.1080	59.6240
 1.1090	59.5700
 1.1100	59.5170
 1.1110	59.4670
 1.1120	59.4100
 1.1130	59.3500
 1.1140	59.2840
 1.1150	59.2110
 1.1160	59.1340
 1.1170	59.0530
 1.1180	58.9650
 1.1190	58.8750
 1.1200	58.7750
 1.1210	58.6660
 1.1220	58.5470
 1.1230	58.4170
 1.1240	58.2750
 1.1250	58.1200
 1.1260	57.9570
 1.1270	57.7740
 1.1280	57.5770
 1.1290	57.3610
 1.1300	57.1300
 1.1310	56.8760
 1.1320	56.6020
 1.1330	56.3120
 1.1340	56.0040
 1.1350	55.6780
 1.1360	55.3330
 1.1370	54.9770
 1.1380	54.6060
 1.1390	54.2260
 1.1400	53.8410
 1.1410	53.4540
 1.1420	53.0610
 1.1430	52.6670
 1.1440	52.2790
 1.1450	51.8830
 1.1460	51.5080
 1.1470	51.1350
 1.1480	50.7830
 1.1490	50.4390
 1.1500	50.1200
 1.1510	49.8160
 1.1520	49.5320
 1.1530	49.2650
 1.1540	49.0200
 1.1550	48.7960
 1.1560	48.5890
 1.1570	48.3980
 1.1580	48.2290
 1.1590	48.0720
 1.1600	47.9250
 1.1610	47.7970
 1.1620	47.6780
 1.1630	47.5680
 1.1640	47.4690
 1.1650	47.3770
 1.1660	47.2950
 1.1670	47.2160
 1.1680	47.1450
 1.1690	47.0750
 1.1700	47.0090
 1.1710	46.9450
 1.1720	46.8850
 1.1730	46.8240
 1.1740	46.7640
 1.1750	46.7050
 1.1760	46.6460
 1.1770	46.5840
 1.1780	46.5210
 1.1790	46.4550
 1.1800	46.3870
 1.1810	46.3200
 1.1820	46.2530
 1.1830	46.1870
 1.1840	46.1230
 1.1850	46.0580
 1.1860	45.9940
 1.1870	45.9320
 1.1880	45.8740
 1.1890	45.8150
 1.1900	45.7640
 1.1910	45.7180
 1.1920	45.6770
 1.1930	45.6400
 1.1940	45.6090
 1.1950	45.5840
 1.1960	45.5620
 1.1970	45.5440
 1.1980	45.5340
 1.1990	45.5290
 1.2000	45.5280
 1.2010	45.5320
 1.2020	45.5420
 1.2030	45.5580
 1.2040	45.5770
 1.2050	45.6020
 1.2060	45.6340
 1.2070	45.6700
 1.2080	45.7110
 1.2090	45.7580
 1.2100	45.8110
 1.2110	45.8680
 1.2120	45.9310
 1.2130	45.9970
 1.2140	46.0680
 1.2150	46.1430
 1.2160	46.2220
 1.2170	46.3020
 1.2180	46.3870
 1.2190	46.4740
 1.2200	46.5620
 1.2210	46.6540
 1.2220	46.7500
 1.2230	46.8450
 1.2240	46.9410
 1.2250	47.0340
 1.2260	47.1220
 1.2270	47.2080
 1.2280	47.2950
 1.2290	47.3830
 1.2300	47.4690
 1.2310	47.5530
 1.2320	47.6340
 1.2330	47.7090
 1.2340	47.7820
 1.2350	47.8530
 1.2360	47.9220
 1.2370	47.9880
 1.2380	48.0500
 1.2390	48.1140
 1.2400	48.1750
 1.2410	48.2350
 1.2420	48.2960
 1.2430	48.3560
 1.2440	48.4110
 1.2450	48.4650
 1.2460	48.5160
 1.2470	48.5620
 1.2480	48.6080
 1.2490	48.6530
 1.2500	48.6970
 1.2510	48.7400
 1.2520	48.7800
 1.2530	48.8170
 1.2540	48.8510
 1.2550	48.8840
 1.2560	48.9160
 1.2570	48.9450
 1.2580	48.9740
 1.2590	49.0000
 1.2600	49.0250
 1.2610	49.0460
 1.2620	49.0640
 1.2630	49.0800
 1.2640	49.0920
 1.2650	49.1050
 1.2660	49.1160
 1.2670	49.1220
 1.2680	49.1260
 1.2690	49.1270
 1.2700	49.1260
 1.2710	49.1240
 1.2720	49.1180
 1.2730	49.1080
 1.2740	49.0980
 1.2750	49.0860
 1.2760	49.0700
 1.2770	49.0510
 1.2780	49.0280
 1.2790	49.0000
 1.2800	48.9750
 1.2810	48.9500
 1.2820	48.9180
 1.2830	48.8830
 1.2840	48.8410
 1.2850	48.7960
 1.2860	48.7480
 1.2870	48.6970
 1.2880	48.6430
 1.2890	48.5850
 1.2900	48.5220
 1.2910	48.4540
 1.2920	48.3830
 1.2930	48.3090
 1.2940	48.2320
 1.2950	48.1500
 1.2960	48.0650
 1.2970	47.9760
 1.2980	47.8800
 1.2990	47.7780
 1.3000	47.6720
 1.3010	47.5620
 1.3020	47.4440
 1.3030	47.3200
 1.3040	47.1910
 1.3050	47.0570
 1.3060	46.9190
 1.3070	46.7760
 1.3080	46.6260
 1.3090	46.4680
 1.3100	46.3020
 1.3110	46.1330
 1.3120	45.9570
 1.3130	45.7770
 1.3140	45.5900
 1.3150	45.3980
 1.3160	45.1990
 1.3170	44.9950
 1.3180	44.7850
 1.3190	44.5690
 1.3200	44.3480
 1.3210	44.1190
 1.3220	43.8850
 1.3230	43.6470
 1.3240	43.4010
 1.3250	43.1550
 1.3260	42.9070
 1.3270	42.6550
 1.3280	42.4020
 1.3290	42.1450
 1.3300	41.8840
 1.3310	41.6230
 1.3320	41.3600
 1.3330	41.0970
 1.3340	40.8370
 1.3350	40.5770
 1.3360	40.3200
 1.3370	40.0630
 1.3380	39.8070
 1.3390	39.5540
 1.3400	39.3020
 1.3410	39.0560
 1.3420	38.8140
 1.3430	38.5750
 1.3440	38.3410
 1.3450	38.1090
 1.3460	37.8770
 1.3470	37.6540
 1.3480	37.4340
 1.3490	37.2200
 1.3500	37.0150
 1.3510	36.8100
 1.3520	36.6060
 1.3530	36.4050
 1.3540	36.2040
 1.3550	36.0030
 1.3560	35.8040
 1.3570	35.6060
 1.3580	35.4070
 1.3590	35.2060
 1.3600	35.0020
 1.3610	34.7950
 1.3620	34.5820
 1.3630	34.3640
 1.3640	34.1390
 1.3650	33.9040
 1.3660	33.6630
 1.3670	33.4120
 1.3680	33.1490
 1.3690	32.8750
 1.3700	32.5840
 1.3710	32.2800
 1.3720	31.9620
 1.3730	31.6260
 1.3740	31.2770
 1.3750	30.9090
 1.3760	30.5190
 1.3770	30.1080
 1.3780	29.6710
 1.3790	29.2120
 1.3800	28.7310
 1.3810	28.2270
 1.3820	27.7090
 1.3830	27.1730
 1.3840	26.6250
 1.3850	26.0600
 1.3860	25.4900
 1.3870	24.9000
 1.3880	24.3170
 1.3890	23.7270
 1.3900	23.1360
 1.3910	22.5530
 1.3920	21.9730
 1.3930	21.3980
 1.3940	20.8340
 1.3950	20.2740
 1.3960	19.7280
 1.3970	19.1980
 1.3980	18.6840
 1.3990	18.1930
 1.4000	17.7200
 1.4010	17.2650
 1.4020	16.8320
 1.4030	16.4160
 1.4040	16.0220
 1.4050	15.6490
 1.4060	15.2950
 1.4070	14.9640
 1.4080	14.6510
 1.4090	14.3570
 1.4100	14.0830
 1.4110	13.8240
 1.4120	13.5830
 1.4130	13.3590
 1.4140	13.1500
 1.4150	12.9560
 1.4160	12.7750
 1.4170	12.6060
 1.4180	12.4480
 1.4190	12.3010
 1.4200	12.1640
 1.4210	12.0380
 1.4220	11.9210
 1.4230	11.8140
 1.4240	11.7150
 1.4250	11.6230
 1.4260	11.5400
 1.4270	11.4610
 1.4280	11.3880
 1.4290	11.3210
 1.4300	11.2600
 1.4310	11.2050
 1.4320	11.1560
 1.4330	11.1110
 1.4340	11.0700
 1.4350	11.0330
 1.4360	11.0010
 1.4370	10.9720
 1.4380	10.9460
 1.4390	10.9260
 1.4400	10.9080
 1.4410	10.8930
 1.4420	10.8810
 1.4430	10.8710
 1.4440	10.8630
 1.4450	10.8570
 1.4460	10.8540
 1.4470	10.8520
 1.4480	10.8520
 1.4490	10.8540
 1.4500	10.8580
 1.4510	10.8630
 1.4520	10.8700
 1.4530	10.8780
 1.4540	10.8870
 1.4550	10.8980
 1.4560	10.9110
 1.4570	10.9260
 1.4580	10.9440
 1.4590	10.9620
 1.4600	10.9830
 1.4610	11.0080
 1.4620	11.0340
 1.4630	11.0640
 1.4640	11.0980
 1.4650	11.1350
 1.4660	11.1750
 1.4670	11.2180
 1.4680	11.2650
 1.4690	11.3160
 1.4700	11.3700
 1.4710	11.4280
