Name: Magnolia grandiflora
Type: vegetation
Class: Tree
Genus: Magnolia
Species: grandiflora
Sample No.: JPL182
Owner: JPL
Wavelength Range: VSWIR
Origin: 34.12854; -118.1149; WGS84
Collection Date: 10/3/2016
Description: Samples were collected at the Huntington Garden in San Marino California as part of a JPL Subcontract studying HyTES imagery. Samples were taken to JPL and processed within 48 hours of collection. The same leaves were processed in the Nicolet and then measured using the ASD.
Measurement: Bidirectional reflectance
First Column: X
Second Column: Y
X Units: Wavelength (micrometer)
Y Units: Reflectance (percentage)
First X Value: 0.35
Last X Value: 2.5
Number of X Values: 2151
Additional Information: vegetation.tree.magnolia.grandiflora.vswir.jpl182.jpl.asd.ancillary.txt

 0.3500	 3.5400
 0.3510	 3.5240
 0.3520	 3.4650
 0.3530	 3.3860
 0.3540	 3.3430
 0.3550	 3.4640
 0.3560	 3.4220
 0.3570	 3.2910
 0.3580	 3.3290
 0.3590	 3.4300
 0.3600	 3.4340
 0.3610	 3.3370
 0.3620	 3.3600
 0.3630	 3.2940
 0.3640	 3.2330
 0.3650	 3.2770
 0.3660	 3.2940
 0.3670	 3.3160
 0.3680	 3.3090
 0.3690	 3.2110
 0.3700	 3.2070
 0.3710	 3.2560
 0.3720	 3.2920
 0.3730	 3.2590
 0.3740	 3.1580
 0.3750	 3.1170
 0.3760	 3.2240
 0.3770	 3.1950
 0.3780	 3.1860
 0.3790	 3.2080
 0.3800	 3.1450
 0.3810	 3.1490
 0.3820	 3.1990
 0.3830	 3.2320
 0.3840	 3.1410
 0.3850	 3.1260
 0.3860	 3.1510
 0.3870	 3.1190
 0.3880	 3.1460
 0.3890	 3.1460
 0.3900	 3.1100
 0.3910	 3.1180
 0.3920	 3.0980
 0.3930	 3.0760
 0.3940	 3.0820
 0.3950	 3.1130
 0.3960	 3.0940
 0.3970	 3.0400
 0.3980	 3.0080
 0.3990	 3.0240
 0.4000	 3.0230
 0.4010	 2.9950
 0.4020	 3.0120
 0.4030	 3.0200
 0.4040	 3.0130
 0.4050	 2.9980
 0.4060	 2.9920
 0.4070	 2.9860
 0.4080	 2.9830
 0.4090	 2.9880
 0.4100	 2.9850
 0.4110	 2.9670
 0.4120	 2.9480
 0.4130	 2.9640
 0.4140	 2.9590
 0.4150	 2.9480
 0.4160	 2.9570
 0.4170	 2.9560
 0.4180	 2.9500
 0.4190	 2.9500
 0.4200	 2.9710
 0.4210	 2.9680
 0.4220	 2.9630
 0.4230	 2.9760
 0.4240	 2.9920
 0.4250	 3.0020
 0.4260	 3.0060
 0.4270	 3.0080
 0.4280	 3.0170
 0.4290	 3.0330
 0.4300	 3.0500
 0.4310	 3.0560
 0.4320	 3.0660
 0.4330	 3.0820
 0.4340	 3.1030
 0.4350	 3.1110
 0.4360	 3.1260
 0.4370	 3.1440
 0.4380	 3.1430
 0.4390	 3.1530
 0.4400	 3.1730
 0.4410	 3.1940
 0.4420	 3.2040
 0.4430	 3.2140
 0.4440	 3.2230
 0.4450	 3.2320
 0.4460	 3.2360
 0.4470	 3.2490
 0.4480	 3.2670
 0.4490	 3.2670
 0.4500	 3.2750
 0.4510	 3.2880
 0.4520	 3.2980
 0.4530	 3.3090
 0.4540	 3.3140
 0.4550	 3.3180
 0.4560	 3.3280
 0.4570	 3.3300
 0.4580	 3.3330
 0.4590	 3.3420
 0.4600	 3.3500
 0.4610	 3.3510
 0.4620	 3.3480
 0.4630	 3.3470
 0.4640	 3.3490
 0.4650	 3.3460
 0.4660	 3.3410
 0.4670	 3.3540
 0.4680	 3.3520
 0.4690	 3.3450
 0.4700	 3.3440
 0.4710	 3.3450
 0.4720	 3.3480
 0.4730	 3.3520
 0.4740	 3.3520
 0.4750	 3.3440
 0.4760	 3.3410
 0.4770	 3.3450
 0.4780	 3.3460
 0.4790	 3.3450
 0.4800	 3.3440
 0.4810	 3.3420
 0.4820	 3.3460
 0.4830	 3.3520
 0.4840	 3.3540
 0.4850	 3.3540
 0.4860	 3.3610
 0.4870	 3.3650
 0.4880	 3.3600
 0.4890	 3.3640
 0.4900	 3.3790
 0.4910	 3.3950
 0.4920	 3.3990
 0.4930	 3.4090
 0.4940	 3.4230
 0.4950	 3.4350
 0.4960	 3.4430
 0.4970	 3.4620
 0.4980	 3.4850
 0.4990	 3.5040
 0.5000	 3.5340
 0.5010	 3.5600
 0.5020	 3.5840
 0.5030	 3.6180
 0.5040	 3.6460
 0.5050	 3.6810
 0.5060	 3.7310
 0.5070	 3.7790
 0.5080	 3.8290
 0.5090	 3.8830
 0.5100	 3.9470
 0.5110	 4.0100
 0.5120	 4.0820
 0.5130	 4.1650
 0.5140	 4.2550
 0.5150	 4.3460
 0.5160	 4.4450
 0.5170	 4.5560
 0.5180	 4.6670
 0.5190	 4.7910
 0.5200	 4.9230
 0.5210	 5.0520
 0.5220	 5.1850
 0.5230	 5.3240
 0.5240	 5.4650
 0.5250	 5.6070
 0.5260	 5.7430
 0.5270	 5.8720
 0.5280	 5.9950
 0.5290	 6.1110
 0.5300	 6.2230
 0.5310	 6.3300
 0.5320	 6.4260
 0.5330	 6.5130
 0.5340	 6.5920
 0.5350	 6.6630
 0.5360	 6.7220
 0.5370	 6.7750
 0.5380	 6.8250
 0.5390	 6.8680
 0.5400	 6.9070
 0.5410	 6.9370
 0.5420	 6.9620
 0.5430	 6.9870
 0.5440	 7.0120
 0.5450	 7.0360
 0.5460	 7.0580
 0.5470	 7.0770
 0.5480	 7.0940
 0.5490	 7.1090
 0.5500	 7.1240
 0.5510	 7.1330
 0.5520	 7.1350
 0.5530	 7.1260
 0.5540	 7.1090
 0.5550	 7.0820
 0.5560	 7.0420
 0.5570	 6.9920
 0.5580	 6.9350
 0.5590	 6.8720
 0.5600	 6.8030
 0.5610	 6.7290
 0.5620	 6.6500
 0.5630	 6.5690
 0.5640	 6.4880
 0.5650	 6.4040
 0.5660	 6.3160
 0.5670	 6.2240
 0.5680	 6.1340
 0.5690	 6.0430
 0.5700	 5.9520
 0.5710	 5.8600
 0.5720	 5.7630
 0.5730	 5.6690
 0.5740	 5.5820
 0.5750	 5.5030
 0.5760	 5.4280
 0.5770	 5.3550
 0.5780	 5.2850
 0.5790	 5.2170
 0.5800	 5.1560
 0.5810	 5.1030
 0.5820	 5.0570
 0.5830	 5.0190
 0.5840	 4.9820
 0.5850	 4.9460
 0.5860	 4.9100
 0.5870	 4.8810
 0.5880	 4.8560
 0.5890	 4.8280
 0.5900	 4.7960
 0.5910	 4.7680
 0.5920	 4.7450
 0.5930	 4.7200
 0.5940	 4.6980
 0.5950	 4.6780
 0.5960	 4.6570
 0.5970	 4.6360
 0.5980	 4.6200
 0.5990	 4.6050
 0.6000	 4.5900
 0.6010	 4.5740
 0.6020	 4.5590
 0.6030	 4.5430
 0.6040	 4.5160
 0.6050	 4.4880
 0.6060	 4.4580
 0.6070	 4.4250
 0.6080	 4.3900
 0.6090	 4.3540
 0.6100	 4.3210
 0.6110	 4.2930
 0.6120	 4.2570
 0.6130	 4.2190
 0.6140	 4.1820
 0.6150	 4.1470
 0.6160	 4.1140
 0.6170	 4.0820
 0.6180	 4.0530
 0.6190	 4.0270
 0.6200	 4.0050
 0.6210	 3.9860
 0.6220	 3.9700
 0.6230	 3.9530
 0.6240	 3.9390
 0.6250	 3.9280
 0.6260	 3.9190
 0.6270	 3.9110
 0.6280	 3.9040
 0.6290	 3.8980
 0.6300	 3.8920
 0.6310	 3.8850
 0.6320	 3.8770
 0.6330	 3.8670
 0.6340	 3.8520
 0.6350	 3.8360
 0.6360	 3.8190
 0.6370	 3.7950
 0.6380	 3.7690
 0.6390	 3.7420
 0.6400	 3.7140
 0.6410	 3.6880
 0.6420	 3.6570
 0.6430	 3.6220
 0.6440	 3.5950
 0.6450	 3.5640
 0.6460	 3.5350
 0.6470	 3.5120
 0.6480	 3.4920
 0.6490	 3.4730
 0.6500	 3.4530
 0.6510	 3.4370
 0.6520	 3.4260
 0.6530	 3.4150
 0.6540	 3.4040
 0.6550	 3.3920
 0.6560	 3.3780
 0.6570	 3.3620
 0.6580	 3.3470
 0.6590	 3.3280
 0.6600	 3.3090
 0.6610	 3.2920
 0.6620	 3.2750
 0.6630	 3.2600
 0.6640	 3.2480
 0.6650	 3.2390
 0.6660	 3.2300
 0.6670	 3.2250
 0.6680	 3.2250
 0.6690	 3.2280
 0.6700	 3.2350
 0.6710	 3.2450
 0.6720	 3.2580
 0.6730	 3.2760
 0.6740	 3.2960
 0.6750	 3.3170
 0.6760	 3.3430
 0.6770	 3.3700
 0.6780	 3.4030
 0.6790	 3.4410
 0.6800	 3.4790
 0.6810	 3.5230
 0.6820	 3.5680
 0.6830	 3.6120
 0.6840	 3.6590
 0.6850	 3.7100
 0.6860	 3.7660
 0.6870	 3.8260
 0.6880	 3.8910
 0.6890	 3.9690
 0.6900	 4.0650
 0.6910	 4.1830
 0.6920	 4.3290
 0.6930	 4.5080
 0.6940	 4.7250
 0.6950	 4.9850
 0.6960	 5.2920
 0.6970	 5.6490
 0.6980	 6.0590
 0.6990	 6.5170
 0.7000	 7.0260
 0.7010	 7.5810
 0.7020	 8.1760
 0.7030	 8.8040
 0.7040	 9.4610
 0.7050	10.1450
 0.7060	10.8530
 0.7070	11.5820
 0.7080	12.3310
 0.7090	13.1030
 0.7100	13.9000
 0.7110	14.7190
 0.7120	15.5600
 0.7130	16.4240
 0.7140	17.3120
 0.7150	18.2210
 0.7160	19.1490
 0.7170	20.0980
 0.7180	21.0650
 0.7190	22.0470
 0.7200	23.0400
 0.7210	24.0400
 0.7220	25.0460
 0.7230	26.0540
 0.7240	27.0590
 0.7250	28.0580
 0.7260	29.0470
 0.7270	30.0210
 0.7280	30.9760
 0.7290	31.9090
 0.7300	32.8180
 0.7310	33.7010
 0.7320	34.5570
 0.7330	35.3820
 0.7340	36.1740
 0.7350	36.9350
 0.7360	37.6590
 0.7370	38.3460
 0.7380	38.9980
 0.7390	39.6160
 0.7400	40.1980
 0.7410	40.7440
 0.7420	41.2540
 0.7430	41.7290
 0.7440	42.1680
 0.7450	42.5750
 0.7460	42.9520
 0.7470	43.2980
 0.7480	43.6150
 0.7490	43.9050
 0.7500	44.1690
 0.7510	44.4090
 0.7520	44.6270
 0.7530	44.8260
 0.7540	45.0050
 0.7550	45.1680
 0.7560	45.3170
 0.7570	45.4490
 0.7580	45.5690
 0.7590	45.6790
 0.7600	45.7780
 0.7610	45.8640
 0.7620	45.9430
 0.7630	46.0120
 0.7640	46.0710
 0.7650	46.1280
 0.7660	46.1770
 0.7670	46.2190
 0.7680	46.2600
 0.7690	46.2950
 0.7700	46.3240
 0.7710	46.3500
 0.7720	46.3740
 0.7730	46.3950
 0.7740	46.4150
 0.7750	46.4350
 0.7760	46.4540
 0.7770	46.4710
 0.7780	46.4880
 0.7790	46.5040
 0.7800	46.5190
 0.7810	46.5340
 0.7820	46.5490
 0.7830	46.5640
 0.7840	46.5760
 0.7850	46.5880
 0.7860	46.6000
 0.7870	46.6100
 0.7880	46.6230
 0.7890	46.6350
 0.7900	46.6420
 0.7910	46.6500
 0.7920	46.6600
 0.7930	46.6690
 0.7940	46.6760
 0.7950	46.6870
 0.7960	46.6960
 0.7970	46.7020
 0.7980	46.7070
 0.7990	46.7140
 0.8000	46.7220
 0.8010	46.7290
 0.8020	46.7300
 0.8030	46.7360
 0.8040	46.7430
 0.8050	46.7450
 0.8060	46.7480
 0.8070	46.7520
 0.8080	46.7570
 0.8090	46.7630
 0.8100	46.7670
 0.8110	46.7720
 0.8120	46.7780
 0.8130	46.7800
 0.8140	46.7840
 0.8150	46.7880
 0.8160	46.7890
 0.8170	46.7970
 0.8180	46.8030
 0.8190	46.8090
 0.8200	46.8140
 0.8210	46.8190
 0.8220	46.8250
 0.8230	46.8340
 0.8240	46.8440
 0.8250	46.8510
 0.8260	46.8550
 0.8270	46.8590
 0.8280	46.8650
 0.8290	46.8690
 0.8300	46.8740
 0.8310	46.8820
 0.8320	46.8910
 0.8330	46.8980
 0.8340	46.9050
 0.8350	46.9140
 0.8360	46.9250
 0.8370	46.9370
 0.8380	46.9500
 0.8390	46.9590
 0.8400	46.9710
 0.8410	46.9830
 0.8420	46.9970
 0.8430	47.0120
 0.8440	47.0280
 0.8450	47.0420
 0.8460	47.0560
 0.8470	47.0660
 0.8480	47.0790
 0.8490	47.0920
 0.8500	47.1020
 0.8510	47.1150
 0.8520	47.1310
 0.8530	47.1450
 0.8540	47.1570
 0.8550	47.1660
 0.8560	47.1760
 0.8570	47.1870
 0.8580	47.2010
 0.8590	47.2130
 0.8600	47.2250
 0.8610	47.2350
 0.8620	47.2410
 0.8630	47.2520
 0.8640	47.2620
 0.8650	47.2690
 0.8660	47.2800
 0.8670	47.2910
 0.8680	47.3010
 0.8690	47.3070
 0.8700	47.3090
 0.8710	47.3160
 0.8720	47.3260
 0.8730	47.3320
 0.8740	47.3370
 0.8750	47.3460
 0.8760	47.3560
 0.8770	47.3590
 0.8780	47.3630
 0.8790	47.3690
 0.8800	47.3750
 0.8810	47.3790
 0.8820	47.3830
 0.8830	47.3860
 0.8840	47.3900
 0.8850	47.3970
 0.8860	47.3980
 0.8870	47.3950
 0.8880	47.3950
 0.8890	47.3980
 0.8900	47.3990
 0.8910	47.4000
 0.8920	47.4040
 0.8930	47.4040
 0.8940	47.4040
 0.8950	47.4030
 0.8960	47.4030
 0.8970	47.4040
 0.8980	47.4010
 0.8990	47.3970
 0.9000	47.3980
 0.9010	47.3990
 0.9020	47.3980
 0.9030	47.3960
 0.9040	47.3960
 0.9050	47.3990
 0.9060	47.3980
 0.9070	47.3910
 0.9080	47.3850
 0.9090	47.3820
 0.9100	47.3820
 0.9110	47.3830
 0.9120	47.3790
 0.9130	47.3740
 0.9140	47.3700
 0.9150	47.3650
 0.9160	47.3600
 0.9170	47.3540
 0.9180	47.3450
 0.9190	47.3340
 0.9200	47.3330
 0.9210	47.3260
 0.9220	47.3110
 0.9230	47.2940
 0.9240	47.2820
 0.9250	47.2690
 0.9260	47.2530
 0.9270	47.2350
 0.9280	47.2110
 0.9290	47.1890
 0.9300	47.1670
 0.9310	47.1380
 0.9320	47.1120
 0.9330	47.0870
 0.9340	47.0590
 0.9350	47.0270
 0.9360	46.9930
 0.9370	46.9590
 0.9380	46.9250
 0.9390	46.8820
 0.9400	46.8470
 0.9410	46.8070
 0.9420	46.7570
 0.9430	46.7110
 0.9440	46.6650
 0.9450	46.6150
 0.9460	46.5550
 0.9470	46.4890
 0.9480	46.4190
 0.9490	46.3500
 0.9500	46.2820
 0.9510	46.2040
 0.9520	46.1200
 0.9530	46.0320
 0.9540	45.9450
 0.9550	45.8640
 0.9560	45.7780
 0.9570	45.6950
 0.9580	45.6280
 0.9590	45.5600
 0.9600	45.4940
 0.9610	45.4350
 0.9620	45.3870
 0.9630	45.3390
 0.9640	45.2940
 0.9650	45.2560
 0.9660	45.2250
 0.9670	45.1930
 0.9680	45.1720
 0.9690	45.1570
 0.9700	45.1360
 0.9710	45.1180
 0.9720	45.1020
 0.9730	45.0850
 0.9740	45.0670
 0.9750	45.0510
 0.9760	45.0380
 0.9770	45.0250
 0.9780	45.0070
 0.9790	45.0050
 0.9800	45.0170
 0.9810	45.0260
 0.9820	45.0160
 0.9830	45.0160
 0.9840	45.0260
 0.9850	45.0400
 0.9860	45.0520
 0.9870	45.0730
 0.9880	45.0910
 0.9890	45.1020
 0.9900	45.1040
 0.9910	45.1050
 0.9920	45.1320
 0.9930	45.1670
 0.9940	45.1830
 0.9950	45.2170
 0.9960	45.2340
 0.9970	45.2450
 0.9980	45.2730
 0.9990	45.2960
 1.0000	45.3220
 1.0010	44.7190
 1.0020	44.7450
 1.0030	44.7740
 1.0040	44.8080
 1.0050	44.8410
 1.0060	44.8740
 1.0070	44.9080
 1.0080	44.9400
 1.0090	44.9700
 1.0100	45.0010
 1.0110	45.0310
 1.0120	45.0630
 1.0130	45.0960
 1.0140	45.1300
 1.0150	45.1660
 1.0160	45.1980
 1.0170	45.2320
 1.0180	45.2640
 1.0190	45.2960
 1.0200	45.3310
 1.0210	45.3620
 1.0220	45.3900
 1.0230	45.4220
 1.0240	45.4540
 1.0250	45.4850
 1.0260	45.5180
 1.0270	45.5490
 1.0280	45.5790
 1.0290	45.6090
 1.0300	45.6410
 1.0310	45.6700
 1.0320	45.6970
 1.0330	45.7180
 1.0340	45.7450
 1.0350	45.7720
 1.0360	45.7990
 1.0370	45.8290
 1.0380	45.8540
 1.0390	45.8730
 1.0400	45.8960
 1.0410	45.9190
 1.0420	45.9410
 1.0430	45.9650
 1.0440	45.9850
 1.0450	46.0030
 1.0460	46.0200
 1.0470	46.0370
 1.0480	46.0530
 1.0490	46.0700
 1.0500	46.0860
 1.0510	46.1000
 1.0520	46.1150
 1.0530	46.1290
 1.0540	46.1400
 1.0550	46.1540
 1.0560	46.1700
 1.0570	46.1820
 1.0580	46.1920
 1.0590	46.2040
 1.0600	46.2130
 1.0610	46.2230
 1.0620	46.2340
 1.0630	46.2430
 1.0640	46.2510
 1.0650	46.2580
 1.0660	46.2620
 1.0670	46.2680
 1.0680	46.2750
 1.0690	46.2820
 1.0700	46.2860
 1.0710	46.2910
 1.0720	46.2940
 1.0730	46.2930
 1.0740	46.2940
 1.0750	46.2990
 1.0760	46.3000
 1.0770	46.2970
 1.0780	46.2960
 1.0790	46.2940
 1.0800	46.2910
 1.0810	46.2900
 1.0820	46.2870
 1.0830	46.2810
 1.0840	46.2750
 1.0850	46.2680
 1.0860	46.2620
 1.0870	46.2550
 1.0880	46.2480
 1.0890	46.2390
 1.0900	46.2290
 1.0910	46.2190
 1.0920	46.2090
 1.0930	46.1970
 1.0940	46.1850
 1.0950	46.1720
 1.0960	46.1570
 1.0970	46.1430
 1.0980	46.1310
 1.0990	46.1170
 1.1000	46.1030
 1.1010	46.0870
 1.1020	46.0710
 1.1030	46.0530
 1.1040	46.0340
 1.1050	46.0160
 1.1060	45.9970
 1.1070	45.9770
 1.1080	45.9570
 1.1090	45.9390
 1.1100	45.9190
 1.1110	45.8970
 1.1120	45.8750
 1.1130	45.8530
 1.1140	45.8270
 1.1150	45.8010
 1.1160	45.7730
 1.1170	45.7440
 1.1180	45.7100
 1.1190	45.6750
 1.1200	45.6350
 1.1210	45.5940
 1.1220	45.5490
 1.1230	45.4970
 1.1240	45.4420
 1.1250	45.3790
 1.1260	45.3080
 1.1270	45.2300
 1.1280	45.1480
 1.1290	45.0550
 1.1300	44.9530
 1.1310	44.8400
 1.1320	44.7170
 1.1330	44.5840
 1.1340	44.4400
 1.1350	44.2880
 1.1360	44.1290
 1.1370	43.9590
 1.1380	43.7810
 1.1390	43.5970
 1.1400	43.4060
 1.1410	43.2150
 1.1420	43.0190
 1.1430	42.8200
 1.1440	42.6230
 1.1450	42.4220
 1.1460	42.2300
 1.1470	42.0400
 1.1480	41.8580
 1.1490	41.6780
 1.1500	41.5090
 1.1510	41.3450
 1.1520	41.1910
 1.1530	41.0450
 1.1540	40.9100
 1.1550	40.7830
 1.1560	40.6640
 1.1570	40.5560
 1.1580	40.4570
 1.1590	40.3650
 1.1600	40.2810
 1.1610	40.2050
 1.1620	40.1340
 1.1630	40.0680
 1.1640	40.0060
 1.1650	39.9490
 1.1660	39.8960
 1.1670	39.8490
 1.1680	39.8100
 1.1690	39.7680
 1.1700	39.7280
 1.1710	39.6900
 1.1720	39.6520
 1.1730	39.6170
 1.1740	39.5850
 1.1750	39.5530
 1.1760	39.5180
 1.1770	39.4850
 1.1780	39.4500
 1.1790	39.4150
 1.1800	39.3810
 1.1810	39.3470
 1.1820	39.3130
 1.1830	39.2810
 1.1840	39.2480
 1.1850	39.2170
 1.1860	39.1850
 1.1870	39.1530
 1.1880	39.1240
 1.1890	39.0950
 1.1900	39.0700
 1.1910	39.0490
 1.1920	39.0300
 1.1930	39.0140
 1.1940	38.9990
 1.1950	38.9860
 1.1960	38.9750
 1.1970	38.9670
 1.1980	38.9610
 1.1990	38.9610
 1.2000	38.9630
 1.2010	38.9680
 1.2020	38.9770
 1.2030	38.9870
 1.2040	38.9990
 1.2050	39.0140
 1.2060	39.0320
 1.2070	39.0540
 1.2080	39.0770
 1.2090	39.1020
 1.2100	39.1270
 1.2110	39.1530
 1.2120	39.1810
 1.2130	39.2110
 1.2140	39.2400
 1.2150	39.2730
 1.2160	39.3100
 1.2170	39.3440
 1.2180	39.3800
 1.2190	39.4180
 1.2200	39.4570
 1.2210	39.4950
 1.2220	39.5320
 1.2230	39.5710
 1.2240	39.6110
 1.2250	39.6490
 1.2260	39.6900
 1.2270	39.7300
 1.2280	39.7660
 1.2290	39.8030
 1.2300	39.8390
 1.2310	39.8740
 1.2320	39.9100
 1.2330	39.9460
 1.2340	39.9800
 1.2350	40.0100
 1.2360	40.0410
 1.2370	40.0710
 1.2380	40.1010
 1.2390	40.1320
 1.2400	40.1640
 1.2410	40.1930
 1.2420	40.2210
 1.2430	40.2490
 1.2440	40.2750
 1.2450	40.3000
 1.2460	40.3260
 1.2470	40.3510
 1.2480	40.3750
 1.2490	40.3990
 1.2500	40.4220
 1.2510	40.4430
 1.2520	40.4650
 1.2530	40.4840
 1.2540	40.5030
 1.2550	40.5230
 1.2560	40.5380
 1.2570	40.5530
 1.2580	40.5680
 1.2590	40.5810
 1.2600	40.5940
 1.2610	40.6040
 1.2620	40.6150
 1.2630	40.6230
 1.2640	40.6280
 1.2650	40.6330
 1.2660	40.6370
 1.2670	40.6400
 1.2680	40.6380
 1.2690	40.6350
 1.2700	40.6300
 1.2710	40.6220
 1.2720	40.6140
 1.2730	40.6050
 1.2740	40.5960
 1.2750	40.5870
 1.2760	40.5740
 1.2770	40.5610
 1.2780	40.5460
 1.2790	40.5280
 1.2800	40.5080
 1.2810	40.4880
 1.2820	40.4640
 1.2830	40.4390
 1.2840	40.4110
 1.2850	40.3820
 1.2860	40.3510
 1.2870	40.3180
 1.2880	40.2840
 1.2890	40.2460
 1.2900	40.2050
 1.2910	40.1620
 1.2920	40.1140
 1.2930	40.0650
 1.2940	40.0120
 1.2950	39.9560
 1.2960	39.9000
 1.2970	39.8410
 1.2980	39.7770
 1.2990	39.7110
 1.3000	39.6420
 1.3010	39.5700
 1.3020	39.4940
 1.3030	39.4160
 1.3040	39.3320
 1.3050	39.2440
 1.3060	39.1520
 1.3070	39.0550
 1.3080	38.9560
 1.3090	38.8540
 1.3100	38.7460
 1.3110	38.6360
 1.3120	38.5200
 1.3130	38.3990
 1.3140	38.2750
 1.3150	38.1490
 1.3160	38.0170
 1.3170	37.8820
 1.3180	37.7420
 1.3190	37.5990
 1.3200	37.4500
 1.3210	37.2950
 1.3220	37.1380
 1.3230	36.9770
 1.3240	36.8110
 1.3250	36.6450
 1.3260	36.4760
 1.3270	36.3020
 1.3280	36.1230
 1.3290	35.9400
 1.3300	35.7560
 1.3310	35.5710
 1.3320	35.3830
 1.3330	35.1960
 1.3340	35.0070
 1.3350	34.8170
 1.3360	34.6270
 1.3370	34.4360
 1.3380	34.2470
 1.3390	34.0590
 1.3400	33.8710
 1.3410	33.6880
 1.3420	33.5070
 1.3430	33.3260
 1.3440	33.1480
 1.3450	32.9700
 1.3460	32.7910
 1.3470	32.6180
 1.3480	32.4470
 1.3490	32.2800
 1.3500	32.1170
 1.3510	31.9540
 1.3520	31.7930
 1.3530	31.6340
 1.3540	31.4740
 1.3550	31.3160
 1.3560	31.1580
 1.3570	30.9960
 1.3580	30.8350
 1.3590	30.6700
 1.3600	30.5000
 1.3610	30.3270
 1.3620	30.1470
 1.3630	29.9610
 1.3640	29.7690
 1.3650	29.5670
 1.3660	29.3590
 1.3670	29.1410
 1.3680	28.9100
 1.3690	28.6670
 1.3700	28.4060
 1.3710	28.1310
 1.3720	27.8390
 1.3730	27.5260
 1.3740	27.1980
 1.3750	26.8480
 1.3760	26.4740
 1.3770	26.0760
 1.3780	25.6500
 1.3790	25.1990
 1.3800	24.7230
 1.3810	24.2180
 1.3820	23.6940
 1.3830	23.1460
 1.3840	22.5790
 1.3850	21.9890
 1.3860	21.3890
 1.3870	20.7650
 1.3880	20.1450
 1.3890	19.5160
 1.3900	18.8810
 1.3910	18.2560
 1.3920	17.6320
 1.3930	17.0100
 1.3940	16.4010
 1.3950	15.7970
 1.3960	15.2090
 1.3970	14.6400
 1.3980	14.0900
 1.3990	13.5670
 1.4000	13.0660
 1.4010	12.5860
 1.4020	12.1320
 1.4030	11.6990
 1.4040	11.2910
 1.4050	10.9080
 1.4060	10.5470
 1.4070	10.2120
 1.4080	 9.8980
 1.4090	 9.6020
 1.4100	 9.3290
 1.4110	 9.0730
 1.4120	 8.8360
 1.4130	 8.6150
 1.4140	 8.4090
 1.4150	 8.2210
 1.4160	 8.0460
 1.4170	 7.8820
 1.4180	 7.7320
 1.4190	 7.5910
 1.4200	 7.4590
 1.4210	 7.3370
 1.4220	 7.2220
 1.4230	 7.1160
 1.4240	 7.0180
 1.4250	 6.9250
 1.4260	 6.8400
 1.4270	 6.7610
 1.4280	 6.6890
 1.4290	 6.6210
 1.4300	 6.5590
 1.4310	 6.5000
 1.4320	 6.4460
 1.4330	 6.3960
 1.4340	 6.3510
 1.4350	 6.3090
 1.4360	 6.2710
 1.4370	 6.2370
 1.4380	 6.2050
 1.4390	 6.1760
 1.4400	 6.1500
 1.4410	 6.1270
 1.4420	 6.1060
 1.4430	 6.0880
 1.4440	 6.0730
 1.4450	 6.0590
 1.4460	 6.0480
 1.4470	 6.0390
 1.4480	 6.0300
 1.4490	 6.0240
 1.4500	 6.0190
 1.4510	 6.0160
 1.4520	 6.0150
 1.4530	 6.0150
 1.4540	 6.0160
 1.4550	 6.0190
 1.4560	 6.0250
 1.4570	 6.0330
 1.4580	 6.0440
 1.4590	 6.0560
 1.4600	 6.0710
 1.4610	 6.0890
 1.4620	 6.1100
 1.4630	 6.1340
 1.4640	 6.1600
 1.4650	 6.1890
 1.4660	 6.2220
 1.4670	 6.2570
 1.4680	 6.2980
 1.4690	 6.3410
 1.4700	 6.3870
 1.4710	 6.4380
 1.4720	 6.4900
 1.4730	 6.5440
 1.4740	 6.6020
 1.4750	 6.6620
 1.4760	 6.7250
 1.4770	 6.7910
