Name: Acer pensylvanicum
Type: Vegetation
Class: Tree
Genus: Acer
Species: pensylvanicum
Sample No.: ACPE-2-69
Owner: UCSB
Wavelength Range: TIR
Origin: USA; Massachusetts; Harvard Forest
Collection Date: 7/8/2013
Description: Samples were collected as part of NSF Macrosystem Biology proposal titled: Collaborative Research: Thermal controls on ecosystem metabolism and function: scaling from leaves to canopies to regions. Samples were collected and overnighted to JPL facilities for processing. The same leaves were processed in the Nicolet and then measured using the ASD.
Measurement: Hemispherical reflectance
First Column: X
Second Column: Y
X Units: Wavelength (micrometers)
Y Units: Reflectance (percentage)
First X Value: 2.501
Last X Value: 15.387
Number of X Values: 1737
Additional Information: vegetation.tree.acer.pensylvanicum.tir.acpe-2-69.ucsb.nicolet.ancillary.txt

 2.5010	12.8300
 2.5030	12.8130
 2.5040	12.7700
 2.5050	12.7960
 2.5060	13.2490
 2.5070	13.3310
 2.5090	12.9710
 2.5100	12.6360
 2.5110	12.5820
 2.5120	12.4900
 2.5140	12.4660
 2.5150	12.4950
 2.5160	12.4900
 2.5170	12.4070
 2.5180	12.5170
 2.5200	12.4810
 2.5210	12.5460
 2.5220	12.3160
 2.5230	12.1810
 2.5250	12.1990
 2.5260	12.2960
 2.5270	12.1840
 2.5280	12.0850
 2.5290	12.0120
 2.5310	12.0850
 2.5320	12.0810
 2.5330	12.1740
 2.5340	12.3410
 2.5360	12.2810
 2.5370	12.0510
 2.5380	11.8910
 2.5390	11.8790
 2.5410	12.0500
 2.5420	12.0380
 2.5430	11.8020
 2.5440	11.8350
 2.5460	12.2600
 2.5470	12.2900
 2.5480	12.1130
 2.5490	11.8830
 2.5510	11.7820
 2.5520	11.8670
 2.5530	11.8350
 2.5540	11.9450
 2.5560	12.3170
 2.5570	12.4120
 2.5580	12.4710
 2.5590	12.3790
 2.5610	12.0320
 2.5620	11.7130
 2.5630	11.6130
 2.5640	11.5900
 2.5660	11.8760
 2.5670	12.1340
 2.5680	12.2260
 2.5700	11.7160
 2.5710	11.5570
 2.5720	11.6610
 2.5730	11.5930
 2.5750	11.7160
 2.5760	11.8350
 2.5770	11.6240
 2.5790	11.8300
 2.5800	11.9760
 2.5810	11.6490
 2.5820	11.5860
 2.5840	11.4570
 2.5850	11.4320
 2.5860	11.5500
 2.5880	11.2170
 2.5890	11.1750
 2.5900	11.2990
 2.5910	11.5590
 2.5930	11.4300
 2.5940	10.7560
 2.5950	 9.9640
 2.5970	10.4880
 2.5980	11.0480
 2.5990	11.1740
 2.6000	10.9660
 2.6020	10.9310
 2.6030	10.7750
 2.6040	10.5390
 2.6060	10.3820
 2.6070	10.5790
 2.6080	10.6340
 2.6100	10.5780
 2.6110	10.4720
 2.6120	10.1700
 2.6140	 9.9090
 2.6150	10.1520
 2.6160	 9.8910
 2.6180	 9.6220
 2.6190	 9.6380
 2.6200	 9.4490
 2.6220	 9.3150
 2.6230	 9.7000
 2.6240	 9.6780
 2.6260	 9.3450
 2.6270	 8.7930
 2.6280	 8.9640
 2.6300	 8.9190
 2.6310	 8.5120
 2.6320	 8.3850
 2.6340	 8.4840
 2.6350	 8.5990
 2.6360	 8.8280
 2.6380	 8.8510
 2.6390	 8.7240
 2.6400	 8.4160
 2.6420	 8.3970
 2.6430	 8.2750
 2.6440	 8.2660
 2.6460	 8.1670
 2.6470	 8.0470
 2.6480	 7.8190
 2.6500	 7.7670
 2.6510	 7.6570
 2.6520	 7.5240
 2.6540	 7.2850
 2.6550	 7.0970
 2.6560	 6.9590
 2.6580	 7.1620
 2.6590	 7.1950
 2.6610	 7.0110
 2.6620	 6.5890
 2.6630	 6.3620
 2.6650	 6.1490
 2.6660	 5.9370
 2.6670	 5.8610
 2.6690	 6.0720
 2.6700	 6.0330
 2.6720	 6.0130
 2.6730	 6.0850
 2.6740	 6.0880
 2.6760	 5.6750
 2.6770	 5.3910
 2.6780	 5.5590
 2.6800	 5.5730
 2.6810	 5.4650
 2.6830	 5.4730
 2.6840	 5.2880
 2.6850	 5.1580
 2.6870	 5.1380
 2.6880	 5.4340
 2.6900	 5.3870
 2.6910	 5.4180
 2.6920	 5.2400
 2.6940	 5.1390
 2.6950	 5.0670
 2.6970	 4.9410
 2.6980	 5.1150
 2.6990	 5.3890
 2.7010	 4.8590
 2.7020	 4.7150
 2.7040	 5.0340
 2.7050	 5.0150
 2.7060	 4.6660
 2.7080	 4.5790
 2.7090	 4.4550
 2.7110	 4.4300
 2.7120	 4.4750
 2.7130	 4.6270
 2.7150	 4.7070
 2.7160	 4.7990
 2.7180	 4.4580
 2.7190	 4.4130
 2.7210	 4.4110
 2.7220	 4.4300
 2.7230	 4.2700
 2.7250	 4.5080
 2.7260	 4.7560
 2.7280	 4.8250
 2.7290	 4.7510
 2.7310	 4.7300
 2.7320	 4.7020
 2.7330	 4.6600
 2.7350	 4.4670
 2.7360	 4.7230
 2.7380	 4.6820
 2.7390	 4.4560
 2.7410	 4.0580
 2.7420	 4.0800
 2.7440	 4.1090
 2.7450	 4.1880
 2.7470	 4.6420
 2.7480	 4.5590
 2.7490	 4.2640
 2.7510	 4.8660
 2.7520	 5.0430
 2.7540	 4.8100
 2.7550	 4.5770
 2.7570	 4.7650
 2.7580	 4.6020
 2.7600	 4.2730
 2.7610	 4.5500
 2.7630	 4.5250
 2.7640	 4.4290
 2.7660	 4.5710
 2.7670	 4.6670
 2.7680	 4.6550
 2.7700	 5.0350
 2.7710	 4.9220
 2.7730	 4.6380
 2.7740	 4.8640
 2.7760	 5.2570
 2.7770	 5.2410
 2.7790	 4.8180
 2.7800	 4.6410
 2.7820	 4.4180
 2.7830	 4.4500
 2.7850	 4.7490
 2.7860	 4.7840
 2.7880	 4.5250
 2.7890	 4.5870
 2.7910	 4.7700
 2.7920	 4.9170
 2.7940	 5.0180
 2.7950	 5.0420
 2.7970	 4.7850
 2.7980	 4.6830
 2.8000	 4.6370
 2.8010	 4.4350
 2.8030	 4.2810
 2.8040	 4.4730
 2.8060	 4.6220
 2.8070	 4.8160
 2.8090	 4.7190
 2.8110	 4.8420
 2.8120	 4.9760
 2.8140	 4.9000
 2.8150	 4.9930
 2.8170	 5.1520
 2.8180	 4.8820
 2.8200	 4.6650
 2.8210	 4.8300
 2.8230	 5.2850
 2.8240	 5.1380
 2.8260	 4.8380
 2.8270	 4.7920
 2.8290	 4.8910
 2.8300	 4.9810
 2.8320	 5.4220
 2.8340	 5.3800
 2.8350	 4.8180
 2.8370	 4.5460
 2.8380	 4.9080
 2.8400	 4.9280
 2.8410	 4.8730
 2.8430	 4.7860
 2.8440	 5.0840
 2.8460	 5.2110
 2.8480	 4.9380
 2.8490	 4.8270
 2.8510	 4.9640
 2.8520	 4.8820
 2.8540	 4.7720
 2.8550	 4.7830
 2.8570	 5.0650
 2.8590	 5.0960
 2.8600	 5.0450
 2.8620	 4.9630
 2.8630	 5.1010
 2.8650	 5.1180
 2.8660	 5.2030
 2.8680	 5.3240
 2.8700	 5.4690
 2.8710	 5.4910
 2.8730	 5.2000
 2.8740	 4.7270
 2.8760	 4.6160
 2.8780	 4.9180
 2.8790	 5.3660
 2.8810	 4.9850
 2.8820	 4.7650
 2.8840	 5.0210
 2.8860	 4.9030
 2.8870	 4.2720
 2.8890	 4.7740
 2.8900	 5.3460
 2.8920	 5.2870
 2.8940	 4.8680
 2.8950	 4.6770
 2.8970	 4.7530
 2.8980	 4.8580
 2.9000	 4.8530
 2.9020	 5.0530
 2.9030	 5.0760
 2.9050	 4.7980
 2.9070	 4.8160
 2.9080	 5.1340
 2.9100	 5.0050
 2.9120	 5.0760
 2.9130	 5.2070
 2.9150	 5.1470
 2.9160	 4.8200
 2.9180	 4.8650
 2.9200	 4.9570
 2.9210	 4.9890
 2.9230	 4.6660
 2.9250	 4.6450
 2.9260	 4.8340
 2.9280	 4.8040
 2.9300	 4.8950
 2.9310	 5.1490
 2.9330	 5.1370
 2.9350	 5.1590
 2.9360	 5.0270
 2.9380	 4.6000
 2.9400	 4.4620
 2.9410	 4.9520
 2.9430	 5.0720
 2.9450	 4.6570
 2.9460	 4.3050
 2.9480	 4.2480
 2.9500	 4.4850
 2.9510	 4.9910
 2.9530	 5.0850
 2.9550	 5.1610
 2.9560	 5.0560
 2.9580	 4.9050
 2.9600	 4.4300
 2.9610	 4.3850
 2.9630	 4.8590
 2.9650	 5.2380
 2.9660	 3.3110
 2.9680	 2.1060
 2.9700	 4.9340
 2.9720	 5.7830
 2.9730	 3.9860
 2.9750	 3.9660
 2.9770	 3.8400
 2.9780	 4.1280
 2.9800	 3.9780
 2.9820	 4.1770
 2.9840	 4.4500
 2.9850	 6.2400
 2.9870	 5.8660
 2.9890	 3.8950
 2.9900	 4.7380
 2.9920	 4.1980
 2.9940	 3.8720
 2.9960	 6.0530
 2.9970	 5.7420
 2.9990	 4.3640
 3.0010	 4.6850
 3.0030	 5.1540
 3.0040	 5.4420
 3.0060	 5.0950
 3.0080	 4.3040
 3.0100	 4.6140
 3.0110	 4.5610
 3.0130	 4.5300
 3.0150	 4.9620
 3.0170	 4.4040
 3.0180	 3.7860
 3.0200	 3.4530
 3.0220	 3.6520
 3.0240	 4.4160
 3.0250	 4.7710
 3.0270	 4.7550
 3.0290	 4.5470
 3.0310	 4.7990
 3.0320	 5.2310
 3.0340	 5.6640
 3.0360	 4.7970
 3.0380	 3.9800
 3.0400	 3.0520
 3.0410	 3.1060
 3.0430	 5.4620
 3.0450	 7.5660
 3.0470	 5.4430
 3.0480	 4.5790
 3.0500	 6.5130
 3.0520	 7.0200
 3.0540	 5.5380
 3.0560	 4.6140
 3.0570	 5.2170
 3.0590	 5.0270
 3.0610	 4.6350
 3.0630	 4.1930
 3.0650	 3.0790
 3.0660	 2.7740
 3.0680	 3.1890
 3.0700	 4.3440
 3.0720	 5.2720
 3.0740	 5.1080
 3.0760	 4.4940
 3.0770	 4.2900
 3.0790	 4.2950
 3.0810	 4.1660
 3.0830	 3.9840
 3.0850	 4.1570
 3.0870	 4.6260
 3.0880	 4.5720
 3.0900	 4.4290
 3.0920	 4.6830
 3.0940	 4.5250
 3.0960	 4.2900
 3.0980	 4.4150
 3.0990	 4.5240
 3.1010	 3.9960
 3.1030	 3.6260
 3.1050	 3.5590
 3.1070	 4.2120
 3.1090	 4.7550
 3.1110	 4.2620
 3.1120	 3.4110
 3.1140	 4.3910
 3.1160	 4.4700
 3.1180	 3.6810
 3.1200	 4.0760
 3.1220	 4.1280
 3.1240	 3.6780
 3.1260	 4.2960
 3.1270	 4.2510
 3.1290	 4.2880
 3.1310	 4.0100
 3.1330	 3.6140
 3.1350	 3.4080
 3.1370	 2.7310
 3.1390	 2.7900
 3.1410	 4.0240
 3.1430	 4.9910
 3.1450	 5.1490
 3.1460	 3.9690
 3.1480	 3.3310
 3.1500	 3.5150
 3.1520	 4.0090
 3.1540	 3.7080
 3.1560	 3.4340
 3.1580	 3.0850
 3.1600	 4.6460
 3.1620	 5.8430
 3.1640	 5.8170
 3.1660	 5.3630
 3.1680	 5.1470
 3.1700	 3.5890
 3.1710	 1.9200
 3.1730	 2.7360
 3.1750	 2.7010
 3.1770	 6.2090
 3.1790	 9.3790
 3.1810	 7.0930
 3.1830	 2.4960
 3.1850	 2.2420
 3.1870	 4.5220
 3.1890	 4.2000
 3.1910	 3.1360
 3.1930	 3.3160
 3.1950	 3.2540
 3.1970	 3.4520
 3.1990	 3.8220
 3.2010	 3.8410
 3.2030	 3.6430
 3.2050	 3.7570
 3.2070	 3.8320
 3.2090	 3.7300
 3.2110	 3.6930
 3.2130	 3.8760
 3.2150	 3.7540
 3.2170	 3.5510
 3.2190	 3.5790
 3.2210	 3.4840
 3.2230	 3.4490
 3.2250	 3.4630
 3.2270	 3.5620
 3.2290	 3.2820
 3.2310	 3.4550
 3.2330	 3.4820
 3.2350	 3.4360
 3.2370	 3.5590
 3.2390	 3.5010
 3.2410	 3.4770
 3.2430	 3.3170
 3.2450	 3.4920
 3.2470	 3.6560
 3.2490	 3.5830
 3.2510	 3.7840
 3.2530	 3.7640
 3.2550	 3.5630
 3.2570	 3.7100
 3.2590	 3.7450
 3.2610	 3.7790
 3.2630	 3.8580
 3.2650	 3.6070
 3.2670	 3.4790
 3.2690	 3.5350
 3.2720	 3.7570
 3.2740	 3.8070
 3.2760	 3.7550
 3.2780	 3.5800
 3.2800	 3.5350
 3.2820	 3.6490
 3.2840	 3.6780
 3.2860	 3.5640
 3.2880	 3.5960
 3.2900	 3.6040
 3.2920	 3.7070
 3.2940	 3.5660
 3.2960	 3.3260
 3.2990	 3.6140
 3.3010	 3.6540
 3.3030	 3.3010
 3.3050	 3.2250
 3.3070	 3.3200
 3.3090	 3.5550
 3.3110	 3.2810
 3.3130	 3.0420
 3.3150	 3.2670
 3.3180	 3.4170
 3.3200	 3.3580
 3.3220	 3.3220
 3.3240	 3.3270
 3.3260	 3.2810
 3.3280	 3.3650
 3.3300	 3.3360
 3.3330	 3.2720
 3.3350	 3.4950
 3.3370	 3.3440
 3.3390	 3.1720
 3.3410	 3.1240
 3.3430	 3.0850
 3.3450	 3.2570
 3.3480	 3.3660
 3.3500	 3.1370
 3.3520	 3.0630
 3.3540	 3.1610
 3.3560	 3.1000
 3.3580	 3.0480
 3.3610	 3.0870
 3.3630	 3.0560
 3.3650	 3.1450
 3.3670	 3.1290
 3.3690	 3.1070
 3.3720	 2.9470
 3.3740	 2.7790
 3.3760	 2.8410
 3.3780	 2.9440
 3.3800	 2.9430
 3.3830	 2.8780
 3.3850	 2.7090
 3.3870	 2.6370
 3.3890	 2.7080
 3.3910	 2.8060
 3.3940	 2.7400
 3.3960	 2.6790
 3.3980	 2.6400
 3.4000	 2.8610
 3.4020	 2.9980
 3.4050	 2.8250
 3.4070	 3.0410
 3.4090	 3.2690
 3.4110	 3.2520
 3.4140	 3.4540
 3.4160	 3.7450
 3.4180	 4.0650
 3.4200	 4.2900
 3.4230	 4.8690
 3.4250	 5.6550
 3.4270	 6.3570
 3.4290	 6.7870
 3.4320	 6.7690
 3.4340	 6.4430
 3.4360	 6.0560
 3.4390	 5.5990
 3.4410	 5.3110
 3.4430	 5.2110
 3.4450	 5.1200
 3.4480	 5.1130
 3.4500	 4.9350
 3.4520	 4.3470
 3.4550	 4.2900
 3.4570	 4.3580
 3.4590	 4.5800
 3.4620	 4.5180
 3.4640	 4.4070
 3.4660	 4.5210
 3.4680	 4.5580
 3.4710	 4.5720
 3.4730	 4.2390
 3.4750	 4.1340
 3.4780	 4.2340
 3.4800	 4.2490
 3.4820	 4.2060
 3.4850	 4.1210
 3.4870	 4.0890
 3.4890	 3.9770
 3.4920	 3.8420
 3.4940	 3.8080
 3.4970	 3.8800
 3.4990	 3.9850
 3.5010	 4.1590
 3.5040	 4.3230
 3.5060	 4.6590
 3.5080	 5.3680
 3.5110	 6.2780
 3.5130	 6.4930
 3.5160	 6.1500
 3.5180	 5.7190
 3.5200	 5.4710
 3.5230	 5.3190
 3.5250	 5.2870
 3.5270	 5.1130
 3.5300	 4.9820
 3.5320	 4.9580
 3.5350	 5.0370
 3.5370	 5.0760
 3.5400	 4.9230
 3.5420	 4.7520
 3.5440	 4.8750
 3.5470	 4.8020
 3.5490	 4.6570
 3.5520	 4.5780
 3.5540	 4.4770
 3.5570	 4.4710
 3.5590	 4.5170
 3.5610	 4.5740
 3.5640	 4.5990
 3.5660	 4.6090
 3.5690	 4.5990
 3.5710	 4.4510
 3.5740	 4.4970
 3.5760	 4.7130
 3.5790	 4.6880
 3.5810	 4.6440
 3.5840	 4.6410
 3.5860	 4.6370
 3.5890	 4.6440
 3.5910	 4.6210
 3.5930	 4.7840
 3.5960	 4.6830
 3.5980	 4.3940
 3.6010	 4.8320
 3.6030	 4.7720
 3.6060	 4.3220
 3.6080	 4.5580
 3.6110	 4.5770
 3.6140	 4.6710
 3.6160	 4.8730
 3.6190	 4.8550
 3.6210	 4.7560
 3.6240	 4.6770
 3.6260	 4.6790
 3.6290	 4.7610
 3.6310	 4.7120
 3.6340	 4.8480
 3.6360	 4.7710
 3.6390	 4.7120
 3.6410	 4.8140
 3.6440	 4.8650
 3.6470	 4.7480
 3.6490	 4.6850
 3.6520	 4.6870
 3.6540	 4.6880
 3.6570	 4.7470
 3.6590	 4.8300
 3.6620	 4.8280
 3.6650	 4.7520
 3.6670	 4.7440
 3.6700	 4.9020
 3.6720	 4.9170
 3.6750	 4.7720
 3.6780	 4.7650
 3.6800	 4.7840
 3.6830	 4.7280
 3.6850	 4.6670
 3.6880	 4.7760
 3.6910	 4.8530
 3.6930	 4.8800
 3.6960	 4.9730
 3.6990	 4.9280
 3.7010	 4.8420
 3.7040	 4.7960
 3.7060	 4.8940
 3.7090	 4.8420
 3.7120	 4.8320
 3.7140	 4.8690
 3.7170	 4.9290
 3.7200	 4.8920
 3.7220	 4.8300
 3.7250	 4.8930
 3.7280	 4.9170
 3.7300	 4.9900
 3.7330	 5.0420
 3.7360	 5.0500
 3.7390	 5.2410
 3.7410	 5.3560
 3.7440	 5.1320
 3.7470	 4.9540
 3.7490	 5.0690
 3.7520	 5.1880
 3.7550	 5.2710
 3.7580	 5.3160
 3.7600	 5.3170
 3.7630	 5.2530
 3.7660	 5.2920
 3.7680	 5.2530
 3.7710	 5.2510
 3.7740	 5.3470
 3.7770	 5.4230
 3.7790	 5.4990
 3.7820	 5.5700
 3.7850	 5.4900
 3.7880	 5.4600
 3.7900	 5.5510
 3.7930	 5.5740
 3.7960	 5.4860
 3.7990	 5.5170
 3.8020	 5.5390
 3.8040	 5.5420
 3.8070	 5.7020
 3.8100	 5.7860
 3.8130	 5.8580
 3.8160	 5.7910
 3.8180	 5.7560
 3.8210	 5.8680
 3.8240	 5.8620
 3.8270	 5.6710
 3.8300	 5.5770
 3.8330	 5.5590
 3.8350	 5.6350
 3.8380	 5.8040
 3.8410	 6.0500
 3.8440	 6.0810
 3.8470	 5.8930
 3.8500	 5.7110
 3.8520	 5.7490
 3.8550	 5.8060
 3.8580	 5.8340
 3.8610	 5.9840
 3.8640	 6.0110
 3.8670	 6.0920
 3.8700	 6.1320
 3.8730	 6.0350
 3.8750	 5.8870
 3.8780	 5.8540
 3.8810	 5.9900
 3.8840	 5.9990
 3.8870	 5.9470
 3.8900	 5.8630
 3.8930	 5.8540
 3.8960	 5.9650
 3.8990	 6.0390
 3.9020	 6.0110
 3.9050	 6.0840
 3.9080	 6.2140
 3.9110	 6.1610
 3.9140	 6.1640
 3.9160	 6.2090
 3.9190	 6.1780
 3.9220	 5.9940
 3.9250	 6.0200
 3.9280	 6.1710
 3.9310	 6.2850
 3.9340	 6.2700
 3.9370	 6.2830
 3.9400	 6.2470
 3.9430	 6.1660
 3.9460	 6.1530
 3.9490	 6.2680
 3.9520	 6.2810
 3.9550	 6.2050
 3.9580	 6.2520
 3.9610	 6.3140
 3.9640	 6.0650
 3.9670	 5.9500
 3.9700	 5.9910
 3.9730	 6.0500
 3.9770	 6.0610
 3.9800	 6.1550
 3.9830	 6.2700
 3.9860	 6.2930
 3.9890	 6.2580
 3.9920	 6.2020
 3.9950	 6.1420
 3.9980	 6.2650
 4.0010	 6.2940
 4.0040	 6.1430
 4.0070	 5.9870
 4.0100	 6.1000
 4.0130	 6.2030
 4.0170	 6.2040
 4.0200	 6.0760
 4.0230	 6.0500
 4.0260	 6.1080
 4.0290	 6.0790
 4.0320	 6.0420
 4.0350	 6.0560
 4.0380	 6.0770
 4.0420	 6.0980
 4.0450	 6.1040
 4.0480	 6.1060
 4.0510	 6.0860
 4.0540	 6.1450
 4.0570	 6.1190
 4.0610	 6.0980
 4.0640	 6.2020
 4.0670	 6.1610
 4.0700	 6.0860
 4.0730	 6.1300
 4.0770	 6.1720
 4.0800	 6.0880
 4.0830	 6.0510
 4.0860	 6.1540
 4.0890	 6.0550
 4.0930	 5.9270
 4.0960	 5.9070
 4.0990	 5.9300
 4.1020	 5.9880
 4.1060	 5.8590
 4.1090	 5.7000
 4.1120	 5.6610
 4.1150	 5.6210
 4.1190	 5.6840
 4.1220	 5.7580
 4.1250	 5.8320
 4.1280	 5.8760
 4.1320	 5.8790
 4.1350	 5.9230
 4.1380	 6.0150
 4.1420	 5.9530
 4.1450	 5.8640
 4.1480	 5.8790
 4.1520	 5.8860
 4.1550	 5.6840
 4.1580	 5.5690
 4.1620	 5.7020
 4.1650	 5.8090
 4.1680	 5.7160
 4.1720	 5.6360
 4.1750	 5.6680
 4.1780	 5.7010
 4.1820	 5.7900
 4.1850	 5.8240
 4.1890	 5.7780
 4.1920	 5.6800
 4.1950	 5.5820
 4.1990	 5.5920
 4.2020	 5.6620
 4.2060	 5.5850
 4.2090	 5.3610
 4.2120	 5.3710
 4.2160	 5.6010
 4.2190	 5.4830
 4.2230	 5.4440
 4.2260	 5.5650
 4.2300	 5.2620
 4.2330	 5.0230
 4.2360	 5.1720
 4.2400	 5.1990
 4.2430	 4.8260
 4.2470	 4.9810
 4.2500	 5.1530
 4.2540	 5.2180
 4.2570	 5.4550
 4.2610	 5.7300
 4.2640	 5.5610
 4.2680	 5.2240
 4.2710	 4.9930
 4.2750	 5.0180
 4.2780	 5.2530
 4.2820	 5.3750
 4.2850	 5.2710
 4.2890	 5.0680
 4.2930	 5.0630
 4.2960	 5.0350
 4.3000	 5.1760
 4.3030	 5.4040
 4.3070	 5.3260
 4.3100	 5.0200
 4.3140	 4.9800
 4.3180	 5.0440
 4.3210	 5.0460
 4.3250	 5.1250
 4.3280	 5.1210
 4.3320	 5.2050
 4.3360	 5.1850
 4.3390	 5.0840
 4.3430	 5.0660
 4.3470	 5.0620
 4.3500	 5.1150
 4.3540	 5.1010
 4.3570	 5.0860
 4.3610	 5.0800
 4.3650	 5.0770
 4.3680	 5.0390
 4.3720	 4.8980
 4.3760	 4.8100
 4.3800	 4.8240
 4.3830	 4.9280
 4.3870	 5.0420
 4.3910	 5.1060
 4.3940	 5.0640
 4.3980	 5.0310
 4.4020	 4.9890
 4.4060	 4.8160
 4.4090	 4.7970
 4.4130	 4.8430
 4.4170	 4.7520
 4.4210	 4.7210
 4.4240	 4.7540
 4.4280	 4.7910
 4.4320	 4.7950
 4.4360	 4.7570
 4.4400	 4.8620
 4.4430	 4.8770
 4.4470	 4.8330
 4.4510	 4.7620
 4.4550	 4.6910
 4.4590	 4.6650
 4.4620	 4.6420
 4.4660	 4.6910
 4.4700	 4.7420
 4.4740	 4.6260
 4.4780	 4.6900
 4.4820	 4.7760
 4.4860	 4.6720
 4.4900	 4.6250
 4.4930	 4.6950
 4.4970	 4.5680
 4.5010	 4.4820
 4.5050	 4.5260
 4.5090	 4.5850
 4.5130	 4.5930
 4.5170	 4.4830
 4.5210	 4.4230
 4.5250	 4.4850
 4.5290	 4.5410
 4.5330	 4.5990
 4.5370	 4.6250
 4.5410	 4.6240
 4.5450	 4.6240
 4.5490	 4.6570
 4.5530	 4.5590
 4.5570	 4.5560
 4.5610	 4.5590
 4.5650	 4.5380
 4.5690	 4.5200
 4.5730	 4.5580
 4.5770	 4.6790
 4.5810	 4.6860
 4.5850	 4.4840
 4.5890	 4.4660
 4.5930	 4.4530
 4.5970	 4.3250
 4.6010	 4.3020
 4.6050	 4.3420
 4.6090	 4.1520
 4.6130	 4.3590
 4.6170	 4.6240
 4.6220	 4.5250
 4.6260	 4.4220
 4.6300	 4.4900
 4.6340	 4.5940
 4.6380	 4.5060
 4.6420	 4.5200
 4.6460	 4.6070
 4.6510	 4.4440
 4.6550	 4.3690
 4.6590	 4.5160
 4.6630	 4.6140
 4.6670	 4.5970
 4.6720	 4.4550
 4.6760	 4.5010
 4.6800	 4.5430
 4.6840	 4.5160
 4.6880	 4.5220
 4.6930	 4.5150
 4.6970	 4.4720
 4.7010	 4.5090
 4.7050	 4.6430
 4.7100	 4.6280
 4.7140	 4.5660
 4.7180	 4.5450
 4.7230	 4.5300
 4.7270	 4.4890
 4.7310	 4.4830
 4.7360	 4.5660
 4.7400	 4.6200
 4.7440	 4.5940
 4.7490	 4.5390
 4.7530	 4.5740
 4.7570	 4.5240
 4.7620	 4.4930
 4.7660	 4.4460
 4.7700	 4.4660
 4.7750	 4.6240
 4.7790	 4.7570
 4.7840	 4.4790
 4.7880	 4.3800
 4.7920	 4.7070
 4.7970	 4.8210
 4.8010	 4.8120
 4.8060	 4.6380
 4.8100	 4.6040
 4.8150	 4.4690
 4.8190	 4.4620
 4.8240	 4.5960
 4.8280	 4.6110
 4.8330	 4.4700
 4.8370	 4.5560
 4.8420	 4.4930
 4.8460	 4.4190
 4.8510	 4.4460
 4.8550	 4.5780
 4.8600	 4.6110
 4.8640	 4.6000
 4.8690	 4.6310
 4.8730	 4.6470
 4.8780	 4.6050
 4.8830	 4.5790
 4.8870	 4.5420
 4.8920	 4.5620
 4.8960	 4.5490
 4.9010	 4.6720
 4.9060	 4.7270
 4.9100	 4.7040
 4.9150	 4.6900
 4.9200	 4.7500
 4.9240	 4.7070
 4.9290	 4.7360
 4.9340	 4.7310
 4.9380	 4.7050
 4.9430	 4.6290
 4.9480	 4.6590
 4.9530	 4.7130
 4.9570	 4.8960
 4.9620	 4.8850
 4.9670	 4.8670
 4.9720	 4.9650
 4.9760	 4.9750
 4.9810	 4.9340
 4.9860	 4.9660
 4.9910	 4.9220
 4.9960	 4.8710
 5.0000	 4.8200
 5.0050	 4.8040
 5.0100	 4.7660
 5.0150	 4.8200
 5.0200	 4.8930
 5.0250	 4.9910
 5.0290	 4.9070
 5.0340	 4.9360
 5.0390	 5.0280
 5.0440	 5.0500
 5.0490	 5.0680
 5.0540	 5.1310
 5.0590	 5.0400
 5.0640	 5.0170
 5.0690	 5.0110
 5.0740	 5.1320
 5.0790	 5.0890
 5.0840	 5.0600
 5.0890	 5.0780
 5.0940	 5.1850
 5.0990	 5.1950
 5.1040	 5.2200
 5.1090	 5.1090
 5.1140	 5.1120
 5.1190	 5.2100
 5.1240	 5.2130
 5.1290	 5.1300
 5.1340	 5.2270
 5.1390	 5.2790
 5.1440	 5.2120
 5.1490	 5.2140
 5.1540	 5.3680
 5.1600	 5.4510
 5.1650	 5.4270
 5.1700	 5.3190
 5.1750	 5.3750
 5.1800	 5.4070
 5.1850	 5.3560
 5.1910	 5.3220
 5.1960	 5.3700
 5.2010	 5.3880
 5.2060	 5.3810
 5.2110	 5.2920
 5.2170	 5.3080
 5.2220	 5.3320
 5.2270	 5.3750
 5.2320	 5.3960
 5.2380	 5.4270
 5.2430	 5.3710
 5.2480	 5.4320
 5.2540	 5.4930
 5.2590	 5.5410
 5.2640	 5.5840
 5.2700	 5.6380
 5.2750	 5.5730
 5.2800	 5.4540
 5.2860	 5.5090
 5.2910	 5.5280
 5.2970	 5.4460
 5.3020	 5.4940
 5.3070	 5.4810
 5.3130	 5.4550
 5.3180	 5.5080
 5.3240	 5.6030
 5.3290	 5.5060
 5.3350	 5.4600
 5.3400	 5.4710
 5.3460	 5.4800
 5.3510	 5.4280
 5.3570	 5.4210
 5.3620	 5.3800
 5.3680	 5.4410
 5.3730	 5.4690
 5.3790	 5.5290
 5.3850	 5.5450
 5.3900	 5.5200
 5.3960	 5.4570
 5.4010	 5.5200
 5.4070	 5.4350
 5.4130	 5.4050
 5.4180	 5.3300
 5.4240	 5.2090
 5.4300	 5.2640
 5.4350	 5.2990
 5.4410	 5.1790
 5.4470	 5.1370
 5.4530	 5.2320
