Name: Juniperus chinensis
Type: vegetation
Class: Shrub
Genus: Juniperus
Species: chinensis
Sample No.: JPL097
Owner: JPL
Wavelength Range: VSWIR
Origin: 34.12553; - 118.11185; WGS84
Collection Date: 2/2/2016
Description: Samples were collected at the Huntington Garden in San Marino California as part of a JPL Subcontract studying HyTES imagery. Samples were taken to JPL and processed within 48 hours of collection. The same leaves were processed in the Nicolet and then measured using the ASD.
Measurement: Bidirectional reflectance
First Column: X
Second Column: Y
X Units: Wavelength (micrometer)
Y Units: Reflectance (percentage)
First X Value: 0.35
Last X Value: 2.5
Number of X Values: 2151
Additional Information: 

 0.3500	 4.8010
 0.3510	 3.6860
 0.3520	 3.2350
 0.3530	 3.3510
 0.3540	 3.2640
 0.3550	 3.7700
 0.3560	 4.4410
 0.3570	 4.4090
 0.3580	 2.9030
 0.3590	 2.4160
 0.3600	 2.7260
 0.3610	 3.3550
 0.3620	 4.0330
 0.3630	 3.5860
 0.3640	 3.0620
 0.3650	 3.5590
 0.3660	 4.1200
 0.3670	 3.8190
 0.3680	 3.2960
 0.3690	 4.0520
 0.3700	 3.8440
 0.3710	 3.0470
 0.3720	 2.4690
 0.3730	 2.9630
 0.3740	 3.1330
 0.3750	 2.9590
 0.3760	 2.8640
 0.3770	 3.0200
 0.3780	 3.2230
 0.3790	 3.2930
 0.3800	 3.1390
 0.3810	 3.4390
 0.3820	 3.7120
 0.3830	 3.5870
 0.3840	 3.2590
 0.3850	 3.2820
 0.3860	 3.4890
 0.3870	 3.4730
 0.3880	 3.3350
 0.3890	 3.2260
 0.3900	 3.2420
 0.3910	 3.4140
 0.3920	 3.4940
 0.3930	 3.3070
 0.3940	 2.9710
 0.3950	 3.3550
 0.3960	 3.6490
 0.3970	 3.4760
 0.3980	 2.8860
 0.3990	 3.4190
 0.4000	 3.4230
 0.4010	 2.7090
 0.4020	 3.2860
 0.4030	 3.4650
 0.4040	 3.3180
 0.4050	 3.2630
 0.4060	 3.4190
 0.4070	 3.1490
 0.4080	 2.9090
 0.4090	 3.6590
 0.4100	 3.6010
 0.4110	 3.3510
 0.4120	 3.3860
 0.4130	 3.3420
 0.4140	 3.3440
 0.4150	 3.3810
 0.4160	 3.4110
 0.4170	 3.4770
 0.4180	 3.4950
 0.4190	 3.4400
 0.4200	 3.3590
 0.4210	 3.5210
 0.4220	 3.6740
 0.4230	 3.6310
 0.4240	 3.6050
 0.4250	 3.6290
 0.4260	 3.6460
 0.4270	 3.5840
 0.4280	 3.5810
 0.4290	 3.6330
 0.4300	 3.7210
 0.4310	 3.8220
 0.4320	 3.8170
 0.4330	 3.7600
 0.4340	 3.7380
 0.4350	 3.7860
 0.4360	 3.7820
 0.4370	 3.7310
 0.4380	 3.7350
 0.4390	 3.8440
 0.4400	 3.9410
 0.4410	 3.9340
 0.4420	 3.8230
 0.4430	 3.8510
 0.4440	 3.9580
 0.4450	 3.9830
 0.4460	 3.9660
 0.4470	 3.9450
 0.4480	 3.9580
 0.4490	 4.0320
 0.4500	 4.0980
 0.4510	 4.1060
 0.4520	 4.0590
 0.4530	 4.1020
 0.4540	 4.1850
 0.4550	 4.2460
 0.4560	 4.2280
 0.4570	 4.1750
 0.4580	 4.2270
 0.4590	 4.3800
 0.4600	 4.3480
 0.4610	 4.2900
 0.4620	 4.2810
 0.4630	 4.3370
 0.4640	 4.3430
 0.4650	 4.3220
 0.4660	 4.3090
 0.4670	 4.3400
 0.4680	 4.3870
 0.4690	 4.4230
 0.4700	 4.4180
 0.4710	 4.3140
 0.4720	 4.2860
 0.4730	 4.3310
 0.4740	 4.3510
 0.4750	 4.3810
 0.4760	 4.4100
 0.4770	 4.4280
 0.4780	 4.4280
 0.4790	 4.4530
 0.4800	 4.4770
 0.4810	 4.4620
 0.4820	 4.4230
 0.4830	 4.4520
 0.4840	 4.5270
 0.4850	 4.5250
 0.4860	 4.5120
 0.4870	 4.5130
 0.4880	 4.5350
 0.4890	 4.5710
 0.4900	 4.5240
 0.4910	 4.4500
 0.4920	 4.4660
 0.4930	 4.5440
 0.4940	 4.6110
 0.4950	 4.6350
 0.4960	 4.6460
 0.4970	 4.6820
 0.4980	 4.7120
 0.4990	 4.7070
 0.5000	 4.7260
 0.5010	 4.7820
 0.5020	 4.8600
 0.5030	 4.9260
 0.5040	 4.9710
 0.5050	 5.0060
 0.5060	 5.0510
 0.5070	 5.1410
 0.5080	 5.2350
 0.5090	 5.3270
 0.5100	 5.4210
 0.5110	 5.5000
 0.5120	 5.5870
 0.5130	 5.7000
 0.5140	 5.8410
 0.5150	 5.9550
 0.5160	 6.0640
 0.5170	 6.2000
 0.5180	 6.3460
 0.5190	 6.4970
 0.5200	 6.6480
 0.5210	 6.8040
 0.5220	 6.9810
 0.5230	 7.1430
 0.5240	 7.2720
 0.5250	 7.4090
 0.5260	 7.5500
 0.5270	 7.6910
 0.5280	 7.8260
 0.5290	 7.9670
 0.5300	 8.0820
 0.5310	 8.1660
 0.5320	 8.2570
 0.5330	 8.3500
 0.5340	 8.4270
 0.5350	 8.4760
 0.5360	 8.5240
 0.5370	 8.5950
 0.5380	 8.6830
 0.5390	 8.7640
 0.5400	 8.8090
 0.5410	 8.8700
 0.5420	 8.9700
 0.5430	 9.0710
 0.5440	 9.1340
 0.5450	 9.1480
 0.5460	 9.1220
 0.5470	 9.1070
 0.5480	 9.1050
 0.5490	 9.1100
 0.5500	 9.1130
 0.5510	 9.1070
 0.5520	 9.0950
 0.5530	 9.0860
 0.5540	 9.0900
 0.5550	 9.0680
 0.5560	 9.0230
 0.5570	 8.9860
 0.5580	 8.9190
 0.5590	 8.8430
 0.5600	 8.7730
 0.5610	 8.7080
 0.5620	 8.6500
 0.5630	 8.5780
 0.5640	 8.4760
 0.5650	 8.3990
 0.5660	 8.3130
 0.5670	 8.2120
 0.5680	 8.1300
 0.5690	 8.0190
 0.5700	 7.9100
 0.5710	 7.8280
 0.5720	 7.7010
 0.5730	 7.6050
 0.5740	 7.5340
 0.5750	 7.4350
 0.5760	 7.3440
 0.5770	 7.2600
 0.5780	 7.1890
 0.5790	 7.1600
 0.5800	 7.1020
 0.5810	 7.0220
 0.5820	 6.9590
 0.5830	 6.9180
 0.5840	 6.8740
 0.5850	 6.8260
 0.5860	 6.8040
 0.5870	 6.7570
 0.5880	 6.6980
 0.5890	 6.6510
 0.5900	 6.6100
 0.5910	 6.5830
 0.5920	 6.5680
 0.5930	 6.5490
 0.5940	 6.5150
 0.5950	 6.4950
 0.5960	 6.4920
 0.5970	 6.4630
 0.5980	 6.4070
 0.5990	 6.3700
 0.6000	 6.3870
 0.6010	 6.3740
 0.6020	 6.3290
 0.6030	 6.2810
 0.6040	 6.2740
 0.6050	 6.2330
 0.6060	 6.1680
 0.6070	 6.1040
 0.6080	 6.0330
 0.6090	 6.0130
 0.6100	 6.0280
 0.6110	 6.0260
 0.6120	 5.9720
 0.6130	 5.8750
 0.6140	 5.7670
 0.6150	 5.7120
 0.6160	 5.6680
 0.6170	 5.6080
 0.6180	 5.5280
 0.6190	 5.5080
 0.6200	 5.4840
 0.6210	 5.4440
 0.6220	 5.4190
 0.6230	 5.3970
 0.6240	 5.3770
 0.6250	 5.3580
 0.6260	 5.3430
 0.6270	 5.3310
 0.6280	 5.3110
 0.6290	 5.2770
 0.6300	 5.2710
 0.6310	 5.2840
 0.6320	 5.2910
 0.6330	 5.2600
 0.6340	 5.2480
 0.6350	 5.2380
 0.6360	 5.2090
 0.6370	 5.1890
 0.6380	 5.1450
 0.6390	 5.0930
 0.6400	 5.0670
 0.6410	 5.0110
 0.6420	 4.9630
 0.6430	 4.9330
 0.6440	 4.8710
 0.6450	 4.8390
 0.6460	 4.8040
 0.6470	 4.7280
 0.6480	 4.6760
 0.6490	 4.6300
 0.6500	 4.5880
 0.6510	 4.5660
 0.6520	 4.5300
 0.6530	 4.4950
 0.6540	 4.4730
 0.6550	 4.4630
 0.6560	 4.4210
 0.6570	 4.3610
 0.6580	 4.3150
 0.6590	 4.2590
 0.6600	 4.2030
 0.6610	 4.1590
 0.6620	 4.1350
 0.6630	 4.0750
 0.6640	 4.0140
 0.6650	 3.9820
 0.6660	 3.9430
 0.6670	 3.8940
 0.6680	 3.8570
 0.6690	 3.8590
 0.6700	 3.8590
 0.6710	 3.8290
 0.6720	 3.7880
 0.6730	 3.8120
 0.6740	 3.8260
 0.6750	 3.8300
 0.6760	 3.8350
 0.6770	 3.8210
 0.6780	 3.8170
 0.6790	 3.8340
 0.6800	 3.8630
 0.6810	 3.9030
 0.6820	 3.9420
 0.6830	 3.9800
 0.6840	 4.0350
 0.6850	 4.0790
 0.6860	 4.1550
 0.6870	 4.3010
 0.6880	 4.4350
 0.6890	 4.5720
 0.6900	 4.7330
 0.6910	 4.9450
 0.6920	 5.2110
 0.6930	 5.4890
 0.6940	 5.7790
 0.6950	 6.1800
 0.6960	 6.6020
 0.6970	 7.0320
 0.6980	 7.4850
 0.6990	 8.0030
 0.7000	 8.5390
 0.7010	 9.0860
 0.7020	 9.6730
 0.7030	10.2690
 0.7040	10.8710
 0.7050	11.4850
 0.7060	12.1290
 0.7070	12.8010
 0.7080	13.4820
 0.7090	14.1610
 0.7100	14.8530
 0.7110	15.5760
 0.7120	16.3240
 0.7130	17.0700
 0.7140	17.8310
 0.7150	18.6090
 0.7160	19.4040
 0.7170	20.2340
 0.7180	21.0660
 0.7190	21.8930
 0.7200	22.7180
 0.7210	23.5610
 0.7220	24.4050
 0.7230	25.2400
 0.7240	26.0620
 0.7250	26.8800
 0.7260	27.6930
 0.7270	28.4980
 0.7280	29.2870
 0.7290	30.0450
 0.7300	30.7710
 0.7310	31.4710
 0.7320	32.1540
 0.7330	32.8030
 0.7340	33.4170
 0.7350	34.0200
 0.7360	34.6030
 0.7370	35.1360
 0.7380	35.6170
 0.7390	36.1070
 0.7400	36.5660
 0.7410	36.9800
 0.7420	37.3540
 0.7430	37.7160
 0.7440	38.0540
 0.7450	38.3690
 0.7460	38.6730
 0.7470	38.9430
 0.7480	39.1830
 0.7490	39.4010
 0.7500	39.6120
 0.7510	39.8140
 0.7520	39.9900
 0.7530	40.1290
 0.7540	40.2630
 0.7550	40.3890
 0.7560	40.5030
 0.7570	40.6040
 0.7580	40.7260
 0.7590	40.8230
 0.7600	40.8790
 0.7610	40.9520
 0.7620	41.0110
 0.7630	41.0570
 0.7640	41.1010
 0.7650	41.1630
 0.7660	41.2120
 0.7670	41.2410
 0.7680	41.2640
 0.7690	41.3020
 0.7700	41.3340
 0.7710	41.3490
 0.7720	41.3560
 0.7730	41.3750
 0.7740	41.3970
 0.7750	41.4150
 0.7760	41.4600
 0.7770	41.4810
 0.7780	41.4750
 0.7790	41.4720
 0.7800	41.5070
 0.7810	41.5420
 0.7820	41.5540
 0.7830	41.5420
 0.7840	41.5520
 0.7850	41.5620
 0.7860	41.5610
 0.7870	41.5790
 0.7880	41.5940
 0.7890	41.6030
 0.7900	41.6070
 0.7910	41.6160
 0.7920	41.6350
 0.7930	41.6520
 0.7940	41.6500
 0.7950	41.6680
 0.7960	41.6790
 0.7970	41.6720
 0.7980	41.6590
 0.7990	41.6660
 0.8000	41.6800
 0.8010	41.6880
 0.8020	41.7020
 0.8030	41.7080
 0.8040	41.7070
 0.8050	41.7040
 0.8060	41.7020
 0.8070	41.7110
 0.8080	41.7220
 0.8090	41.7140
 0.8100	41.7220
 0.8110	41.7290
 0.8120	41.7340
 0.8130	41.7670
 0.8140	41.7590
 0.8150	41.7370
 0.8160	41.7370
 0.8170	41.7380
 0.8180	41.7540
 0.8190	41.7720
 0.8200	41.7680
 0.8210	41.7670
 0.8220	41.7660
 0.8230	41.7660
 0.8240	41.7690
 0.8250	41.7730
 0.8260	41.7740
 0.8270	41.7740
 0.8280	41.7750
 0.8290	41.7810
 0.8300	41.7940
 0.8310	41.8100
 0.8320	41.8060
 0.8330	41.7970
 0.8340	41.7880
 0.8350	41.7800
 0.8360	41.7890
 0.8370	41.8240
 0.8380	41.8610
 0.8390	41.8580
 0.8400	41.8350
 0.8410	41.8230
 0.8420	41.8370
 0.8430	41.8610
 0.8440	41.8780
 0.8450	41.8880
 0.8460	41.8940
 0.8470	41.8850
 0.8480	41.8940
 0.8490	41.9170
 0.8500	41.9380
 0.8510	41.9470
 0.8520	41.9560
 0.8530	41.9690
 0.8540	41.9780
 0.8550	41.9880
 0.8560	41.9910
 0.8570	41.9910
 0.8580	42.0050
 0.8590	42.0130
 0.8600	42.0200
 0.8610	42.0320
 0.8620	42.0470
 0.8630	42.0410
 0.8640	42.0340
 0.8650	42.0460
 0.8660	42.0550
 0.8670	42.0500
 0.8680	42.0460
 0.8690	42.0620
 0.8700	42.0700
 0.8710	42.0630
 0.8720	42.0490
 0.8730	42.0500
 0.8740	42.0630
 0.8750	42.0740
 0.8760	42.0760
 0.8770	42.0680
 0.8780	42.0560
 0.8790	42.0570
 0.8800	42.0790
 0.8810	42.1060
 0.8820	42.0620
 0.8830	42.0280
 0.8840	42.0620
 0.8850	42.1020
 0.8860	42.0930
 0.8870	42.0670
 0.8880	42.0640
 0.8890	42.0430
 0.8900	42.0380
 0.8910	42.0440
 0.8920	42.0380
 0.8930	42.0140
 0.8940	42.0160
 0.8950	42.0180
 0.8960	41.9700
 0.8970	41.9610
 0.8980	41.9660
 0.8990	41.9690
 0.9000	41.9720
 0.9010	41.9460
 0.9020	41.9250
 0.9030	41.9300
 0.9040	41.9500
 0.9050	41.9450
 0.9060	41.9140
 0.9070	41.8710
 0.9080	41.8500
 0.9090	41.8520
 0.9100	41.8450
 0.9110	41.8110
 0.9120	41.7890
 0.9130	41.8020
 0.9140	41.8130
 0.9150	41.7760
 0.9160	41.6960
 0.9170	41.6940
 0.9180	41.7250
 0.9190	41.6970
 0.9200	41.6630
 0.9210	41.6980
 0.9220	41.7240
 0.9230	41.6240
 0.9240	41.5870
 0.9250	41.6000
 0.9260	41.5980
 0.9270	41.5110
 0.9280	41.5020
 0.9290	41.5050
 0.9300	41.4790
 0.9310	41.4290
 0.9320	41.3990
 0.9330	41.3480
 0.9340	41.2860
 0.9350	41.2910
 0.9360	41.2880
 0.9370	41.2230
 0.9380	41.1310
 0.9390	41.1440
 0.9400	41.1080
 0.9410	40.9960
 0.9420	40.8710
 0.9430	40.8950
 0.9440	40.8370
 0.9450	40.7590
 0.9460	40.7160
 0.9470	40.5980
 0.9480	40.5130
 0.9490	40.4560
 0.9500	40.3820
 0.9510	40.2200
 0.9520	40.1030
 0.9530	39.9920
 0.9540	39.8420
 0.9550	39.7540
 0.9560	39.6360
 0.9570	39.5190
 0.9580	39.4420
 0.9590	39.3510
 0.9600	39.2440
 0.9610	39.1940
 0.9620	39.2220
 0.9630	39.0620
 0.9640	38.9380
 0.9650	38.9160
 0.9660	38.9540
 0.9670	38.8920
 0.9680	38.8450
 0.9690	38.7960
 0.9700	38.7070
 0.9710	38.7060
 0.9720	38.7180
 0.9730	38.7370
 0.9740	38.7680
 0.9750	38.7010
 0.9760	38.6210
 0.9770	38.6000
 0.9780	38.6480
 0.9790	38.5910
 0.9800	38.5700
 0.9810	38.5990
 0.9820	38.6200
 0.9830	38.6320
 0.9840	38.6340
 0.9850	38.6060
 0.9860	38.5580
 0.9870	38.6360
 0.9880	38.7360
 0.9890	38.7950
 0.9900	38.8040
 0.9910	38.8210
 0.9920	38.7800
 0.9930	38.7730
 0.9940	38.8900
 0.9950	38.8570
 0.9960	38.8980
 0.9970	39.0210
 0.9980	39.1070
 0.9990	39.0450
 1.0000	38.9770
 1.0010	39.3840
 1.0020	39.4080
 1.0030	39.4300
 1.0040	39.4930
 1.0050	39.5770
 1.0060	39.6450
 1.0070	39.7220
 1.0080	39.7770
 1.0090	39.8130
 1.0100	39.8480
 1.0110	39.8520
 1.0120	39.8960
 1.0130	39.9730
 1.0140	40.0140
 1.0150	40.0620
 1.0160	40.1150
 1.0170	40.0950
 1.0180	40.1080
 1.0190	40.1710
 1.0200	40.1950
 1.0210	40.2300
 1.0220	40.3080
 1.0230	40.3560
 1.0240	40.3750
 1.0250	40.4310
 1.0260	40.5120
 1.0270	40.5640
 1.0280	40.6260
 1.0290	40.6710
 1.0300	40.6830
 1.0310	40.7050
 1.0320	40.7340
 1.0330	40.7480
 1.0340	40.7450
 1.0350	40.7920
 1.0360	40.8360
 1.0370	40.8880
 1.0380	40.9370
 1.0390	40.9910
 1.0400	41.0470
 1.0410	41.1090
 1.0420	41.1600
 1.0430	41.2340
 1.0440	41.2650
 1.0450	41.2460
 1.0460	41.2580
 1.0470	41.2520
 1.0480	41.2740
 1.0490	41.3550
 1.0500	41.3910
 1.0510	41.4210
 1.0520	41.4300
 1.0530	41.4320
 1.0540	41.3960
 1.0550	41.3960
 1.0560	41.3980
 1.0570	41.4190
 1.0580	41.4620
 1.0590	41.4940
 1.0600	41.5550
 1.0610	41.5780
 1.0620	41.5660
 1.0630	41.5790
 1.0640	41.5800
 1.0650	41.5950
 1.0660	41.6540
 1.0670	41.6760
 1.0680	41.6850
 1.0690	41.6760
 1.0700	41.6850
 1.0710	41.6820
 1.0720	41.6860
 1.0730	41.7040
 1.0740	41.7150
 1.0750	41.7270
 1.0760	41.7220
 1.0770	41.7180
 1.0780	41.7050
 1.0790	41.6640
 1.0800	41.6390
 1.0810	41.6050
 1.0820	41.5960
 1.0830	41.6030
 1.0840	41.6120
 1.0850	41.6430
 1.0860	41.6820
 1.0870	41.6850
 1.0880	41.6750
 1.0890	41.6540
 1.0900	41.5990
 1.0910	41.5760
 1.0920	41.5590
 1.0930	41.5440
 1.0940	41.5540
 1.0950	41.5350
 1.0960	41.4910
 1.0970	41.4680
 1.0980	41.4500
 1.0990	41.4190
 1.1000	41.3850
 1.1010	41.3640
 1.1020	41.3370
 1.1030	41.3090
 1.1040	41.3070
 1.1050	41.2970
 1.1060	41.2760
 1.1070	41.2470
 1.1080	41.2090
 1.1090	41.1580
 1.1100	41.1130
 1.1110	41.0610
 1.1120	41.0140
 1.1130	40.9690
 1.1140	40.9320
 1.1150	40.9040
 1.1160	40.8610
 1.1170	40.8230
 1.1180	40.7740
 1.1190	40.7110
 1.1200	40.6450
 1.1210	40.5850
 1.1220	40.5120
 1.1230	40.4290
 1.1240	40.3430
 1.1250	40.2490
 1.1260	40.1450
 1.1270	40.0370
 1.1280	39.9310
 1.1290	39.8040
 1.1300	39.6720
 1.1310	39.5160
 1.1320	39.3470
 1.1330	39.1530
 1.1340	38.9240
 1.1350	38.7020
 1.1360	38.4670
 1.1370	38.2260
 1.1380	37.9960
 1.1390	37.7660
 1.1400	37.5130
 1.1410	37.2630
 1.1420	37.0030
 1.1430	36.7420
 1.1440	36.4880
 1.1450	36.2320
 1.1460	35.9890
 1.1470	35.7430
 1.1480	35.5210
 1.1490	35.3130
 1.1500	35.1170
 1.1510	34.9460
 1.1520	34.7620
 1.1530	34.5680
 1.1540	34.4010
 1.1550	34.2380
 1.1560	34.0810
 1.1570	33.9690
 1.1580	33.8550
 1.1590	33.7280
 1.1600	33.6270
 1.1610	33.5270
 1.1620	33.4240
 1.1630	33.3460
 1.1640	33.2640
 1.1650	33.1890
 1.1660	33.1180
 1.1670	33.0530
 1.1680	32.9970
 1.1690	32.9360
 1.1700	32.8750
 1.1710	32.8200
 1.1720	32.7700
 1.1730	32.7150
 1.1740	32.6660
 1.1750	32.6060
 1.1760	32.5400
 1.1770	32.4740
 1.1780	32.4150
 1.1790	32.3640
 1.1800	32.3040
 1.1810	32.2490
 1.1820	32.1890
 1.1830	32.1290
 1.1840	32.0790
 1.1850	32.0210
 1.1860	31.9700
 1.1870	31.9240
 1.1880	31.8750
 1.1890	31.8250
 1.1900	31.7830
 1.1910	31.7380
 1.1920	31.7050
 1.1930	31.6860
 1.1940	31.6650
 1.1950	31.6450
 1.1960	31.6400
 1.1970	31.6290
 1.1980	31.6140
 1.1990	31.6150
 1.2000	31.6040
 1.2010	31.5990
 1.2020	31.6040
 1.2030	31.6040
 1.2040	31.6210
 1.2050	31.6380
 1.2060	31.6570
 1.2070	31.6880
 1.2080	31.7110
 1.2090	31.7360
 1.2100	31.7780
 1.2110	31.8250
 1.2120	31.8830
 1.2130	31.9390
 1.2140	32.0050
 1.2150	32.0630
 1.2160	32.1140
 1.2170	32.1700
 1.2180	32.2250
 1.2190	32.2890
 1.2200	32.3630
 1.2210	32.4410
 1.2220	32.5260
 1.2230	32.6130
 1.2240	32.6910
 1.2250	32.7630
 1.2260	32.8410
 1.2270	32.9170
 1.2280	32.9940
 1.2290	33.0770
 1.2300	33.1400
 1.2310	33.1980
 1.2320	33.2660
 1.2330	33.3170
 1.2340	33.3770
 1.2350	33.4580
 1.2360	33.5120
 1.2370	33.5490
 1.2380	33.5940
 1.2390	33.6330
 1.2400	33.6620
 1.2410	33.7160
 1.2420	33.7750
 1.2430	33.8250
 1.2440	33.8730
 1.2450	33.9130
 1.2460	33.9500
 1.2470	33.9780
 1.2480	34.0150
 1.2490	34.0530
 1.2500	34.0760
 1.2510	34.1150
 1.2520	34.1570
 1.2530	34.1840
 1.2540	34.2190
 1.2550	34.2470
 1.2560	34.2620
 1.2570	34.2880
 1.2580	34.3100
 1.2590	34.3260
 1.2600	34.3380
 1.2610	34.3520
 1.2620	34.3600
 1.2630	34.3690
 1.2640	34.3840
 1.2650	34.4060
 1.2660	34.4290
 1.2670	34.4440
 1.2680	34.4600
 1.2690	34.4500
 1.2700	34.4310
 1.2710	34.4210
 1.2720	34.4090
 1.2730	34.4040
 1.2740	34.4090
 1.2750	34.3990
 1.2760	34.3820
 1.2770	34.3680
 1.2780	34.3400
 1.2790	34.3200
 1.2800	34.3120
 1.2810	34.3040
 1.2820	34.2950
 1.2830	34.2730
 1.2840	34.2420
 1.2850	34.2000
 1.2860	34.1560
 1.2870	34.1170
 1.2880	34.0820
 1.2890	34.0470
 1.2900	34.0150
 1.2910	33.9760
 1.2920	33.9340
 1.2930	33.8880
 1.2940	33.8290
 1.2950	33.7700
 1.2960	33.7070
 1.2970	33.6400
 1.2980	33.5770
 1.2990	33.5130
 1.3000	33.4380
 1.3010	33.3610
 1.3020	33.2720
 1.3030	33.1690
 1.3040	33.0830
 1.3050	32.9960
 1.3060	32.8980
 1.3070	32.8020
 1.3080	32.6920
 1.3090	32.5740
 1.3100	32.4640
 1.3110	32.3560
 1.3120	32.2430
 1.3130	32.1160
 1.3140	31.9850
 1.3150	31.8430
 1.3160	31.7070
 1.3170	31.5680
 1.3180	31.4270
 1.3190	31.2830
 1.3200	31.1240
 1.3210	30.9670
 1.3220	30.8200
 1.3230	30.6660
 1.3240	30.5120
 1.3250	30.3470
 1.3260	30.1650
 1.3270	29.9860
 1.3280	29.8120
 1.3290	29.6340
 1.3300	29.4550
 1.3310	29.2800
 1.3320	29.0940
 1.3330	28.9090
 1.3340	28.7370
 1.3350	28.5650
 1.3360	28.4030
 1.3370	28.2420
 1.3380	28.0730
 1.3390	27.9010
 1.3400	27.7220
 1.3410	27.5440
 1.3420	27.3750
 1.3430	27.2110
 1.3440	27.0490
 1.3450	26.8900
 1.3460	26.7320
 1.3470	26.5760
 1.3480	26.4190
 1.3490	26.2700
 1.3500	26.1250
 1.3510	25.9830
 1.3520	25.8420
 1.3530	25.7000
 1.3540	25.5550
 1.3550	25.4100
 1.3560	25.2710
 1.3570	25.1340
 1.3580	24.9990
 1.3590	24.8650
 1.3600	24.7270
 1.3610	24.5780
 1.3620	24.4210
 1.3630	24.2590
 1.3640	24.0930
 1.3650	23.9260
 1.3660	23.7600
 1.3670	23.5870
 1.3680	23.4070
 1.3690	23.2130
 1.3700	23.0030
 1.3710	22.7790
 1.3720	22.5390
 1.3730	22.2930
 1.3740	22.0390
 1.3750	21.7710
 1.3760	21.4950
 1.3770	21.2020
 1.3780	20.8890
 1.3790	20.5620
 1.3800	20.2130
 1.3810	19.8480
 1.3820	19.4770
 1.3830	19.0950
 1.3840	18.7050
 1.3850	18.3060
 1.3860	17.8990
 1.3870	17.4760
 1.3880	17.0600
 1.3890	16.6390
 1.3900	16.2200
 1.3910	15.8090
 1.3920	15.3980
 1.3930	14.9880
 1.3940	14.5900
 1.3950	14.1990
 1.3960	13.8180
 1.3970	13.4540
 1.3980	13.0980
 1.3990	12.7570
 1.4000	12.4330
 1.4010	12.1200
 1.4020	11.8200
 1.4030	11.5310
 1.4040	11.2520
 1.4050	10.9880
 1.4060	10.7410
 1.4070	10.5130
 1.4080	10.2970
 1.4090	10.0890
 1.4100	 9.8960
 1.4110	 9.7110
 1.4120	 9.5350
 1.4130	 9.3710
 1.4140	 9.2150
 1.4150	 9.0760
 1.4160	 8.9500
 1.4170	 8.8370
 1.4180	 8.7310
 1.4190	 8.6270
 1.4200	 8.5260
 1.4210	 8.4310
 1.4220	 8.3480
 1.4230	 8.2680
 1.4240	 8.1920
 1.4250	 8.1220
 1.4260	 8.0530
 1.4270	 7.9900
 1.4280	 7.9350
 1.4290	 7.8840
 1.4300	 7.8380
 1.4310	 7.7950
 1.4320	 7.7610
 1.4330	 7.7250
 1.4340	 7.6870
 1.4350	 7.6530
 1.4360	 7.6220
 1.4370	 7.5900
 1.4380	 7.5640
 1.4390	 7.5480
 1.4400	 7.5320
 1.4410	 7.5160
 1.4420	 7.5020
 1.4430	 7.4870
 1.4440	 7.4720
 1.4450	 7.4620
 1.4460	 7.4550
 1.4470	 7.4490
 1.4480	 7.4460
 1.4490	 7.4460
 1.4500	 7.4440
 1.4510	 7.4390
 1.4520	 7.4350
 1.4530	 7.4320
 1.4540	 7.4310
 1.4550	 7.4350
 1.4560	 7.4450
 1.4570	 7.4520
 1.4580	 7.4610
 1.4590	 7.4730
 1.4600	 7.4830
 1.4610	 7.5000
 1.4620	 7.5180
 1.4630	 7.5420
 1.4640	 7.5720
 1.4650	 7.6020
 1.4660	 7.6350
 1.4670	 7.6640
 1.4680	 7.6900
 1.4690	 7.7200
 1.4700	 7.7520
 1.4710	 7.7920
 1.4720	 7.8400
 1.4730	 7.8830
 1.4740	 7.9320
 1.4750	 7.9840
 1.4760	 8.0290
 1.4770	 8.0810
 1.4780	 8.1350
 1.4790	 8.1870
 1.4800	 8.2420
 1.4810	 8.3000
