Name: Pinus ponderosa 3
Type: vegetation
Class: Tree
Genus: Pinus
Species: ponderosa
Sample No.: VH261
Owner: UCSB
Wavelength Range: VSWIR
Origin: 37.043; -119.3048; WGS84
Collection Date: 11/2/2013
Description: Samples were collected as part of the HyspIRI Airborne Campaign. 48 individual plants were sampled in three times in 2013 - spring  summer  and fall. The name of the sample includes a 1  2  or 3 which references a different individual of the species. Samples were taken to JPL and processed within 48 hours of collection. The same leaves were processed in the Nicolet and then measured using the ASD.
Measurement: Bidirectional reflectance
First Column: X
Second Column: Y
X Units: Wavelength (micrometers)
Y Units: Reflectance (percentage)
First X Value: 0.35
Last X Value: 2.5
Number of X Values: 2151
Additional Information: vegetation.tree.pinus.ponderosa.vswir.vh261.ucsb.asd.ancillary.txt

 0.3500	 5.7990
 0.3510	 5.6630
 0.3520	 5.5200
 0.3530	 5.5170
 0.3540	 5.6630
 0.3550	 5.5350
 0.3560	 5.5670
 0.3570	 5.6180
 0.3580	 5.3450
 0.3590	 5.4060
 0.3600	 5.5170
 0.3610	 5.4900
 0.3620	 5.3970
 0.3630	 5.3500
 0.3640	 5.2860
 0.3650	 5.1740
 0.3660	 5.2930
 0.3670	 5.3510
 0.3680	 5.3040
 0.3690	 5.2860
 0.3700	 5.2310
 0.3710	 5.2820
 0.3720	 5.4340
 0.3730	 5.3770
 0.3740	 5.3100
 0.3750	 5.2660
 0.3760	 5.2410
 0.3770	 5.2950
 0.3780	 5.2970
 0.3790	 5.2360
 0.3800	 5.2010
 0.3810	 5.1850
 0.3820	 5.1740
 0.3830	 5.1690
 0.3840	 5.2200
 0.3850	 5.1830
 0.3860	 5.1400
 0.3870	 5.2080
 0.3880	 5.2100
 0.3890	 5.2000
 0.3900	 5.1960
 0.3910	 5.1690
 0.3920	 5.1860
 0.3930	 5.2020
 0.3940	 5.1800
 0.3950	 5.1430
 0.3960	 5.1350
 0.3970	 5.1500
 0.3980	 5.1650
 0.3990	 5.1930
 0.4000	 5.1880
 0.4010	 5.1530
 0.4020	 5.1670
 0.4030	 5.1560
 0.4040	 5.1590
 0.4050	 5.2130
 0.4060	 5.2700
 0.4070	 5.2700
 0.4080	 5.2410
 0.4090	 5.2590
 0.4100	 5.2820
 0.4110	 5.3010
 0.4120	 5.3200
 0.4130	 5.3590
 0.4140	 5.3800
 0.4150	 5.4070
 0.4160	 5.4680
 0.4170	 5.5200
 0.4180	 5.5770
 0.4190	 5.6310
 0.4200	 5.6470
 0.4210	 5.6880
 0.4220	 5.7430
 0.4230	 5.7980
 0.4240	 5.8580
 0.4250	 5.9050
 0.4260	 5.9520
 0.4270	 6.0200
 0.4280	 6.0720
 0.4290	 6.1200
 0.4300	 6.1730
 0.4310	 6.2170
 0.4320	 6.2710
 0.4330	 6.3130
 0.4340	 6.3330
 0.4350	 6.3810
 0.4360	 6.4230
 0.4370	 6.4640
 0.4380	 6.5350
 0.4390	 6.5900
 0.4400	 6.6210
 0.4410	 6.6420
 0.4420	 6.6840
 0.4430	 6.7290
 0.4440	 6.7680
 0.4450	 6.7960
 0.4460	 6.8280
 0.4470	 6.8540
 0.4480	 6.8790
 0.4490	 6.9270
 0.4500	 6.9650
 0.4510	 6.9880
 0.4520	 7.0030
 0.4530	 7.0260
 0.4540	 7.0550
 0.4550	 7.0860
 0.4560	 7.1110
 0.4570	 7.1330
 0.4580	 7.1510
 0.4590	 7.1640
 0.4600	 7.1730
 0.4610	 7.1850
 0.4620	 7.2010
 0.4630	 7.2170
 0.4640	 7.2230
 0.4650	 7.2400
 0.4660	 7.2620
 0.4670	 7.2600
 0.4680	 7.2700
 0.4690	 7.2800
 0.4700	 7.2800
 0.4710	 7.3010
 0.4720	 7.3100
 0.4730	 7.3080
 0.4740	 7.3170
 0.4750	 7.3220
 0.4760	 7.3300
 0.4770	 7.3400
 0.4780	 7.3400
 0.4790	 7.3400
 0.4800	 7.3440
 0.4810	 7.3520
 0.4820	 7.3470
 0.4830	 7.3490
 0.4840	 7.3600
 0.4850	 7.3690
 0.4860	 7.3720
 0.4870	 7.3780
 0.4880	 7.3900
 0.4890	 7.4040
 0.4900	 7.4150
 0.4910	 7.4290
 0.4920	 7.4590
 0.4930	 7.4810
 0.4940	 7.5100
 0.4950	 7.5470
 0.4960	 7.5810
 0.4970	 7.6210
 0.4980	 7.6650
 0.4990	 7.7090
 0.5000	 7.7620
 0.5010	 7.8230
 0.5020	 7.8900
 0.5030	 7.9610
 0.5040	 8.0430
 0.5050	 8.1330
 0.5060	 8.2320
 0.5070	 8.3410
 0.5080	 8.4570
 0.5090	 8.5850
 0.5100	 8.7290
 0.5110	 8.8790
 0.5120	 9.0430
 0.5130	 9.2220
 0.5140	 9.4110
 0.5150	 9.6120
 0.5160	 9.8260
 0.5170	10.0540
 0.5180	10.2920
 0.5190	10.5430
 0.5200	10.8030
 0.5210	11.0640
 0.5220	11.3260
 0.5230	11.5890
 0.5240	11.8480
 0.5250	12.1010
 0.5260	12.3450
 0.5270	12.5840
 0.5280	12.8200
 0.5290	13.0390
 0.5300	13.2430
 0.5310	13.4330
 0.5320	13.6150
 0.5330	13.7810
 0.5340	13.9320
 0.5350	14.0690
 0.5360	14.2010
 0.5370	14.3210
 0.5380	14.4290
 0.5390	14.5260
 0.5400	14.6090
 0.5410	14.6890
 0.5420	14.7700
 0.5430	14.8380
 0.5440	14.9050
 0.5450	14.9760
 0.5460	15.0530
 0.5470	15.1430
 0.5480	15.2300
 0.5490	15.2990
 0.5500	15.3510
 0.5510	15.3960
 0.5520	15.4270
 0.5530	15.4390
 0.5540	15.4460
 0.5550	15.4330
 0.5560	15.3960
 0.5570	15.3410
 0.5580	15.2660
 0.5590	15.1780
 0.5600	15.0820
 0.5610	14.9790
 0.5620	14.8700
 0.5630	14.7540
 0.5640	14.6310
 0.5650	14.4970
 0.5660	14.3590
 0.5670	14.2160
 0.5680	14.0610
 0.5690	13.9020
 0.5700	13.7370
 0.5710	13.5690
 0.5720	13.4070
 0.5730	13.2540
 0.5740	13.1080
 0.5750	12.9680
 0.5760	12.8330
 0.5770	12.7060
 0.5780	12.5890
 0.5790	12.4740
 0.5800	12.3710
 0.5810	12.2780
 0.5820	12.1890
 0.5830	12.1020
 0.5840	12.0140
 0.5850	11.9300
 0.5860	11.8590
 0.5870	11.7980
 0.5880	11.7440
 0.5890	11.6960
 0.5900	11.6550
 0.5910	11.6130
 0.5920	11.5720
 0.5930	11.5380
 0.5940	11.5010
 0.5950	11.4670
 0.5960	11.4410
 0.5970	11.4160
 0.5980	11.3840
 0.5990	11.3490
 0.6000	11.3150
 0.6010	11.2710
 0.6020	11.2230
 0.6030	11.1710
 0.6040	11.1130
 0.6050	11.0470
 0.6060	10.9730
 0.6070	10.8940
 0.6080	10.8140
 0.6090	10.7230
 0.6100	10.6190
 0.6110	10.5070
 0.6120	10.4260
 0.6130	10.3510
 0.6140	10.2670
 0.6150	10.1870
 0.6160	10.1090
 0.6170	10.0390
 0.6180	 9.9770
 0.6190	 9.9130
 0.6200	 9.8560
 0.6210	 9.8090
 0.6220	 9.7690
 0.6230	 9.7320
 0.6240	 9.7020
 0.6250	 9.6790
 0.6260	 9.6600
 0.6270	 9.6460
 0.6280	 9.6360
 0.6290	 9.6260
 0.6300	 9.6190
 0.6310	 9.6140
 0.6320	 9.6100
 0.6330	 9.6040
 0.6340	 9.5850
 0.6350	 9.5560
 0.6360	 9.5230
 0.6370	 9.4790
 0.6380	 9.4250
 0.6390	 9.3610
 0.6400	 9.2910
 0.6410	 9.2160
 0.6420	 9.1390
 0.6430	 9.0600
 0.6440	 8.9680
 0.6450	 8.8810
 0.6460	 8.7960
 0.6470	 8.7080
 0.6480	 8.6280
 0.6490	 8.5530
 0.6500	 8.4850
 0.6510	 8.4290
 0.6520	 8.3780
 0.6530	 8.3220
 0.6540	 8.2600
 0.6550	 8.2010
 0.6560	 8.1390
 0.6570	 8.0680
 0.6580	 7.9890
 0.6590	 7.9110
 0.6600	 7.8280
 0.6610	 7.7410
 0.6620	 7.6580
 0.6630	 7.5790
 0.6640	 7.5060
 0.6650	 7.4390
 0.6660	 7.3810
 0.6670	 7.3270
 0.6680	 7.2810
 0.6690	 7.2470
 0.6700	 7.2170
 0.6710	 7.1950
 0.6720	 7.1800
 0.6730	 7.1680
 0.6740	 7.1610
 0.6750	 7.1600
 0.6760	 7.1640
 0.6770	 7.1660
 0.6780	 7.1800
 0.6790	 7.2030
 0.6800	 7.2270
 0.6810	 7.2640
 0.6820	 7.3140
 0.6830	 7.3780
 0.6840	 7.4570
 0.6850	 7.5630
 0.6860	 7.6980
 0.6870	 7.8690
 0.6880	 8.0820
 0.6890	 8.3460
 0.6900	 8.6690
 0.6910	 9.0550
 0.6920	 9.5050
 0.6930	10.0200
 0.6940	10.6070
 0.6950	11.2670
 0.6960	11.9900
 0.6970	12.7730
 0.6980	13.6120
 0.6990	14.4980
 0.7000	15.4330
 0.7010	16.4100
 0.7020	17.4160
 0.7030	18.4440
 0.7040	19.4920
 0.7050	20.5580
 0.7060	21.6340
 0.7070	22.7190
 0.7080	23.8120
 0.7090	24.9160
 0.7100	26.0290
 0.7110	27.1450
 0.7120	28.2630
 0.7130	29.3860
 0.7140	30.5110
 0.7150	31.6370
 0.7160	32.7600
 0.7170	33.8850
 0.7180	35.0110
 0.7190	36.1300
 0.7200	37.2360
 0.7210	38.3280
 0.7220	39.4070
 0.7230	40.4710
 0.7240	41.5090
 0.7250	42.5240
 0.7260	43.5120
 0.7270	44.4720
 0.7280	45.3970
 0.7290	46.2910
 0.7300	47.1470
 0.7310	47.9570
 0.7320	48.7400
 0.7330	49.4880
 0.7340	50.1980
 0.7350	50.8710
 0.7360	51.5130
 0.7370	52.1150
 0.7380	52.6760
 0.7390	53.2120
 0.7400	53.7230
 0.7410	54.2050
 0.7420	54.6470
 0.7430	55.0570
 0.7440	55.4460
 0.7450	55.8130
 0.7460	56.1440
 0.7470	56.4490
 0.7480	56.7340
 0.7490	57.0020
 0.7500	57.2560
 0.7510	57.4730
 0.7520	57.6570
 0.7530	57.8230
 0.7540	58.0020
 0.7550	58.1610
 0.7560	58.2900
 0.7570	58.4040
 0.7580	58.5200
 0.7590	58.6300
 0.7600	58.7270
 0.7610	58.8030
 0.7620	58.8770
 0.7630	58.9460
 0.7640	59.0010
 0.7650	59.0550
 0.7660	59.1060
 0.7670	59.1500
 0.7680	59.1820
 0.7690	59.2170
 0.7700	59.2450
 0.7710	59.2670
 0.7720	59.2960
 0.7730	59.3140
 0.7740	59.3320
 0.7750	59.3620
 0.7760	59.3810
 0.7770	59.3960
 0.7780	59.4110
 0.7790	59.4250
 0.7800	59.4340
 0.7810	59.4450
 0.7820	59.4600
 0.7830	59.4750
 0.7840	59.4750
 0.7850	59.4850
 0.7860	59.5110
 0.7870	59.5130
 0.7880	59.5180
 0.7890	59.5270
 0.7900	59.5350
 0.7910	59.5530
 0.7920	59.5600
 0.7930	59.5570
 0.7940	59.5650
 0.7950	59.5810
 0.7960	59.5960
 0.7970	59.6050
 0.7980	59.6050
 0.7990	59.6130
 0.8000	59.6170
 0.8010	59.6150
 0.8020	59.6360
 0.8030	59.6480
 0.8040	59.6510
 0.8050	59.6610
 0.8060	59.6710
 0.8070	59.6830
 0.8080	59.6920
 0.8090	59.6900
 0.8100	59.6910
 0.8110	59.7030
 0.8120	59.7220
 0.8130	59.7300
 0.8140	59.7440
 0.8150	59.7590
 0.8160	59.7640
 0.8170	59.7690
 0.8180	59.7810
 0.8190	59.7940
 0.8200	59.7990
 0.8210	59.8010
 0.8220	59.8120
 0.8230	59.8280
 0.8240	59.8340
 0.8250	59.8470
 0.8260	59.8600
 0.8270	59.8630
 0.8280	59.8540
 0.8290	59.8500
 0.8300	59.8490
 0.8310	59.8480
 0.8320	59.8520
 0.8330	59.8640
 0.8340	59.8750
 0.8350	59.8810
 0.8360	59.8890
 0.8370	59.8990
 0.8380	59.9100
 0.8390	59.9250
 0.8400	59.9410
 0.8410	59.9560
 0.8420	59.9660
 0.8430	59.9660
 0.8440	59.9870
 0.8450	60.0220
 0.8460	60.0520
 0.8470	60.0450
 0.8480	60.0540
 0.8490	60.0740
 0.8500	60.0880
 0.8510	60.0930
 0.8520	60.1080
 0.8530	60.1290
 0.8540	60.1430
 0.8550	60.1460
 0.8560	60.1440
 0.8570	60.1500
 0.8580	60.1810
 0.8590	60.1940
 0.8600	60.1980
 0.8610	60.2060
 0.8620	60.2220
 0.8630	60.2160
 0.8640	60.2070
 0.8650	60.2150
 0.8660	60.2260
 0.8670	60.2320
 0.8680	60.2300
 0.8690	60.2240
 0.8700	60.2360
 0.8710	60.2380
 0.8720	60.2330
 0.8730	60.2400
 0.8740	60.2520
 0.8750	60.2520
 0.8760	60.2420
 0.8770	60.2440
 0.8780	60.2470
 0.8790	60.2420
 0.8800	60.2270
 0.8810	60.2120
 0.8820	60.1980
 0.8830	60.1940
 0.8840	60.2030
 0.8850	60.2030
 0.8860	60.1810
 0.8870	60.1520
 0.8880	60.1370
 0.8890	60.1360
 0.8900	60.1280
 0.8910	60.1130
 0.8920	60.1040
 0.8930	60.0950
 0.8940	60.0770
 0.8950	60.0560
 0.8960	60.0430
 0.8970	60.0320
 0.8980	60.0170
 0.8990	59.9970
 0.9000	59.9780
 0.9010	59.9500
 0.9020	59.9300
 0.9030	59.9180
 0.9040	59.8860
 0.9050	59.8830
 0.9060	59.8750
 0.9070	59.8450
 0.9080	59.8280
 0.9090	59.8100
 0.9100	59.7870
 0.9110	59.7570
 0.9120	59.7170
 0.9130	59.6900
 0.9140	59.6750
 0.9150	59.6610
 0.9160	59.6240
 0.9170	59.5880
 0.9180	59.5600
 0.9190	59.5320
 0.9200	59.5010
 0.9210	59.4640
 0.9220	59.4280
 0.9230	59.4010
 0.9240	59.3560
 0.9250	59.2900
 0.9260	59.2310
 0.9270	59.2140
 0.9280	59.1520
 0.9290	59.0880
 0.9300	59.0350
 0.9310	58.9690
 0.9320	58.9080
 0.9330	58.8440
 0.9340	58.7680
 0.9350	58.6770
 0.9360	58.5990
 0.9370	58.5290
 0.9380	58.4550
 0.9390	58.3680
 0.9400	58.2660
 0.9410	58.1680
 0.9420	58.0810
 0.9430	57.9840
 0.9440	57.8640
 0.9450	57.7410
 0.9460	57.6300
 0.9470	57.5170
 0.9480	57.3790
 0.9490	57.2250
 0.9500	57.0690
 0.9510	56.8980
 0.9520	56.7020
 0.9530	56.5100
 0.9540	56.3450
 0.9550	56.1630
 0.9560	55.9800
 0.9570	55.7980
 0.9580	55.6270
 0.9590	55.4960
 0.9600	55.3580
 0.9610	55.2280
 0.9620	55.1340
 0.9630	55.0380
 0.9640	54.9630
 0.9650	54.8970
 0.9660	54.8230
 0.9670	54.7660
 0.9680	54.7220
 0.9690	54.6930
 0.9700	54.6730
 0.9710	54.6190
 0.9720	54.5710
 0.9730	54.5450
 0.9740	54.5400
 0.9750	54.5240
 0.9760	54.5080
 0.9770	54.5010
 0.9780	54.5110
 0.9790	54.5210
 0.9800	54.5270
 0.9810	54.5330
 0.9820	54.5450
 0.9830	54.5610
 0.9840	54.5870
 0.9850	54.6300
 0.9860	54.6860
 0.9870	54.7220
 0.9880	54.7450
 0.9890	54.7770
 0.9900	54.8390
 0.9910	54.9150
 0.9920	54.9680
 0.9930	55.0100
 0.9940	55.0740
 0.9950	55.1340
 0.9960	55.2020
 0.9970	55.2670
 0.9980	55.3160
 0.9990	55.3730
 1.0000	55.4040
 1.0010	55.3420
 1.0020	55.3830
 1.0030	55.4560
 1.0040	55.5300
 1.0050	55.6050
 1.0060	55.6750
 1.0070	55.7450
 1.0080	55.8180
 1.0090	55.8930
 1.0100	55.9690
 1.0110	56.0490
 1.0120	56.1250
 1.0130	56.1960
 1.0140	56.2710
 1.0150	56.3460
 1.0160	56.4210
 1.0170	56.4950
 1.0180	56.5690
 1.0190	56.6390
 1.0200	56.7130
 1.0210	56.7890
 1.0220	56.8620
 1.0230	56.9330
 1.0240	57.0010
 1.0250	57.0670
 1.0260	57.1270
 1.0270	57.1940
 1.0280	57.2670
 1.0290	57.3320
 1.0300	57.3980
 1.0310	57.4600
 1.0320	57.5130
 1.0330	57.5670
 1.0340	57.6230
 1.0350	57.6740
 1.0360	57.7280
 1.0370	57.7800
 1.0380	57.8280
 1.0390	57.8750
 1.0400	57.9230
 1.0410	57.9670
 1.0420	58.0120
 1.0430	58.0590
 1.0440	58.1020
 1.0450	58.1440
 1.0460	58.1830
 1.0470	58.2190
 1.0480	58.2560
 1.0490	58.2930
 1.0500	58.3270
 1.0510	58.3600
 1.0520	58.3930
 1.0530	58.4250
 1.0540	58.4540
 1.0550	58.4830
 1.0560	58.5150
 1.0570	58.5410
 1.0580	58.5610
 1.0590	58.5850
 1.0600	58.6110
 1.0610	58.6310
 1.0620	58.6500
 1.0630	58.6680
 1.0640	58.6800
 1.0650	58.6940
 1.0660	58.7110
 1.0670	58.7240
 1.0680	58.7360
 1.0690	58.7450
 1.0700	58.7540
 1.0710	58.7610
 1.0720	58.7690
 1.0730	58.7780
 1.0740	58.7830
 1.0750	58.7860
 1.0760	58.7870
 1.0770	58.7840
 1.0780	58.7800
 1.0790	58.7760
 1.0800	58.7700
 1.0810	58.7640
 1.0820	58.7540
 1.0830	58.7410
 1.0840	58.7280
 1.0850	58.7120
 1.0860	58.6950
 1.0870	58.6760
 1.0880	58.6580
 1.0890	58.6350
 1.0900	58.6070
 1.0910	58.5810
 1.0920	58.5550
 1.0930	58.5260
 1.0940	58.4970
 1.0950	58.4660
 1.0960	58.4330
 1.0970	58.3990
 1.0980	58.3630
 1.0990	58.3270
 1.1000	58.2910
 1.1010	58.2520
 1.1020	58.2130
 1.1030	58.1720
 1.1040	58.1230
 1.1050	58.0770
 1.1060	58.0290
 1.1070	57.9790
 1.1080	57.9300
 1.1090	57.8860
 1.1100	57.8300
 1.1110	57.7690
 1.1120	57.7100
 1.1130	57.6490
 1.1140	57.5840
 1.1150	57.5230
 1.1160	57.4510
 1.1170	57.3730
 1.1180	57.2870
 1.1190	57.1940
 1.1200	57.0970
 1.1210	56.9950
 1.1220	56.8770
 1.1230	56.7540
 1.1240	56.6210
 1.1250	56.4720
 1.1260	56.3110
 1.1270	56.1350
 1.1280	55.9470
 1.1290	55.7410
 1.1300	55.5240
 1.1310	55.2840
 1.1320	55.0270
 1.1330	54.7540
 1.1340	54.4610
 1.1350	54.1550
 1.1360	53.8350
 1.1370	53.4990
 1.1380	53.1540
 1.1390	52.7990
 1.1400	52.4310
 1.1410	52.0640
 1.1420	51.6950
 1.1430	51.3240
 1.1440	50.9610
 1.1450	50.5980
 1.1460	50.2500
 1.1470	49.9030
 1.1480	49.5770
 1.1490	49.2620
 1.1500	48.9680
 1.1510	48.6860
 1.1520	48.4260
 1.1530	48.1830
 1.1540	47.9610
 1.1550	47.7580
 1.1560	47.5740
 1.1570	47.4090
 1.1580	47.2590
 1.1590	47.1280
 1.1600	47.0120
 1.1610	46.9070
 1.1620	46.8150
 1.1630	46.7330
 1.1640	46.6550
 1.1650	46.5870
 1.1660	46.5310
 1.1670	46.4760
 1.1680	46.4290
 1.1690	46.3830
 1.1700	46.3430
 1.1710	46.3010
 1.1720	46.2620
 1.1730	46.2220
 1.1740	46.1830
 1.1750	46.1430
 1.1760	46.1020
 1.1770	46.0600
 1.1780	46.0160
 1.1790	45.9720
 1.1800	45.9270
 1.1810	45.8840
 1.1820	45.8390
 1.1830	45.7920
 1.1840	45.7460
 1.1850	45.7010
 1.1860	45.6560
 1.1870	45.6130
 1.1880	45.5720
 1.1890	45.5300
 1.1900	45.4950
 1.1910	45.4630
 1.1920	45.4360
 1.1930	45.4160
 1.1940	45.3970
 1.1950	45.3800
 1.1960	45.3680
 1.1970	45.3590
 1.1980	45.3560
 1.1990	45.3590
 1.2000	45.3650
 1.2010	45.3720
 1.2020	45.3830
 1.2030	45.3970
 1.2040	45.4160
 1.2050	45.4410
 1.2060	45.4680
 1.2070	45.4990
 1.2080	45.5330
 1.2090	45.5680
 1.2100	45.6090
 1.2110	45.6520
 1.2120	45.6980
 1.2130	45.7480
 1.2140	45.8040
 1.2150	45.8610
 1.2160	45.9220
 1.2170	45.9850
 1.2180	46.0500
 1.2190	46.1160
 1.2200	46.1840
 1.2210	46.2560
 1.2220	46.3300
 1.2230	46.4010
 1.2240	46.4750
 1.2250	46.5490
 1.2260	46.6220
 1.2270	46.6960
 1.2280	46.7690
 1.2290	46.8410
 1.2300	46.9100
 1.2310	46.9770
 1.2320	47.0430
 1.2330	47.1050
 1.2340	47.1670
 1.2350	47.2270
 1.2360	47.2860
 1.2370	47.3440
 1.2380	47.4000
 1.2390	47.4530
 1.2400	47.5050
 1.2410	47.5560
 1.2420	47.6030
 1.2430	47.6510
 1.2440	47.6980
 1.2450	47.7410
 1.2460	47.7840
 1.2470	47.8260
 1.2480	47.8670
 1.2490	47.9100
 1.2500	47.9530
 1.2510	47.9910
 1.2520	48.0260
 1.2530	48.0580
 1.2540	48.0900
 1.2550	48.1210
 1.2560	48.1500
 1.2570	48.1770
 1.2580	48.2010
 1.2590	48.2240
 1.2600	48.2470
 1.2610	48.2640
 1.2620	48.2790
 1.2630	48.2910
 1.2640	48.3000
 1.2650	48.3070
 1.2660	48.3140
 1.2670	48.3170
 1.2680	48.3150
 1.2690	48.3100
 1.2700	48.3040
 1.2710	48.2960
 1.2720	48.2860
 1.2730	48.2740
 1.2740	48.2590
 1.2750	48.2400
 1.2760	48.2200
 1.2770	48.1960
 1.2780	48.1690
 1.2790	48.1420
 1.2800	48.1110
 1.2810	48.0760
 1.2820	48.0380
 1.2830	47.9950
 1.2840	47.9510
 1.2850	47.9060
 1.2860	47.8580
 1.2870	47.8050
 1.2880	47.7490
 1.2890	47.6880
 1.2900	47.6250
 1.2910	47.5570
 1.2920	47.4890
 1.2930	47.4150
 1.2940	47.3350
 1.2950	47.2500
 1.2960	47.1600
 1.2970	47.0660
 1.2980	46.9680
 1.2990	46.8670
 1.3000	46.7640
 1.3010	46.6560
 1.3020	46.5410
 1.3030	46.4200
 1.3040	46.2920
 1.3050	46.1580
 1.3060	46.0180
 1.3070	45.8710
 1.3080	45.7180
 1.3090	45.5570
 1.3100	45.3890
 1.3110	45.2180
 1.3120	45.0410
 1.3130	44.8590
 1.3140	44.6700
 1.3150	44.4740
 1.3160	44.2730
 1.3170	44.0670
 1.3180	43.8550
 1.3190	43.6390
 1.3200	43.4160
 1.3210	43.1830
 1.3220	42.9480
 1.3230	42.7080
 1.3240	42.4630
 1.3250	42.2180
 1.3260	41.9680
 1.3270	41.7130
 1.3280	41.4560
 1.3290	41.1910
 1.3300	40.9260
 1.3310	40.6600
 1.3320	40.3900
 1.3330	40.1250
 1.3340	39.8630
 1.3350	39.5970
 1.3360	39.3360
 1.3370	39.0740
 1.3380	38.8120
 1.3390	38.5540
 1.3400	38.2980
 1.3410	38.0480
 1.3420	37.8030
 1.3430	37.5610
 1.3440	37.3220
 1.3450	37.0880
 1.3460	36.8560
 1.3470	36.6310
 1.3480	36.4100
 1.3490	36.1950
 1.3500	35.9860
 1.3510	35.7780
 1.3520	35.5730
 1.3530	35.3710
 1.3540	35.1690
 1.3550	34.9700
 1.3560	34.7700
 1.3570	34.5700
 1.3580	34.3720
 1.3590	34.1710
 1.3600	33.9650
 1.3610	33.7560
 1.3620	33.5380
 1.3630	33.3130
 1.3640	33.0830
 1.3650	32.8420
 1.3660	32.5960
 1.3670	32.3370
 1.3680	32.0660
 1.3690	31.7850
 1.3700	31.4880
 1.3710	31.1780
 1.3720	30.8550
 1.3730	30.5110
 1.3740	30.1540
 1.3750	29.7790
 1.3760	29.3830
 1.3770	28.9690
 1.3780	28.5290
 1.3790	28.0680
 1.3800	27.5870
 1.3810	27.0820
 1.3820	26.5660
 1.3830	26.0340
 1.3840	25.4910
 1.3850	24.9310
 1.3860	24.3690
 1.3870	23.7910
 1.3880	23.2220
 1.3890	22.6510
 1.3900	22.0800
 1.3910	21.5220
 1.3920	20.9690
 1.3930	20.4210
 1.3940	19.8870
 1.3950	19.3600
 1.3960	18.8480
 1.3970	18.3560
 1.3980	17.8820
 1.3990	17.4320
 1.4000	17.0020
 1.4010	16.5900
 1.4020	16.2000
 1.4030	15.8290
 1.4040	15.4800
 1.4050	15.1510
 1.4060	14.8410
 1.4070	14.5550
 1.4080	14.2870
 1.4090	14.0360
 1.4100	13.8020
 1.4110	13.5830
 1.4120	13.3790
 1.4130	13.1910
 1.4140	13.0160
 1.4150	12.8560
 1.4160	12.7080
 1.4170	12.5700
 1.4180	12.4430
 1.4190	12.3260
 1.4200	12.2170
 1.4210	12.1180
 1.4220	12.0260
 1.4230	11.9430
 1.4240	11.8660
 1.4250	11.7940
 1.4260	11.7290
 1.4270	11.6680
 1.4280	11.6140
 1.4290	11.5640
 1.4300	11.5190
 1.4310	11.4780
 1.4320	11.4420
 1.4330	11.4090
 1.4340	11.3810
 1.4350	11.3560
 1.4360	11.3340
 1.4370	11.3150
 1.4380	11.3000
 1.4390	11.2870
 1.4400	11.2760
 1.4410	11.2680
 1.4420	11.2620
 1.4430	11.2560
 1.4440	11.2550
 1.4450	11.2550
 1.4460	11.2560
 1.4470	11.2590
 1.4480	11.2620
 1.4490	11.2660
 1.4500	11.2700
 1.4510	11.2760
 1.4520	11.2840
 1.4530	11.2930
 1.4540	11.3030
 1.4550	11.3160
 1.4560	11.3300
 1.4570	11.3460
 1.4580	11.3630
 1.4590	11.3800
 1.4600	11.4000
 1.4610	11.4220
 1.4620	11.4490
 1.4630	11.4790
 1.4640	11.5110
 1.4650	11.5460
 1.4660	11.5840
 1.4670	11.6240
 1.4680	11.6690
 1.4690	11.7170
 1.4700	11.7660
