Name: Arctostaphylos glandulosa 1
Type: vegetation
Class: Shrub
Genus: Arctostaphylos
Species: glandulosa
Sample No.: VH229
Owner: UCSB
Wavelength Range: VSWIR
Origin: 34.5084; -119.7682; WGS84
Collection Date: 10/13/2013
Description: Samples were collected as part of the HyspIRI Airborne Campaign. 48 individual plants were sampled in three times in 2013 - spring  summer  and fall. The name of the sample includes a 1  2  or 3 which references a different individual of the species. Samples were taken to JPL and processed within 48 hours of collection. The same leaves were processed in the Nicolet and then measured using the ASD.
Measurement: Bidirectional reflectance
First Column: X
Second Column: Y
X Units: Wavelength (micrometers)
Y Units: Reflectance (percentage)
First X Value: 0.35
Last X Value: 2.5
Number of X Values: 2151
Additional Information: vegetation.shrub.arctostaphylos.glandulosa.vswir.vh229.ucsb.asd.ancillary.txt

 0.3500	 6.7080
 0.3510	 6.6070
 0.3520	 6.4360
 0.3530	 6.4190
 0.3540	 6.6080
 0.3550	 6.6180
 0.3560	 6.5880
 0.3570	 6.5730
 0.3580	 6.5640
 0.3590	 6.4200
 0.3600	 6.3810
 0.3610	 6.5030
 0.3620	 6.5490
 0.3630	 6.3430
 0.3640	 6.1690
 0.3650	 6.2620
 0.3660	 6.2160
 0.3670	 6.2150
 0.3680	 6.2640
 0.3690	 6.2470
 0.3700	 6.2530
 0.3710	 6.2370
 0.3720	 6.1910
 0.3730	 6.2010
 0.3740	 6.3030
 0.3750	 6.4320
 0.3760	 6.4790
 0.3770	 6.2940
 0.3780	 6.1810
 0.3790	 6.2200
 0.3800	 6.2780
 0.3810	 6.2240
 0.3820	 6.1920
 0.3830	 6.2480
 0.3840	 6.1980
 0.3850	 6.2130
 0.3860	 6.2240
 0.3870	 6.1260
 0.3880	 6.0910
 0.3890	 6.1720
 0.3900	 6.2930
 0.3910	 6.2710
 0.3920	 6.1570
 0.3930	 6.0690
 0.3940	 6.0750
 0.3950	 6.0880
 0.3960	 6.0860
 0.3970	 6.0960
 0.3980	 6.1520
 0.3990	 6.1390
 0.4000	 6.1310
 0.4010	 6.1490
 0.4020	 6.1270
 0.4030	 6.0810
 0.4040	 6.0440
 0.4050	 6.0480
 0.4060	 6.1370
 0.4070	 6.1350
 0.4080	 6.0600
 0.4090	 6.0560
 0.4100	 6.0550
 0.4110	 6.0490
 0.4120	 6.0420
 0.4130	 6.0580
 0.4140	 6.0780
 0.4150	 6.0910
 0.4160	 6.0940
 0.4170	 6.1020
 0.4180	 6.1490
 0.4190	 6.1950
 0.4200	 6.1480
 0.4210	 6.1840
 0.4220	 6.2400
 0.4230	 6.2560
 0.4240	 6.3100
 0.4250	 6.3820
 0.4260	 6.4530
 0.4270	 6.5150
 0.4280	 6.5990
 0.4290	 6.6790
 0.4300	 6.7500
 0.4310	 6.8310
 0.4320	 6.9270
 0.4330	 7.0400
 0.4340	 7.1700
 0.4350	 7.3070
 0.4360	 7.4360
 0.4370	 7.5580
 0.4380	 7.6860
 0.4390	 7.8020
 0.4400	 7.9270
 0.4410	 8.0650
 0.4420	 8.1780
 0.4430	 8.2980
 0.4440	 8.4300
 0.4450	 8.5620
 0.4460	 8.6790
 0.4470	 8.7810
 0.4480	 8.8750
 0.4490	 8.9690
 0.4500	 9.0780
 0.4510	 9.1860
 0.4520	 9.2730
 0.4530	 9.3330
 0.4540	 9.3900
 0.4550	 9.4560
 0.4560	 9.5330
 0.4570	 9.5990
 0.4580	 9.6550
 0.4590	 9.7050
 0.4600	 9.7490
 0.4610	 9.7900
 0.4620	 9.8270
 0.4630	 9.8580
 0.4640	 9.9000
 0.4650	 9.9330
 0.4660	 9.9560
 0.4670	 9.9780
 0.4680	 9.9990
 0.4690	10.0270
 0.4700	10.0610
 0.4710	10.0790
 0.4720	10.0940
 0.4730	10.1110
 0.4740	10.1280
 0.4750	10.1420
 0.4760	10.1560
 0.4770	10.1690
 0.4780	10.1630
 0.4790	10.1780
 0.4800	10.2020
 0.4810	10.2140
 0.4820	10.2350
 0.4830	10.2530
 0.4840	10.2670
 0.4850	10.2860
 0.4860	10.3130
 0.4870	10.3360
 0.4880	10.3480
 0.4890	10.3620
 0.4900	10.4030
 0.4910	10.4520
 0.4920	10.4800
 0.4930	10.5390
 0.4940	10.5950
 0.4950	10.6370
 0.4960	10.6990
 0.4970	10.7680
 0.4980	10.8420
 0.4990	10.9200
 0.5000	11.0040
 0.5010	11.0840
 0.5020	11.1710
 0.5030	11.2880
 0.5040	11.4030
 0.5050	11.5200
 0.5060	11.6450
 0.5070	11.7680
 0.5080	11.9180
 0.5090	12.0860
 0.5100	12.2450
 0.5110	12.4020
 0.5120	12.5750
 0.5130	12.7680
 0.5140	12.9660
 0.5150	13.1740
 0.5160	13.3880
 0.5170	13.6050
 0.5180	13.8220
 0.5190	14.0600
 0.5200	14.3110
 0.5210	14.5490
 0.5220	14.7870
 0.5230	15.0330
 0.5240	15.2850
 0.5250	15.5210
 0.5260	15.7580
 0.5270	15.9970
 0.5280	16.2340
 0.5290	16.4600
 0.5300	16.6850
 0.5310	16.9130
 0.5320	17.1360
 0.5330	17.3580
 0.5340	17.5730
 0.5350	17.7800
 0.5360	17.9850
 0.5370	18.1880
 0.5380	18.3890
 0.5390	18.5840
 0.5400	18.7770
 0.5410	18.9670
 0.5420	19.1500
 0.5430	19.3280
 0.5440	19.5040
 0.5450	19.6740
 0.5460	19.8330
 0.5470	19.9970
 0.5480	20.1480
 0.5490	20.2790
 0.5500	20.4080
 0.5510	20.5170
 0.5520	20.6090
 0.5530	20.6890
 0.5540	20.7560
 0.5550	20.8030
 0.5560	20.8300
 0.5570	20.8430
 0.5580	20.8450
 0.5590	20.8400
 0.5600	20.8240
 0.5610	20.7900
 0.5620	20.7490
 0.5630	20.7010
 0.5640	20.6450
 0.5650	20.5780
 0.5660	20.5010
 0.5670	20.4150
 0.5680	20.3150
 0.5690	20.2000
 0.5700	20.0720
 0.5710	19.9400
 0.5720	19.8150
 0.5730	19.6920
 0.5740	19.5660
 0.5750	19.4370
 0.5760	19.3130
 0.5770	19.1980
 0.5780	19.1000
 0.5790	19.0320
 0.5800	18.9640
 0.5810	18.8870
 0.5820	18.8050
 0.5830	18.7300
 0.5840	18.6520
 0.5850	18.5680
 0.5860	18.4790
 0.5870	18.3960
 0.5880	18.3240
 0.5890	18.2650
 0.5900	18.1950
 0.5910	18.1420
 0.5920	18.1040
 0.5930	18.0600
 0.5940	18.0240
 0.5950	17.9890
 0.5960	17.9550
 0.5970	17.9280
 0.5980	17.9040
 0.5990	17.8780
 0.6000	17.8440
 0.6010	17.8060
 0.6020	17.7630
 0.6030	17.7140
 0.6040	17.6570
 0.6050	17.5810
 0.6060	17.4980
 0.6070	17.4150
 0.6080	17.3240
 0.6090	17.2240
 0.6100	17.1210
 0.6110	17.0190
 0.6120	16.9150
 0.6130	16.8080
 0.6140	16.7030
 0.6150	16.6030
 0.6160	16.5010
 0.6170	16.4060
 0.6180	16.3250
 0.6190	16.2410
 0.6200	16.1670
 0.6210	16.1050
 0.6220	16.0470
 0.6230	16.0050
 0.6240	15.9680
 0.6250	15.9300
 0.6260	15.9080
 0.6270	15.8970
 0.6280	15.8840
 0.6290	15.8590
 0.6300	15.8470
 0.6310	15.8330
 0.6320	15.8100
 0.6330	15.7830
 0.6340	15.7480
 0.6350	15.6990
 0.6360	15.6310
 0.6370	15.5450
 0.6380	15.4420
 0.6390	15.3230
 0.6400	15.1880
 0.6410	15.0390
 0.6420	14.8880
 0.6430	14.7370
 0.6440	14.5770
 0.6450	14.4130
 0.6460	14.2520
 0.6470	14.0990
 0.6480	13.9620
 0.6490	13.8400
 0.6500	13.7330
 0.6510	13.6390
 0.6520	13.5520
 0.6530	13.4680
 0.6540	13.3830
 0.6550	13.2900
 0.6560	13.1870
 0.6570	13.0700
 0.6580	12.9390
 0.6590	12.7930
 0.6600	12.6350
 0.6610	12.4710
 0.6620	12.3100
 0.6630	12.1440
 0.6640	11.9820
 0.6650	11.8320
 0.6660	11.6930
 0.6670	11.5600
 0.6680	11.4410
 0.6690	11.3470
 0.6700	11.2640
 0.6710	11.1920
 0.6720	11.1330
 0.6730	11.0890
 0.6740	11.0550
 0.6750	11.0290
 0.6760	11.0120
 0.6770	11.0060
 0.6780	11.0100
 0.6790	11.0280
 0.6800	11.0660
 0.6810	11.1250
 0.6820	11.2190
 0.6830	11.3520
 0.6840	11.5160
 0.6850	11.7420
 0.6860	12.0320
 0.6870	12.3820
 0.6880	12.8000
 0.6890	13.2930
 0.6900	13.8670
 0.6910	14.5320
 0.6920	15.2740
 0.6930	16.0940
 0.6940	16.9910
 0.6950	17.9660
 0.6960	19.0000
 0.6970	20.0870
 0.6980	21.2280
 0.6990	22.4070
 0.7000	23.6130
 0.7010	24.8360
 0.7020	26.0620
 0.7030	27.2830
 0.7040	28.4890
 0.7050	29.6690
 0.7060	30.8200
 0.7070	31.9410
 0.7080	33.0210
 0.7090	34.0530
 0.7100	35.0650
 0.7110	36.0290
 0.7120	36.9400
 0.7130	37.8160
 0.7140	38.6590
 0.7150	39.4600
 0.7160	40.2140
 0.7170	40.9360
 0.7180	41.6200
 0.7190	42.2630
 0.7200	42.8680
 0.7210	43.4500
 0.7220	44.0020
 0.7230	44.5170
 0.7240	44.9850
 0.7250	45.4260
 0.7260	45.8450
 0.7270	46.2430
 0.7280	46.6210
 0.7290	46.9590
 0.7300	47.2670
 0.7310	47.5640
 0.7320	47.8400
 0.7330	48.0910
 0.7340	48.3220
 0.7350	48.5480
 0.7360	48.7640
 0.7370	48.9550
 0.7380	49.1170
 0.7390	49.2850
 0.7400	49.4480
 0.7410	49.5980
 0.7420	49.7290
 0.7430	49.8600
 0.7440	49.9690
 0.7450	50.0660
 0.7460	50.1840
 0.7470	50.2740
 0.7480	50.3520
 0.7490	50.4340
 0.7500	50.4930
 0.7510	50.5740
 0.7520	50.6490
 0.7530	50.6840
 0.7540	50.7500
 0.7550	50.8120
 0.7560	50.8580
 0.7570	50.8980
 0.7580	50.9420
 0.7590	50.9790
 0.7600	51.0060
 0.7610	51.0460
 0.7620	51.0670
 0.7630	51.0850
 0.7640	51.1210
 0.7650	51.1440
 0.7660	51.1800
 0.7670	51.2140
 0.7680	51.2140
 0.7690	51.2190
 0.7700	51.2440
 0.7710	51.2800
 0.7720	51.2890
 0.7730	51.2920
 0.7740	51.3010
 0.7750	51.3210
 0.7760	51.3370
 0.7770	51.3600
 0.7780	51.3820
 0.7790	51.3900
 0.7800	51.3920
 0.7810	51.3920
 0.7820	51.3950
 0.7830	51.4100
 0.7840	51.4240
 0.7850	51.4450
 0.7860	51.4690
 0.7870	51.4760
 0.7880	51.4780
 0.7890	51.4820
 0.7900	51.4940
 0.7910	51.5090
 0.7920	51.5160
 0.7930	51.5210
 0.7940	51.5410
 0.7950	51.5450
 0.7960	51.5510
 0.7970	51.5650
 0.7980	51.5620
 0.7990	51.5640
 0.8000	51.5790
 0.8010	51.6010
 0.8020	51.6020
 0.8030	51.6100
 0.8040	51.6230
 0.8050	51.6250
 0.8060	51.6360
 0.8070	51.6430
 0.8080	51.6520
 0.8090	51.6750
 0.8100	51.6690
 0.8110	51.6600
 0.8120	51.6720
 0.8130	51.7140
 0.8140	51.7160
 0.8150	51.7010
 0.8160	51.7050
 0.8170	51.7180
 0.8180	51.7240
 0.8190	51.7280
 0.8200	51.7430
 0.8210	51.7460
 0.8220	51.7600
 0.8230	51.7770
 0.8240	51.7660
 0.8250	51.7650
 0.8260	51.7680
 0.8270	51.7700
 0.8280	51.7800
 0.8290	51.8040
 0.8300	51.8070
 0.8310	51.7740
 0.8320	51.7730
 0.8330	51.7780
 0.8340	51.7840
 0.8350	51.7910
 0.8360	51.7900
 0.8370	51.7950
 0.8380	51.8020
 0.8390	51.7950
 0.8400	51.8040
 0.8410	51.8140
 0.8420	51.8190
 0.8430	51.8280
 0.8440	51.8350
 0.8450	51.8330
 0.8460	51.8260
 0.8470	51.8380
 0.8480	51.8630
 0.8490	51.8780
 0.8500	51.8650
 0.8510	51.8580
 0.8520	51.8690
 0.8530	51.8890
 0.8540	51.8960
 0.8550	51.8820
 0.8560	51.8770
 0.8570	51.8900
 0.8580	51.9080
 0.8590	51.9110
 0.8600	51.8960
 0.8610	51.8780
 0.8620	51.8950
 0.8630	51.9020
 0.8640	51.8900
 0.8650	51.8770
 0.8660	51.9110
 0.8670	51.9180
 0.8680	51.9080
 0.8690	51.9130
 0.8700	51.9080
 0.8710	51.9030
 0.8720	51.9090
 0.8730	51.9260
 0.8740	51.9270
 0.8750	51.9320
 0.8760	51.9340
 0.8770	51.9030
 0.8780	51.8950
 0.8790	51.8950
 0.8800	51.8930
 0.8810	51.9020
 0.8820	51.9250
 0.8830	51.9250
 0.8840	51.8890
 0.8850	51.8720
 0.8860	51.8610
 0.8870	51.8630
 0.8880	51.8780
 0.8890	51.8720
 0.8900	51.8440
 0.8910	51.8290
 0.8920	51.8590
 0.8930	51.8540
 0.8940	51.8190
 0.8950	51.7840
 0.8960	51.7810
 0.8970	51.7720
 0.8980	51.7700
 0.8990	51.7710
 0.9000	51.7530
 0.9010	51.7540
 0.9020	51.7400
 0.9030	51.7090
 0.9040	51.7070
 0.9050	51.6950
 0.9060	51.6870
 0.9070	51.6890
 0.9080	51.6710
 0.9090	51.6690
 0.9100	51.6640
 0.9110	51.6440
 0.9120	51.6320
 0.9130	51.6210
 0.9140	51.6040
 0.9150	51.5790
 0.9160	51.5690
 0.9170	51.5460
 0.9180	51.5170
 0.9190	51.5080
 0.9200	51.5270
 0.9210	51.5200
 0.9220	51.4820
 0.9230	51.4440
 0.9240	51.4360
 0.9250	51.4210
 0.9260	51.3840
 0.9270	51.3470
 0.9280	51.3690
 0.9290	51.3630
 0.9300	51.3160
 0.9310	51.2930
 0.9320	51.2540
 0.9330	51.2190
 0.9340	51.1940
 0.9350	51.1580
 0.9360	51.1430
 0.9370	51.1160
 0.9380	51.0640
 0.9390	51.0200
 0.9400	50.9940
 0.9410	50.9740
 0.9420	50.9430
 0.9430	50.8790
 0.9440	50.8200
 0.9450	50.7740
 0.9460	50.7330
 0.9470	50.6790
 0.9480	50.6280
 0.9490	50.5650
 0.9500	50.4760
 0.9510	50.3710
 0.9520	50.2920
 0.9530	50.2290
 0.9540	50.1560
 0.9550	50.0870
 0.9560	49.9730
 0.9570	49.8500
 0.9580	49.7640
 0.9590	49.6890
 0.9600	49.6240
 0.9610	49.5660
 0.9620	49.5100
 0.9630	49.4350
 0.9640	49.3460
 0.9650	49.2680
 0.9660	49.2280
 0.9670	49.2100
 0.9680	49.1960
 0.9690	49.1700
 0.9700	49.1300
 0.9710	49.1150
 0.9720	49.0980
 0.9730	49.0820
 0.9740	49.0780
 0.9750	49.0610
 0.9760	49.0170
 0.9770	48.9930
 0.9780	49.0310
 0.9790	48.9990
 0.9800	49.0030
 0.9810	49.0320
 0.9820	49.0240
 0.9830	49.0060
 0.9840	49.0160
 0.9850	49.0400
 0.9860	49.0490
 0.9870	49.0730
 0.9880	49.0890
 0.9890	49.1190
 0.9900	49.1850
 0.9910	49.2370
 0.9920	49.3250
 0.9930	49.4140
 0.9940	49.5020
 0.9950	49.5900
 0.9960	49.6790
 0.9970	49.7670
 0.9980	49.8550
 0.9990	49.9430
 1.0000	50.0320
 1.0010	50.1200
 1.0020	50.2080
 1.0030	50.2970
 1.0040	50.3850
 1.0050	50.4730
 1.0060	50.5620
 1.0070	50.6500
 1.0080	50.7380
 1.0090	50.8260
 1.0100	50.8260
 1.0110	50.8520
 1.0120	50.8810
 1.0130	50.9000
 1.0140	50.9340
 1.0150	50.9760
 1.0160	51.0190
 1.0170	51.0610
 1.0180	51.1000
 1.0190	51.1260
 1.0200	51.1480
 1.0210	51.1770
 1.0220	51.2190
 1.0230	51.2580
 1.0240	51.3080
 1.0250	51.3420
 1.0260	51.3650
 1.0270	51.3960
 1.0280	51.4200
 1.0290	51.4500
 1.0300	51.4950
 1.0310	51.5270
 1.0320	51.5480
 1.0330	51.5770
 1.0340	51.6120
 1.0350	51.6340
 1.0360	51.6570
 1.0370	51.6780
 1.0380	51.7030
 1.0390	51.7270
 1.0400	51.7490
 1.0410	51.7730
 1.0420	51.7940
 1.0430	51.8050
 1.0440	51.8240
 1.0450	51.8480
 1.0460	51.8710
 1.0470	51.8970
 1.0480	51.9200
 1.0490	51.9440
 1.0500	51.9670
 1.0510	51.9880
 1.0520	52.0080
 1.0530	52.0210
 1.0540	52.0280
 1.0550	52.0420
 1.0560	52.0520
 1.0570	52.0630
 1.0580	52.0810
 1.0590	52.0900
 1.0600	52.0870
 1.0610	52.0960
 1.0620	52.1160
 1.0630	52.1220
 1.0640	52.1260
 1.0650	52.1280
 1.0660	52.1160
 1.0670	52.1120
 1.0680	52.1110
 1.0690	52.1150
 1.0700	52.1240
 1.0710	52.1430
 1.0720	52.1440
 1.0730	52.1450
 1.0740	52.1420
 1.0750	52.1250
 1.0760	52.1150
 1.0770	52.1120
 1.0780	52.1040
 1.0790	52.0920
 1.0800	52.0810
 1.0810	52.0720
 1.0820	52.0610
 1.0830	52.0500
 1.0840	52.0380
 1.0850	52.0230
 1.0860	52.0120
 1.0870	51.9990
 1.0880	51.9830
 1.0890	51.9730
 1.0900	51.9700
 1.0910	51.9590
 1.0920	51.9520
 1.0930	51.9370
 1.0940	51.9120
 1.0950	51.8920
 1.0960	51.8680
 1.0970	51.8510
 1.0980	51.8360
 1.0990	51.8220
 1.1000	51.8190
 1.1010	51.8050
 1.1020	51.7860
 1.1030	51.7700
 1.1040	51.7420
 1.1050	51.7110
 1.1060	51.6850
 1.1070	51.6600
 1.1080	51.6320
 1.1090	51.6050
 1.1100	51.5740
 1.1110	51.5410
 1.1120	51.5040
 1.1130	51.4630
 1.1140	51.4260
 1.1150	51.3950
 1.1160	51.3520
 1.1170	51.3100
 1.1180	51.2600
 1.1190	51.2020
 1.1200	51.1360
 1.1210	51.0740
 1.1220	51.0090
 1.1230	50.9380
 1.1240	50.8630
 1.1250	50.7830
 1.1260	50.6990
 1.1270	50.6100
 1.1280	50.5180
 1.1290	50.4180
 1.1300	50.3090
 1.1310	50.1980
 1.1320	50.0850
 1.1330	49.9610
 1.1340	49.8340
 1.1350	49.6970
 1.1360	49.5480
 1.1370	49.3930
 1.1380	49.2400
 1.1390	49.0800
 1.1400	48.9070
 1.1410	48.7270
 1.1420	48.5410
 1.1430	48.3430
 1.1440	48.1450
 1.1450	47.9450
 1.1460	47.7440
 1.1470	47.5330
 1.1480	47.3370
 1.1490	47.1420
 1.1500	46.9570
 1.1510	46.7790
 1.1520	46.6060
 1.1530	46.4350
 1.1540	46.2800
 1.1550	46.1310
 1.1560	45.9970
 1.1570	45.8800
 1.1580	45.7740
 1.1590	45.6740
 1.1600	45.5910
 1.1610	45.5180
 1.1620	45.4470
 1.1630	45.3880
 1.1640	45.3300
 1.1650	45.2780
 1.1660	45.2300
 1.1670	45.1900
 1.1680	45.1580
 1.1690	45.1260
 1.1700	45.1000
 1.1710	45.0720
 1.1720	45.0460
 1.1730	45.0200
 1.1740	44.9930
 1.1750	44.9660
 1.1760	44.9340
 1.1770	44.9000
 1.1780	44.8650
 1.1790	44.8260
 1.1800	44.7870
 1.1810	44.7540
 1.1820	44.7240
 1.1830	44.6910
 1.1840	44.6620
 1.1850	44.6340
 1.1860	44.5980
 1.1870	44.5610
 1.1880	44.5300
 1.1890	44.5010
 1.1900	44.4710
 1.1910	44.4470
 1.1920	44.4200
 1.1930	44.3870
 1.1940	44.3630
 1.1950	44.3430
 1.1960	44.3280
 1.1970	44.3160
 1.1980	44.3080
 1.1990	44.3010
 1.2000	44.2910
 1.2010	44.2870
 1.2020	44.2920
 1.2030	44.3000
 1.2040	44.3140
 1.2050	44.3300
 1.2060	44.3480
 1.2070	44.3670
 1.2080	44.3900
 1.2090	44.4180
 1.2100	44.4550
 1.2110	44.4960
 1.2120	44.5430
 1.2130	44.5930
 1.2140	44.6480
 1.2150	44.7030
 1.2160	44.7630
 1.2170	44.8240
 1.2180	44.8840
 1.2190	44.9490
 1.2200	45.0170
 1.2210	45.0800
 1.2220	45.1470
 1.2230	45.2140
 1.2240	45.2740
 1.2250	45.3410
 1.2260	45.4080
 1.2270	45.4700
 1.2280	45.5370
 1.2290	45.5970
 1.2300	45.6540
 1.2310	45.7110
 1.2320	45.7610
 1.2330	45.8110
 1.2340	45.8600
 1.2350	45.9050
 1.2360	45.9490
 1.2370	45.9950
 1.2380	46.0330
 1.2390	46.0630
 1.2400	46.0960
 1.2410	46.1300
 1.2420	46.1670
 1.2430	46.2040
 1.2440	46.2390
 1.2450	46.2710
 1.2460	46.2970
 1.2470	46.3260
 1.2480	46.3560
 1.2490	46.3830
 1.2500	46.4070
 1.2510	46.4290
 1.2520	46.4500
 1.2530	46.4700
 1.2540	46.4980
 1.2550	46.5280
 1.2560	46.5550
 1.2570	46.5830
 1.2580	46.6000
 1.2590	46.6150
 1.2600	46.6250
 1.2610	46.6350
 1.2620	46.6410
 1.2630	46.6490
 1.2640	46.6590
 1.2650	46.6660
 1.2660	46.6710
 1.2670	46.6740
 1.2680	46.6700
 1.2690	46.6680
 1.2700	46.6680
 1.2710	46.6700
 1.2720	46.6720
 1.2730	46.6720
 1.2740	46.6700
 1.2750	46.6630
 1.2760	46.6550
 1.2770	46.6460
 1.2780	46.6340
 1.2790	46.6240
 1.2800	46.6130
 1.2810	46.5940
 1.2820	46.5780
 1.2830	46.5600
 1.2840	46.5360
 1.2850	46.5130
 1.2860	46.4870
 1.2870	46.4570
 1.2880	46.4220
 1.2890	46.3910
 1.2900	46.3530
 1.2910	46.3110
 1.2920	46.2680
 1.2930	46.2150
 1.2940	46.1610
 1.2950	46.1110
 1.2960	46.0500
 1.2970	45.9850
 1.2980	45.9190
 1.2990	45.8410
 1.3000	45.7630
 1.3010	45.6910
 1.3020	45.6100
 1.3030	45.5280
 1.3040	45.4410
 1.3050	45.3470
 1.3060	45.2510
 1.3070	45.1510
 1.3080	45.0470
 1.3090	44.9390
 1.3100	44.8330
 1.3110	44.7210
 1.3120	44.6040
 1.3130	44.4830
 1.3140	44.3570
 1.3150	44.2210
 1.3160	44.0890
 1.3170	43.9590
 1.3180	43.8240
 1.3190	43.6820
 1.3200	43.5350
 1.3210	43.3770
 1.3220	43.2160
 1.3230	43.0530
 1.3240	42.8880
 1.3250	42.7210
 1.3260	42.5480
 1.3270	42.3680
 1.3280	42.1850
 1.3290	41.9980
 1.3300	41.8090
 1.3310	41.6240
 1.3320	41.4380
 1.3330	41.2490
 1.3340	41.0620
 1.3350	40.8680
 1.3360	40.6700
 1.3370	40.4760
 1.3380	40.2770
 1.3390	40.0800
 1.3400	39.8880
 1.3410	39.6910
 1.3420	39.4970
 1.3430	39.3100
 1.3440	39.1210
 1.3450	38.9330
 1.3460	38.7490
 1.3470	38.5650
 1.3480	38.3780
 1.3490	38.1960
 1.3500	38.0190
 1.3510	37.8380
 1.3520	37.6630
 1.3530	37.4910
 1.3540	37.3180
 1.3550	37.1540
 1.3560	36.9860
 1.3570	36.8120
 1.3580	36.6420
 1.3590	36.4640
 1.3600	36.2840
 1.3610	36.1030
 1.3620	35.9140
 1.3630	35.7250
 1.3640	35.5270
 1.3650	35.3200
 1.3660	35.1130
 1.3670	34.8950
 1.3680	34.6660
 1.3690	34.4280
 1.3700	34.1730
 1.3710	33.9050
 1.3720	33.6230
 1.3730	33.3250
 1.3740	33.0130
 1.3750	32.6820
 1.3760	32.3270
 1.3770	31.9510
 1.3780	31.5490
 1.3790	31.1290
 1.3800	30.6910
 1.3810	30.2310
 1.3820	29.7540
 1.3830	29.2580
 1.3840	28.7430
 1.3850	28.2050
 1.3860	27.6580
 1.3870	27.0880
 1.3880	26.5200
 1.3890	25.9420
 1.3900	25.3610
 1.3910	24.7870
 1.3920	24.2100
 1.3930	23.6330
 1.3940	23.0630
 1.3950	22.4920
 1.3960	21.9330
 1.3970	21.3900
 1.3980	20.8590
 1.3990	20.3530
 1.4000	19.8590
 1.4010	19.3790
 1.4020	18.9200
 1.4030	18.4770
 1.4040	18.0560
 1.4050	17.6600
 1.4060	17.2840
 1.4070	16.9330
 1.4080	16.6030
 1.4090	16.2930
 1.4100	16.0050
 1.4110	15.7390
 1.4120	15.4940
 1.4130	15.2680
 1.4140	15.0590
 1.4150	14.8680
 1.4160	14.6920
 1.4170	14.5290
 1.4180	14.3840
 1.4190	14.2520
 1.4200	14.1300
 1.4210	14.0200
 1.4220	13.9190
 1.4230	13.8290
 1.4240	13.7480
 1.4250	13.6750
 1.4260	13.6140
 1.4270	13.5570
 1.4280	13.5100
 1.4290	13.4660
 1.4300	13.4270
 1.4310	13.3940
 1.4320	13.3670
 1.4330	13.3420
 1.4340	13.3240
 1.4350	13.3080
 1.4360	13.2950
 1.4370	13.2850
 1.4380	13.2800
 1.4390	13.2780
 1.4400	13.2780
 1.4410	13.2820
 1.4420	13.2880
 1.4430	13.2930
 1.4440	13.3010
 1.4450	13.3120
 1.4460	13.3220
 1.4470	13.3360
 1.4480	13.3520
 1.4490	13.3660
 1.4500	13.3820
 1.4510	13.3980
 1.4520	13.4130
 1.4530	13.4300
 1.4540	13.4470
 1.4550	13.4650
 1.4560	13.4870
 1.4570	13.5090
 1.4580	13.5330
 1.4590	13.5600
 1.4600	13.5870
 1.4610	13.6150
 1.4620	13.6460
 1.4630	13.6820
 1.4640	13.7190
 1.4650	13.7600
 1.4660	13.8050
 1.4670	13.8500
 1.4680	13.8980
