Name: Betula lenta
Type: Vegetation
Class: Tree
Genus: Betula
Species: lenta
Sample No.: BELE-2-59
Owner: UCSB
Wavelength Range: TIR
Origin: USA; Massachusetts; Harvard Forest
Collection Date: 7/8/2013
Description: Samples were collected as part of NSF Macrosystem Biology proposal titled: Collaborative Research: Thermal controls on ecosystem metabolism and function: scaling from leaves to canopies to regions. Samples were collected and overnighted to JPL facilities for processing. The same leaves were processed in the Nicolet and then measured using the ASD.
Measurement: Hemispherical reflectance
First Column: X
Second Column: Y
X Units: Wavelength (micrometers)
Y Units: Reflectance (percentage)
First X Value: 2.501
Last X Value: 15.387
Number of X Values: 1737
Additional Information: vegetation.tree.betula.lenta.tir.bele-2-59.ucsb.nicolet.ancillary.txt

 2.5010	13.1810
 2.5030	13.3460
 2.5040	13.3320
 2.5050	13.0600
 2.5060	12.9240
 2.5070	12.8140
 2.5090	13.0760
 2.5100	13.0420
 2.5110	12.7600
 2.5120	12.5860
 2.5140	12.6560
 2.5150	12.6950
 2.5160	12.6620
 2.5170	12.6060
 2.5180	12.7690
 2.5200	12.8570
 2.5210	12.6720
 2.5220	12.4910
 2.5230	12.4610
 2.5250	12.4190
 2.5260	12.7200
 2.5270	12.7820
 2.5280	12.6230
 2.5290	12.4170
 2.5310	12.6300
 2.5320	12.7500
 2.5330	12.7070
 2.5340	12.7770
 2.5360	12.7310
 2.5370	12.5650
 2.5380	12.5050
 2.5390	12.2820
 2.5410	12.2700
 2.5420	12.2880
 2.5430	12.3250
 2.5440	12.4500
 2.5460	12.5920
 2.5470	12.6910
 2.5480	12.5910
 2.5490	12.5320
 2.5510	12.5510
 2.5520	12.4890
 2.5530	12.7210
 2.5540	12.6370
 2.5560	12.6020
 2.5570	12.6830
 2.5580	12.9080
 2.5590	12.8080
 2.5610	12.6070
 2.5620	12.5990
 2.5630	12.6780
 2.5640	12.6290
 2.5660	12.6240
 2.5670	12.5310
 2.5680	12.4960
 2.5700	12.4020
 2.5710	12.5980
 2.5720	12.5640
 2.5730	12.4880
 2.5750	12.4840
 2.5760	12.5660
 2.5770	12.4990
 2.5790	12.6640
 2.5800	12.6810
 2.5810	12.6690
 2.5820	12.6140
 2.5840	12.4420
 2.5850	12.4860
 2.5860	12.5680
 2.5880	12.3020
 2.5890	12.1820
 2.5900	12.2030
 2.5910	12.2800
 2.5930	12.2920
 2.5940	12.1360
 2.5950	11.7860
 2.5970	11.9980
 2.5980	12.1090
 2.5990	11.9820
 2.6000	11.7560
 2.6020	11.7670
 2.6030	11.7650
 2.6040	11.6550
 2.6060	11.5420
 2.6070	11.4770
 2.6080	11.3150
 2.6100	11.3500
 2.6110	11.2980
 2.6120	11.0160
 2.6140	10.8730
 2.6150	10.8770
 2.6160	10.7740
 2.6180	10.5710
 2.6190	10.6770
 2.6200	10.7150
 2.6220	10.4980
 2.6230	10.4940
 2.6240	10.3680
 2.6260	10.2400
 2.6270	10.0010
 2.6280	 9.9900
 2.6300	 9.7850
 2.6310	 9.7010
 2.6320	 9.8830
 2.6340	 9.8050
 2.6350	 9.5040
 2.6360	 9.2540
 2.6380	 9.1280
 2.6390	 9.0900
 2.6400	 8.8850
 2.6420	 8.7780
 2.6430	 8.7440
 2.6440	 8.6110
 2.6460	 8.5070
 2.6470	 8.5270
 2.6480	 8.3340
 2.6500	 8.2210
 2.6510	 8.0100
 2.6520	 7.9650
 2.6540	 7.9340
 2.6550	 7.7810
 2.6560	 7.6220
 2.6580	 7.6330
 2.6590	 7.5280
 2.6610	 7.4420
 2.6620	 7.3850
 2.6630	 7.4220
 2.6650	 7.2130
 2.6660	 6.9060
 2.6670	 6.5540
 2.6690	 6.5750
 2.6700	 6.5950
 2.6720	 6.6380
 2.6730	 6.3870
 2.6740	 6.2910
 2.6760	 6.4050
 2.6770	 6.4580
 2.6780	 6.2320
 2.6800	 6.0630
 2.6810	 5.7890
 2.6830	 5.9490
 2.6840	 5.9810
 2.6850	 5.8570
 2.6870	 5.8490
 2.6880	 5.5310
 2.6900	 5.5200
 2.6910	 5.8040
 2.6920	 5.2950
 2.6940	 4.7850
 2.6950	 4.9360
 2.6970	 5.2690
 2.6980	 5.2150
 2.6990	 4.8900
 2.7010	 4.8010
 2.7020	 5.0650
 2.7040	 5.0910
 2.7050	 5.1500
 2.7060	 4.9950
 2.7080	 5.0090
 2.7090	 5.1010
 2.7110	 5.0950
 2.7120	 5.0710
 2.7130	 5.1130
 2.7150	 5.0590
 2.7160	 5.1620
 2.7180	 5.2340
 2.7190	 5.2550
 2.7210	 5.1970
 2.7220	 5.1820
 2.7230	 5.3050
 2.7250	 5.5940
 2.7260	 5.4470
 2.7280	 5.2670
 2.7290	 5.3340
 2.7310	 5.1150
 2.7320	 4.7850
 2.7330	 5.2370
 2.7350	 5.6480
 2.7360	 5.3250
 2.7380	 5.2550
 2.7390	 5.5760
 2.7410	 5.5060
 2.7420	 5.6750
 2.7440	 5.9650
 2.7450	 6.1030
 2.7470	 5.6550
 2.7480	 5.1020
 2.7490	 5.3900
 2.7510	 5.8940
 2.7520	 5.7040
 2.7540	 5.7060
 2.7550	 6.1760
 2.7570	 6.6750
 2.7580	 6.5700
 2.7600	 6.0610
 2.7610	 5.9120
 2.7630	 5.6620
 2.7640	 5.0190
 2.7660	 5.4400
 2.7670	 5.8760
 2.7680	 6.1590
 2.7700	 5.9110
 2.7710	 5.6220
 2.7730	 5.9640
 2.7740	 6.1040
 2.7760	 5.9760
 2.7770	 5.6880
 2.7790	 5.6410
 2.7800	 6.0410
 2.7820	 6.1580
 2.7830	 6.2000
 2.7850	 6.1460
 2.7860	 6.2210
 2.7880	 6.0800
 2.7890	 5.8490
 2.7910	 5.6450
 2.7920	 5.8770
 2.7940	 6.0350
 2.7950	 6.3690
 2.7970	 6.5290
 2.7980	 6.4210
 2.8000	 6.4680
 2.8010	 6.3510
 2.8030	 6.0550
 2.8040	 6.1710
 2.8060	 6.2900
 2.8070	 6.3960
 2.8090	 6.3930
 2.8110	 6.3060
 2.8120	 6.2890
 2.8140	 6.5440
 2.8150	 6.5440
 2.8170	 6.6800
 2.8180	 6.7060
 2.8200	 6.7280
 2.8210	 6.7360
 2.8230	 6.8430
 2.8240	 6.7770
 2.8260	 7.1310
 2.8270	 7.0250
 2.8290	 6.6560
 2.8300	 6.7700
 2.8320	 6.8030
 2.8340	 6.3880
 2.8350	 6.2120
 2.8370	 6.3530
 2.8380	 6.7730
 2.8400	 6.9870
 2.8410	 6.8240
 2.8430	 6.6200
 2.8440	 6.9600
 2.8460	 6.8850
 2.8480	 6.6750
 2.8490	 6.6230
 2.8510	 6.7190
 2.8520	 6.7470
 2.8540	 6.7520
 2.8550	 6.7190
 2.8570	 6.7380
 2.8590	 6.8180
 2.8600	 6.9490
 2.8620	 6.8540
 2.8630	 6.9990
 2.8650	 7.2500
 2.8660	 7.0830
 2.8680	 7.0070
 2.8700	 7.2900
 2.8710	 7.0370
 2.8730	 6.9730
 2.8740	 6.7940
 2.8760	 6.6170
 2.8780	 6.6680
 2.8790	 6.7270
 2.8810	 6.7090
 2.8820	 6.7790
 2.8840	 7.3990
 2.8860	 7.8120
 2.8870	 7.1660
 2.8890	 7.1150
 2.8900	 6.9790
 2.8920	 7.0210
 2.8940	 7.3440
 2.8950	 7.0070
 2.8970	 6.6640
 2.8980	 6.8500
 2.9000	 6.9480
 2.9020	 7.0500
 2.9030	 7.1140
 2.9050	 6.9800
 2.9070	 6.6240
 2.9080	 6.7150
 2.9100	 7.2400
 2.9120	 7.4430
 2.9130	 7.1540
 2.9150	 7.0340
 2.9160	 7.0100
 2.9180	 7.1420
 2.9200	 7.2990
 2.9210	 7.2660
 2.9230	 6.9880
 2.9250	 7.0300
 2.9260	 7.3210
 2.9280	 7.3890
 2.9300	 7.3870
 2.9310	 7.4640
 2.9330	 7.3450
 2.9350	 7.3700
 2.9360	 7.6040
 2.9380	 7.3240
 2.9400	 6.8460
 2.9410	 6.6790
 2.9430	 6.4410
 2.9450	 6.3750
 2.9460	 6.4700
 2.9480	 6.9110
 2.9500	 7.3590
 2.9510	 7.6220
 2.9530	 7.9130
 2.9550	 7.4640
 2.9560	 6.5790
 2.9580	 6.4710
 2.9600	 6.6240
 2.9610	 6.1110
 2.9630	 7.2020
 2.9650	 8.2600
 2.9660	 7.2670
 2.9680	 5.9970
 2.9700	 4.9340
 2.9720	 5.7150
 2.9730	 7.5080
 2.9750	 8.0280
 2.9770	 6.1550
 2.9780	 5.0750
 2.9800	 5.2270
 2.9820	 6.0950
 2.9840	 6.2080
 2.9850	 6.6810
 2.9870	 7.6910
 2.9890	 7.7190
 2.9900	 4.9660
 2.9920	 3.2790
 2.9940	 5.3110
 2.9960	 5.7720
 2.9970	 3.1950
 2.9990	 3.3430
 3.0010	 4.8950
 3.0030	 5.2330
 3.0040	 4.9440
 3.0060	 6.1700
 3.0080	 6.9150
 3.0100	 5.5240
 3.0110	 4.9230
 3.0130	 6.4930
 3.0150	 6.8080
 3.0170	 5.5260
 3.0180	 5.7700
 3.0200	 6.4660
 3.0220	 6.1950
 3.0240	 5.6910
 3.0250	 5.7080
 3.0270	 6.1670
 3.0290	 6.3800
 3.0310	 6.6800
 3.0320	 6.6530
 3.0340	 7.0830
 3.0360	 7.2740
 3.0380	 5.6850
 3.0400	 5.0660
 3.0410	 6.0760
 3.0430	 4.5830
 3.0450	 4.9590
 3.0470	 5.2200
 3.0480	 1.6180
 3.0500	 1.2530
 3.0520	 5.1470
 3.0540	 5.9650
 3.0560	 5.7810
 3.0570	 5.2880
 3.0590	 2.1140
 3.0610	 1.9370
 3.0630	 3.7210
 3.0650	 5.1880
 3.0660	 3.6330
 3.0680	 2.9750
 3.0700	 4.2730
 3.0720	 5.6400
 3.0740	 5.7460
 3.0760	 5.2730
 3.0770	 5.5470
 3.0790	 5.5360
 3.0810	 5.7410
 3.0830	 5.6570
 3.0850	 5.6580
 3.0870	 5.3710
 3.0880	 5.1720
 3.0900	 4.7820
 3.0920	 5.1140
 3.0940	 5.8330
 3.0960	 6.1280
 3.0980	 5.7800
 3.0990	 5.6870
 3.1010	 5.6930
 3.1030	 6.1830
 3.1050	 6.4240
 3.1070	 5.8520
 3.1090	 4.8480
 3.1110	 5.1830
 3.1120	 5.4030
 3.1140	 5.6310
 3.1160	 5.9990
 3.1180	 5.2200
 3.1200	 4.5060
 3.1220	 4.3330
 3.1240	 3.9680
 3.1260	 3.8860
 3.1270	 4.3040
 3.1290	 4.8620
 3.1310	 5.0300
 3.1330	 4.7120
 3.1350	 4.9490
 3.1370	 5.7160
 3.1390	 5.1970
 3.1410	 4.7910
 3.1430	 4.5130
 3.1450	 3.8490
 3.1460	 4.4660
 3.1480	 5.7020
 3.1500	 5.6490
 3.1520	 5.1800
 3.1540	 5.3540
 3.1560	 5.3350
 3.1580	 4.5970
 3.1600	 3.3590
 3.1620	 3.6880
 3.1640	 4.9640
 3.1660	 5.5950
 3.1680	 5.6550
 3.1700	 6.2240
 3.1710	 7.5660
 3.1730	 5.7900
 3.1750	 4.1740
 3.1770	 5.1990
 3.1790	 5.3790
 3.1810	 5.0320
 3.1830	 4.2270
 3.1850	 4.0500
 3.1870	 4.7180
 3.1890	 4.9420
 3.1910	 4.5860
 3.1930	 4.5060
 3.1950	 4.5980
 3.1970	 4.0770
 3.1990	 3.8450
 3.2010	 4.0670
 3.2030	 4.2570
 3.2050	 4.1840
 3.2070	 4.1990
 3.2090	 4.2260
 3.2110	 4.2930
 3.2130	 4.4570
 3.2150	 4.5860
 3.2170	 4.4690
 3.2190	 4.3940
 3.2210	 4.2260
 3.2230	 4.3130
 3.2250	 4.2920
 3.2270	 4.1870
 3.2290	 4.0460
 3.2310	 4.0690
 3.2330	 4.2300
 3.2350	 4.6910
 3.2370	 4.4390
 3.2390	 3.9010
 3.2410	 4.0080
 3.2430	 4.0370
 3.2450	 4.0230
 3.2470	 3.9600
 3.2490	 4.1480
 3.2510	 4.1780
 3.2530	 4.2250
 3.2550	 4.2500
 3.2570	 3.8990
 3.2590	 4.0150
 3.2610	 4.3450
 3.2630	 4.1870
 3.2650	 3.8020
 3.2670	 3.5820
 3.2690	 3.4610
 3.2720	 3.7770
 3.2740	 4.1300
 3.2760	 4.0660
 3.2780	 3.9330
 3.2800	 3.7220
 3.2820	 3.5400
 3.2840	 3.7130
 3.2860	 3.8280
 3.2880	 3.7600
 3.2900	 3.7830
 3.2920	 4.0300
 3.2940	 4.0670
 3.2960	 4.1100
 3.2990	 4.2490
 3.3010	 4.4440
 3.3030	 4.4200
 3.3050	 4.2960
 3.3070	 4.2140
 3.3090	 4.1760
 3.3110	 3.6740
 3.3130	 3.6380
 3.3150	 3.6060
 3.3180	 3.4920
 3.3200	 3.4340
 3.3220	 3.5230
 3.3240	 3.6450
 3.3260	 3.7010
 3.3280	 3.7730
 3.3300	 3.7030
 3.3330	 3.4320
 3.3350	 3.5030
 3.3370	 3.3880
 3.3390	 3.2050
 3.3410	 3.1250
 3.3430	 3.3810
 3.3450	 3.5590
 3.3480	 3.1830
 3.3500	 2.9790
 3.3520	 3.0890
 3.3540	 2.9220
 3.3560	 2.9510
 3.3580	 2.9920
 3.3610	 3.1840
 3.3630	 3.4090
 3.3650	 3.2750
 3.3670	 3.1060
 3.3690	 3.0010
 3.3720	 2.9720
 3.3740	 3.0660
 3.3760	 3.0220
 3.3780	 3.1980
 3.3800	 3.2640
 3.3830	 3.0330
 3.3850	 2.9380
 3.3870	 2.9030
 3.3890	 2.7280
 3.3910	 2.8620
 3.3940	 3.0120
 3.3960	 2.9880
 3.3980	 2.6880
 3.4000	 2.4260
 3.4020	 2.2840
 3.4050	 2.3470
 3.4070	 2.6510
 3.4090	 2.9860
 3.4110	 3.0370
 3.4140	 3.3370
 3.4160	 3.8550
 3.4180	 4.4980
 3.4200	 5.2180
 3.4230	 6.3190
 3.4250	 7.4530
 3.4270	 8.5060
 3.4290	 9.3130
 3.4320	 9.4320
 3.4340	 8.7320
 3.4360	 7.8610
 3.4390	 7.1030
 3.4410	 6.7680
 3.4430	 6.5890
 3.4450	 6.5610
 3.4480	 6.2990
 3.4500	 6.4640
 3.4520	 6.6630
 3.4550	 6.5600
 3.4570	 6.2260
 3.4590	 5.9590
 3.4620	 5.8780
 3.4640	 5.8400
 3.4660	 5.5590
 3.4680	 5.5100
 3.4710	 5.4730
 3.4730	 5.1940
 3.4750	 5.0620
 3.4780	 5.1110
 3.4800	 5.0150
 3.4820	 4.8300
 3.4850	 4.8800
 3.4870	 4.8900
 3.4890	 4.7070
 3.4920	 4.4700
 3.4940	 4.1970
 3.4970	 4.1220
 3.4990	 4.2010
 3.5010	 4.3270
 3.5040	 4.8620
 3.5060	 6.0280
 3.5080	 7.6860
 3.5110	 9.1500
 3.5130	 9.3490
 3.5160	 8.7050
 3.5180	 8.0480
 3.5200	 7.4570
 3.5230	 7.0460
 3.5250	 6.9490
 3.5270	 6.8770
 3.5300	 6.8880
 3.5320	 6.8130
 3.5350	 6.5460
 3.5370	 6.2510
 3.5400	 5.9870
 3.5420	 6.0150
 3.5440	 6.2340
 3.5470	 6.3380
 3.5490	 6.2940
 3.5520	 6.0000
 3.5540	 5.7910
 3.5570	 5.8430
 3.5590	 5.8300
 3.5610	 5.6830
 3.5640	 5.6430
 3.5660	 5.7680
 3.5690	 6.0280
 3.5710	 5.9350
 3.5740	 5.7420
 3.5760	 5.7480
 3.5790	 5.7890
 3.5810	 5.6330
 3.5840	 5.5920
 3.5860	 5.5940
 3.5890	 5.5630
 3.5910	 5.3310
 3.5930	 5.1950
 3.5960	 5.2040
 3.5980	 5.1790
 3.6010	 5.5250
 3.6030	 5.7080
 3.6060	 5.6250
 3.6080	 5.8880
 3.6110	 5.9790
 3.6140	 5.8830
 3.6160	 5.6830
 3.6190	 5.7020
 3.6210	 5.6040
 3.6240	 5.5980
 3.6260	 5.6080
 3.6290	 5.6140
 3.6310	 5.5140
 3.6340	 5.5710
 3.6360	 5.6690
 3.6390	 5.6470
 3.6410	 5.5820
 3.6440	 5.6280
 3.6470	 5.6750
 3.6490	 5.7100
 3.6520	 5.6150
 3.6540	 5.6380
 3.6570	 5.6660
 3.6590	 5.6710
 3.6620	 5.5710
 3.6650	 5.6210
 3.6670	 5.6350
 3.6700	 5.7600
 3.6720	 5.7100
 3.6750	 5.7600
 3.6780	 5.7830
 3.6800	 5.8010
 3.6830	 5.8480
 3.6850	 5.8660
 3.6880	 5.8550
 3.6910	 5.8450
 3.6930	 5.8600
 3.6960	 5.9550
 3.6990	 5.9250
 3.7010	 5.9500
 3.7040	 5.9660
 3.7060	 5.8980
 3.7090	 5.9410
 3.7120	 6.0410
 3.7140	 5.9680
 3.7170	 5.9550
 3.7200	 5.9880
 3.7220	 5.9950
 3.7250	 5.8750
 3.7280	 5.9440
 3.7300	 5.9470
 3.7330	 6.0050
 3.7360	 5.9380
 3.7390	 6.0240
 3.7410	 6.1130
 3.7440	 6.0470
 3.7470	 6.0350
 3.7490	 6.1330
 3.7520	 6.0060
 3.7550	 5.9770
 3.7580	 6.1450
 3.7600	 6.2160
 3.7630	 6.1600
 3.7660	 6.2390
 3.7680	 6.3840
 3.7710	 6.4810
 3.7740	 6.4290
 3.7770	 6.2920
 3.7790	 6.3160
 3.7820	 6.3840
 3.7850	 6.4310
 3.7880	 6.4080
 3.7900	 6.3800
 3.7930	 6.3750
 3.7960	 6.4280
 3.7990	 6.5300
 3.8020	 6.5190
 3.8040	 6.3620
 3.8070	 6.3660
 3.8100	 6.6380
 3.8130	 6.6030
 3.8160	 6.5970
 3.8180	 6.7350
 3.8210	 6.8170
 3.8240	 6.6620
 3.8270	 6.5670
 3.8300	 6.5180
 3.8330	 6.6040
 3.8350	 6.5660
 3.8380	 6.6710
 3.8410	 6.6950
 3.8440	 6.5620
 3.8470	 6.6470
 3.8500	 6.6950
 3.8520	 6.6610
 3.8550	 6.8120
 3.8580	 6.9380
 3.8610	 6.9080
 3.8640	 6.7760
 3.8670	 6.7230
 3.8700	 6.8120
 3.8730	 6.9010
 3.8750	 6.9830
 3.8780	 6.9680
 3.8810	 6.9090
 3.8840	 6.9920
 3.8870	 6.9050
 3.8900	 6.8200
 3.8930	 6.8050
 3.8960	 6.8960
 3.8990	 6.8810
 3.9020	 6.9220
 3.9050	 7.0120
 3.9080	 7.1550
 3.9110	 7.1550
 3.9140	 6.9800
 3.9160	 6.9150
 3.9190	 7.0010
 3.9220	 7.0630
 3.9250	 7.1330
 3.9280	 7.1390
 3.9310	 7.1900
 3.9340	 7.2580
 3.9370	 7.1730
 3.9400	 7.0790
 3.9430	 7.1000
 3.9460	 7.2180
 3.9490	 7.2700
 3.9520	 7.1560
 3.9550	 7.1790
 3.9580	 7.1990
 3.9610	 7.0910
 3.9640	 7.0190
 3.9670	 7.1560
 3.9700	 7.1380
 3.9730	 7.1840
 3.9770	 7.2250
 3.9800	 7.1710
 3.9830	 7.1340
 3.9860	 7.1300
 3.9890	 7.0480
 3.9920	 7.1080
 3.9950	 7.1370
 3.9980	 7.0860
 4.0010	 7.0690
 4.0040	 7.1310
 4.0070	 7.1520
 4.0100	 7.1780
 4.0130	 7.1290
 4.0170	 7.0490
 4.0200	 7.1330
 4.0230	 7.1610
 4.0260	 7.0180
 4.0290	 7.0440
 4.0320	 7.0840
 4.0350	 7.0540
 4.0380	 7.0740
 4.0420	 7.1310
 4.0450	 7.1240
 4.0480	 7.1340
 4.0510	 7.1240
 4.0540	 7.1570
 4.0570	 7.1250
 4.0610	 7.1670
 4.0640	 7.0650
 4.0670	 6.9760
 4.0700	 6.8750
 4.0730	 6.8700
 4.0770	 6.9700
 4.0800	 7.0370
 4.0830	 7.0380
 4.0860	 7.0180
 4.0890	 6.9560
 4.0930	 6.9000
 4.0960	 6.9050
 4.0990	 6.9180
 4.1020	 7.0160
 4.1060	 7.1090
 4.1090	 6.9380
 4.1120	 6.7100
 4.1150	 6.8320
 4.1190	 7.0260
 4.1220	 6.9580
 4.1250	 6.7980
 4.1280	 6.8570
 4.1320	 6.8550
 4.1350	 6.8050
 4.1380	 6.8240
 4.1420	 6.7780
 4.1450	 6.7270
 4.1480	 6.6710
 4.1520	 6.7110
 4.1550	 6.7730
 4.1580	 6.7110
 4.1620	 6.6690
 4.1650	 6.7120
 4.1680	 6.7440
 4.1720	 6.7480
 4.1750	 6.7010
 4.1780	 6.7030
 4.1820	 6.6900
 4.1850	 6.6670
 4.1890	 6.5380
 4.1920	 6.5570
 4.1950	 6.5140
 4.1990	 6.5320
 4.2020	 6.4900
 4.2060	 6.3270
 4.2090	 6.1480
 4.2120	 6.0890
 4.2160	 5.8630
 4.2190	 5.6400
 4.2230	 5.5020
 4.2260	 5.4880
 4.2300	 5.3780
 4.2330	 5.4340
 4.2360	 5.2880
 4.2400	 5.0650
 4.2430	 5.0640
 4.2470	 5.4340
 4.2500	 5.5610
 4.2540	 5.6820
 4.2570	 5.8570
 4.2610	 5.7770
 4.2640	 5.7170
 4.2680	 5.5300
 4.2710	 5.2420
 4.2750	 5.5230
 4.2780	 5.7040
 4.2820	 5.6260
 4.2850	 5.5710
 4.2890	 5.3480
 4.2930	 5.2280
 4.2960	 5.2890
 4.3000	 5.4280
 4.3030	 5.4610
 4.3070	 5.5280
 4.3100	 5.6130
 4.3140	 5.5700
 4.3180	 5.6710
 4.3210	 5.7510
 4.3250	 5.7490
 4.3280	 5.6880
 4.3320	 5.5820
 4.3360	 5.6120
 4.3390	 5.8010
 4.3430	 5.7900
 4.3470	 5.7980
 4.3500	 5.8380
 4.3540	 5.8270
 4.3570	 5.7930
 4.3610	 5.8040
 4.3650	 5.7840
 4.3680	 5.8660
 4.3720	 5.8960
 4.3760	 5.7660
 4.3800	 5.7250
 4.3830	 5.6900
 4.3870	 5.6100
 4.3910	 5.6410
 4.3940	 5.6540
 4.3980	 5.5910
 4.4020	 5.4920
 4.4060	 5.5570
 4.4090	 5.5810
 4.4130	 5.5120
 4.4170	 5.5870
 4.4210	 5.6960
 4.4240	 5.7530
 4.4280	 5.6550
 4.4320	 5.4940
 4.4360	 5.4500
 4.4400	 5.4720
 4.4430	 5.4230
 4.4470	 5.4270
 4.4510	 5.5000
 4.4550	 5.4740
 4.4590	 5.4030
 4.4620	 5.3720
 4.4660	 5.3480
 4.4700	 5.3620
 4.4740	 5.3500
 4.4780	 5.3650
 4.4820	 5.4450
 4.4860	 5.4540
 4.4900	 5.3320
 4.4930	 5.2830
 4.4970	 5.3360
 4.5010	 5.4050
 4.5050	 5.4020
 4.5090	 5.3080
 4.5130	 5.2830
 4.5170	 5.3200
 4.5210	 5.3360
 4.5250	 5.3110
 4.5290	 5.2300
 4.5330	 5.2120
 4.5370	 5.2790
 4.5410	 5.3030
 4.5450	 5.2820
 4.5490	 5.2610
 4.5530	 5.2210
 4.5570	 5.1970
 4.5610	 5.2380
 4.5650	 5.2420
 4.5690	 5.2130
 4.5730	 5.1800
 4.5770	 5.2970
 4.5810	 5.2470
 4.5850	 5.1240
 4.5890	 5.1310
 4.5930	 5.1920
 4.5970	 5.1920
 4.6010	 5.0680
 4.6050	 5.0650
 4.6090	 5.2940
 4.6130	 5.3900
 4.6170	 5.2250
 4.6220	 5.2210
 4.6260	 5.1780
 4.6300	 4.9990
 4.6340	 5.2360
 4.6380	 5.1970
 4.6420	 4.9950
 4.6460	 5.0340
 4.6510	 5.1140
 4.6550	 5.1130
 4.6590	 5.0360
 4.6630	 5.0310
 4.6670	 4.9140
 4.6720	 4.9330
 4.6760	 5.1450
 4.6800	 5.1380
 4.6840	 5.0100
 4.6880	 5.0730
 4.6930	 5.1420
 4.6970	 5.1330
 4.7010	 5.1620
 4.7050	 5.1600
 4.7100	 5.1290
 4.7140	 5.1190
 4.7180	 5.0140
 4.7230	 4.9610
 4.7270	 4.9590
 4.7310	 4.9350
 4.7360	 4.9110
 4.7400	 4.9430
 4.7440	 5.0120
 4.7490	 4.9620
 4.7530	 4.9760
 4.7570	 5.0510
 4.7620	 5.1420
 4.7660	 5.2180
 4.7700	 5.1790
 4.7750	 4.9480
 4.7790	 4.6670
 4.7840	 4.6300
 4.7880	 5.0580
 4.7920	 5.1530
 4.7970	 5.0800
 4.8010	 4.9130
 4.8060	 4.8330
 4.8100	 4.9740
 4.8150	 4.8710
 4.8190	 4.8450
 4.8240	 4.9680
 4.8280	 5.1030
 4.8330	 5.0680
 4.8370	 5.0640
 4.8420	 5.1490
 4.8460	 5.1630
 4.8510	 5.0970
 4.8550	 5.0200
 4.8600	 5.0870
 4.8640	 5.2230
 4.8690	 5.1480
 4.8730	 5.0980
 4.8780	 5.1790
 4.8830	 5.1070
 4.8870	 4.9590
 4.8920	 5.0410
 4.8960	 5.1460
 4.9010	 5.2510
 4.9060	 5.2730
 4.9100	 5.2110
 4.9150	 5.1930
 4.9200	 5.1900
 4.9240	 5.1310
 4.9290	 5.1770
 4.9340	 5.1810
 4.9380	 5.2070
 4.9430	 5.1930
 4.9480	 5.1870
 4.9530	 5.2200
 4.9570	 5.2200
 4.9620	 5.2180
 4.9670	 5.2840
 4.9720	 5.2510
 4.9760	 5.2560
 4.9810	 5.2380
 4.9860	 5.2760
 4.9910	 5.2810
 4.9960	 5.2500
 5.0000	 5.2070
 5.0050	 5.2490
 5.0100	 5.3430
 5.0150	 5.4620
 5.0200	 5.4950
 5.0250	 5.4370
 5.0290	 5.4140
 5.0340	 5.4210
 5.0390	 5.4520
 5.0440	 5.5060
 5.0490	 5.4400
 5.0540	 5.3740
 5.0590	 5.4740
 5.0640	 5.5620
 5.0690	 5.4810
 5.0740	 5.4690
 5.0790	 5.4850
 5.0840	 5.5700
 5.0890	 5.6410
 5.0940	 5.6580
 5.0990	 5.5190
 5.1040	 5.5440
 5.1090	 5.6570
 5.1140	 5.6380
 5.1190	 5.6040
 5.1240	 5.6290
 5.1290	 5.7710
 5.1340	 5.8610
 5.1390	 5.7590
 5.1440	 5.7040
 5.1490	 5.7620
 5.1540	 5.7690
 5.1600	 5.7410
 5.1650	 5.7930
 5.1700	 5.8280
 5.1750	 6.0130
 5.1800	 6.0470
 5.1850	 5.9940
 5.1910	 5.9290
 5.1960	 5.9470
 5.2010	 5.8560
 5.2060	 5.8330
 5.2110	 5.8940
 5.2170	 5.9460
 5.2220	 5.9670
 5.2270	 5.9450
 5.2320	 5.8660
 5.2380	 5.8630
 5.2430	 5.8570
 5.2480	 5.8800
 5.2540	 5.8860
 5.2590	 5.9900
 5.2640	 6.0540
 5.2700	 6.0090
 5.2750	 5.8830
 5.2800	 5.9710
 5.2860	 6.0450
 5.2910	 6.0270
 5.2970	 5.9370
 5.3020	 5.9650
 5.3070	 5.9730
 5.3130	 6.0060
 5.3180	 5.9400
 5.3240	 5.9340
 5.3290	 5.9840
 5.3350	 5.9420
 5.3400	 5.8660
 5.3460	 5.9300
 5.3510	 5.9100
 5.3570	 5.9350
 5.3620	 5.9940
 5.3680	 5.9350
 5.3730	 5.8470
 5.3790	 5.8730
 5.3850	 5.9110
 5.3900	 5.8930
 5.3960	 5.8230
 5.4010	 5.8790
 5.4070	 5.8240
 5.4130	 5.7080
 5.4180	 5.6010
 5.4240	 5.6700
 5.4300	 5.7950
 5.4350	 5.7870
 5.4410	 5.6820
 5.4470	 5.5920
 5.4530	 5.5850
 5.4580	 5.6700
