Name: Baccharis pilularis 1
Type: vegetation
Class: Shrub
Genus: Baccharis
Species: pilularis
Sample No.: VH031
Owner: UCSB
Wavelength Range: TIR
Origin: 34.5084; -119.7687; WGS84
Collection Date: 4/1/2013
Description: Samples were collected as part of the HyspIRI Airborne Campaign. 48 individual plants were sampled in three times in 2013 - spring  summer  and fall. The name of the sample includes a 1  2  or 3 which references a different individual of the species. Samples were taken to JPL and processed within 48 hours of collection. The same leaves were processed in the Nicolet and then measured using the ASD.
Measurement: Hemispherical reflectance
First Column: X
Second Column: Y
X Units: Wavelength (micrometers)
Y Units: Reflectance (percentage)
First X Value: 2.501
Last X Value: 15.387
Number of X Values: 1737
Additional Information: vegetation.shrub.baccharis.pilularis.tir.vh031.ucsb.nicolet.ancillary.txt

 2.5010	 7.0350
 2.5030	 7.1600
 2.5040	 7.3320
 2.5050	 7.1810
 2.5060	 7.1720
 2.5070	 7.2830
 2.5090	 7.2450
 2.5100	 6.9970
 2.5110	 6.9650
 2.5120	 6.9870
 2.5140	 7.1380
 2.5150	 7.1540
 2.5160	 7.1110
 2.5170	 7.1390
 2.5180	 7.1220
 2.5200	 7.0380
 2.5210	 7.0210
 2.5220	 7.0310
 2.5230	 7.1440
 2.5250	 7.1800
 2.5260	 7.2190
 2.5270	 7.1080
 2.5280	 7.0560
 2.5290	 7.1290
 2.5310	 7.0580
 2.5320	 6.9610
 2.5330	 7.0310
 2.5340	 6.9910
 2.5360	 7.0610
 2.5370	 7.1040
 2.5380	 7.0940
 2.5390	 7.1810
 2.5410	 7.2310
 2.5420	 7.2000
 2.5430	 7.0230
 2.5440	 6.8940
 2.5460	 7.0210
 2.5470	 7.1510
 2.5480	 7.3110
 2.5490	 7.1450
 2.5510	 7.0660
 2.5520	 7.1750
 2.5530	 7.3010
 2.5540	 7.1830
 2.5560	 7.0640
 2.5570	 7.0510
 2.5580	 7.1260
 2.5590	 7.0650
 2.5610	 7.1430
 2.5620	 7.0960
 2.5630	 7.1300
 2.5640	 7.1420
 2.5660	 7.1340
 2.5670	 7.0650
 2.5680	 7.1210
 2.5700	 7.1810
 2.5710	 7.2260
 2.5720	 7.1750
 2.5730	 7.0740
 2.5750	 6.9510
 2.5760	 7.0040
 2.5770	 7.1550
 2.5790	 7.2170
 2.5800	 7.1910
 2.5810	 7.2540
 2.5820	 7.1990
 2.5840	 7.0930
 2.5850	 6.9840
 2.5860	 7.0550
 2.5880	 7.0950
 2.5890	 7.0990
 2.5900	 7.1180
 2.5910	 7.2200
 2.5930	 7.2240
 2.5940	 7.1150
 2.5950	 7.0140
 2.5970	 7.0200
 2.5980	 6.9110
 2.5990	 6.9630
 2.6000	 7.0530
 2.6020	 7.1930
 2.6030	 7.0710
 2.6040	 7.0420
 2.6060	 7.1480
 2.6070	 7.2410
 2.6080	 7.0600
 2.6100	 6.9690
 2.6110	 7.0080
 2.6120	 7.1510
 2.6140	 7.1840
 2.6150	 7.2890
 2.6160	 7.1230
 2.6180	 7.0280
 2.6190	 7.0450
 2.6200	 7.1730
 2.6220	 7.1460
 2.6230	 7.1560
 2.6240	 7.0860
 2.6260	 7.0440
 2.6270	 7.1160
 2.6280	 7.1150
 2.6300	 6.9250
 2.6310	 6.9780
 2.6320	 6.9980
 2.6340	 7.0070
 2.6350	 7.1010
 2.6360	 7.1060
 2.6380	 7.0590
 2.6390	 7.0410
 2.6400	 7.0530
 2.6420	 7.1500
 2.6430	 7.0510
 2.6440	 7.0430
 2.6460	 6.9730
 2.6470	 7.0370
 2.6480	 7.0000
 2.6500	 6.9190
 2.6510	 6.9860
 2.6520	 7.0940
 2.6540	 6.9950
 2.6550	 6.9700
 2.6560	 7.0320
 2.6580	 7.0750
 2.6590	 7.0180
 2.6610	 7.0290
 2.6620	 6.7880
 2.6630	 6.6170
 2.6650	 6.7060
 2.6660	 6.8470
 2.6670	 6.8400
 2.6690	 6.7840
 2.6700	 6.7570
 2.6720	 6.7870
 2.6730	 6.8930
 2.6740	 7.0160
 2.6760	 6.9450
 2.6770	 6.8010
 2.6780	 6.6380
 2.6800	 6.6460
 2.6810	 6.7370
 2.6830	 6.7690
 2.6840	 6.7520
 2.6850	 6.9180
 2.6870	 6.9830
 2.6880	 7.1260
 2.6900	 7.0760
 2.6910	 6.8820
 2.6920	 6.8030
 2.6940	 6.8210
 2.6950	 6.7780
 2.6970	 6.7300
 2.6980	 6.7350
 2.6990	 6.8550
 2.7010	 6.8210
 2.7020	 6.8720
 2.7040	 6.7790
 2.7050	 6.8030
 2.7060	 6.7800
 2.7080	 6.7610
 2.7090	 6.7780
 2.7110	 6.8310
 2.7120	 6.7840
 2.7130	 6.7220
 2.7150	 6.6460
 2.7160	 6.6620
 2.7180	 6.6070
 2.7190	 6.6880
 2.7210	 6.6540
 2.7220	 6.5390
 2.7230	 6.4830
 2.7250	 6.5240
 2.7260	 6.4300
 2.7280	 6.4740
 2.7290	 6.6840
 2.7310	 6.7730
 2.7320	 6.5580
 2.7330	 6.5340
 2.7350	 6.6390
 2.7360	 6.6670
 2.7380	 6.6040
 2.7390	 6.6730
 2.7410	 6.6880
 2.7420	 6.7590
 2.7440	 6.6260
 2.7450	 6.5520
 2.7470	 6.5530
 2.7480	 6.6780
 2.7490	 6.7400
 2.7510	 6.5760
 2.7520	 6.6060
 2.7540	 6.8180
 2.7550	 6.5500
 2.7570	 6.2640
 2.7580	 6.2130
 2.7600	 6.5550
 2.7610	 6.7320
 2.7630	 6.6030
 2.7640	 6.4430
 2.7660	 6.4960
 2.7670	 6.5040
 2.7680	 6.5960
 2.7700	 6.6310
 2.7710	 6.7480
 2.7730	 6.6780
 2.7740	 6.6560
 2.7760	 6.6640
 2.7770	 6.6690
 2.7790	 6.6490
 2.7800	 6.6500
 2.7820	 6.4490
 2.7830	 6.5840
 2.7850	 6.5880
 2.7860	 6.4300
 2.7880	 6.4640
 2.7890	 6.4680
 2.7910	 6.3490
 2.7920	 6.4100
 2.7940	 6.5330
 2.7950	 6.7230
 2.7970	 6.7180
 2.7980	 6.4960
 2.8000	 6.3380
 2.8010	 6.4790
 2.8030	 6.5180
 2.8040	 6.5750
 2.8060	 6.5280
 2.8070	 6.5710
 2.8090	 6.5750
 2.8110	 6.5600
 2.8120	 6.5510
 2.8140	 6.6600
 2.8150	 6.6800
 2.8170	 6.7480
 2.8180	 6.5880
 2.8200	 6.5260
 2.8210	 6.5730
 2.8230	 6.5260
 2.8240	 6.4960
 2.8260	 6.6510
 2.8270	 6.6440
 2.8290	 6.5800
 2.8300	 6.5960
 2.8320	 6.6670
 2.8340	 6.6360
 2.8350	 6.6650
 2.8370	 6.6080
 2.8380	 6.6430
 2.8400	 6.4960
 2.8410	 6.3750
 2.8430	 6.4200
 2.8440	 6.4940
 2.8460	 6.5150
 2.8480	 6.6020
 2.8490	 6.6030
 2.8510	 6.5600
 2.8520	 6.6100
 2.8540	 6.7460
 2.8550	 6.6420
 2.8570	 6.5410
 2.8590	 6.4430
 2.8600	 6.5770
 2.8620	 6.6670
 2.8630	 6.5790
 2.8650	 6.4780
 2.8660	 6.4710
 2.8680	 6.5360
 2.8700	 6.5990
 2.8710	 6.5250
 2.8730	 6.5690
 2.8740	 6.5780
 2.8760	 6.5060
 2.8780	 6.4650
 2.8790	 6.6360
 2.8810	 6.5980
 2.8820	 6.6420
 2.8840	 6.8160
 2.8860	 6.8640
 2.8870	 6.6870
 2.8890	 6.5860
 2.8900	 6.5660
 2.8920	 6.6640
 2.8940	 6.6440
 2.8950	 6.6090
 2.8970	 6.5510
 2.8980	 6.5420
 2.9000	 6.6430
 2.9020	 6.8150
 2.9030	 6.7350
 2.9050	 6.6880
 2.9070	 6.5900
 2.9080	 6.5780
 2.9100	 6.4840
 2.9120	 6.5060
 2.9130	 6.6210
 2.9150	 6.6040
 2.9160	 6.4990
 2.9180	 6.6610
 2.9200	 6.6810
 2.9210	 6.5610
 2.9230	 6.4990
 2.9250	 6.6840
 2.9260	 6.6990
 2.9280	 6.5380
 2.9300	 6.4930
 2.9310	 6.6160
 2.9330	 6.6390
 2.9350	 6.5890
 2.9360	 6.5370
 2.9380	 6.6520
 2.9400	 6.5090
 2.9410	 6.5330
 2.9430	 6.6240
 2.9450	 6.7640
 2.9460	 6.7660
 2.9480	 6.8720
 2.9500	 6.9640
 2.9510	 6.8830
 2.9530	 6.5760
 2.9550	 6.5770
 2.9560	 6.5760
 2.9580	 6.3530
 2.9600	 6.4870
 2.9610	 6.9100
 2.9630	 7.0640
 2.9650	 6.8060
 2.9660	 6.5020
 2.9680	 6.5540
 2.9700	 6.5750
 2.9720	 6.5680
 2.9730	 6.5330
 2.9750	 6.5450
 2.9770	 6.7870
 2.9780	 6.5430
 2.9800	 6.4720
 2.9820	 6.6330
 2.9840	 6.6860
 2.9850	 6.8960
 2.9870	 7.0030
 2.9890	 6.8150
 2.9900	 6.0490
 2.9920	 5.9100
 2.9940	 6.5890
 2.9960	 6.7180
 2.9970	 6.5450
 2.9990	 7.0490
 3.0010	 6.8010
 3.0030	 6.3240
 3.0040	 6.7050
 3.0060	 6.7340
 3.0080	 6.4890
 3.0100	 6.5310
 3.0110	 6.2180
 3.0130	 6.3350
 3.0150	 6.7440
 3.0170	 7.0080
 3.0180	 6.8670
 3.0200	 6.9830
 3.0220	 6.8610
 3.0240	 6.7080
 3.0250	 6.3540
 3.0270	 6.2680
 3.0290	 6.8520
 3.0310	 7.3270
 3.0320	 6.7520
 3.0340	 6.2580
 3.0360	 6.8630
 3.0380	 6.9830
 3.0400	 7.0700
 3.0410	 7.1080
 3.0430	 6.4940
 3.0450	 6.5600
 3.0470	 6.9160
 3.0480	 7.1700
 3.0500	 7.2940
 3.0520	 7.2640
 3.0540	 6.7250
 3.0560	 6.4580
 3.0570	 6.4380
 3.0590	 6.1600
 3.0610	 6.0590
 3.0630	 6.3460
 3.0650	 6.2360
 3.0660	 6.1340
 3.0680	 6.4180
 3.0700	 6.7330
 3.0720	 6.6620
 3.0740	 6.7620
 3.0760	 6.9060
 3.0770	 6.8860
 3.0790	 6.5960
 3.0810	 6.4580
 3.0830	 6.5440
 3.0850	 6.6680
 3.0870	 6.7620
 3.0880	 6.6160
 3.0900	 6.5940
 3.0920	 6.7150
 3.0940	 6.8890
 3.0960	 7.0850
 3.0980	 7.0320
 3.0990	 7.1930
 3.1010	 7.0920
 3.1030	 6.8300
 3.1050	 6.7240
 3.1070	 6.8750
 3.1090	 6.7520
 3.1110	 6.7130
 3.1120	 6.8740
 3.1140	 6.7870
 3.1160	 6.7400
 3.1180	 6.9120
 3.1200	 6.8710
 3.1220	 6.8690
 3.1240	 6.8680
 3.1260	 7.0440
 3.1270	 7.1610
 3.1290	 7.2260
 3.1310	 6.9230
 3.1330	 6.7290
 3.1350	 6.8910
 3.1370	 7.0960
 3.1390	 6.8260
 3.1410	 6.6460
 3.1430	 6.6590
 3.1450	 6.9580
 3.1460	 7.0170
 3.1480	 7.0980
 3.1500	 6.9580
 3.1520	 7.0200
 3.1540	 6.9810
 3.1560	 6.8240
 3.1580	 7.1920
 3.1600	 7.1520
 3.1620	 6.9480
 3.1640	 7.0410
 3.1660	 6.9480
 3.1680	 6.4500
 3.1700	 6.1760
 3.1710	 6.6170
 3.1730	 6.6950
 3.1750	 6.4330
 3.1770	 6.2730
 3.1790	 6.5890
 3.1810	 6.7290
 3.1830	 6.3750
 3.1850	 6.0810
 3.1870	 5.9550
 3.1890	 6.1510
 3.1910	 6.9450
 3.1930	 7.0410
 3.1950	 6.9500
 3.1970	 7.0610
 3.1990	 6.9760
 3.2010	 6.7200
 3.2030	 6.6490
 3.2050	 6.6600
 3.2070	 6.6950
 3.2090	 6.7650
 3.2110	 6.7380
 3.2130	 6.7130
 3.2150	 6.7880
 3.2170	 6.7700
 3.2190	 6.8820
 3.2210	 6.8360
 3.2230	 6.6200
 3.2250	 6.5460
 3.2270	 6.6720
 3.2290	 6.7450
 3.2310	 6.7300
 3.2330	 6.6390
 3.2350	 6.7000
 3.2370	 6.6830
 3.2390	 6.7460
 3.2410	 6.7020
 3.2430	 6.6870
 3.2450	 6.7460
 3.2470	 6.8940
 3.2490	 6.9270
 3.2510	 6.7920
 3.2530	 6.7510
 3.2550	 6.8760
 3.2570	 6.8650
 3.2590	 6.7850
 3.2610	 6.7030
 3.2630	 6.8080
 3.2650	 6.8360
 3.2670	 6.7850
 3.2690	 6.7880
 3.2720	 6.9580
 3.2740	 6.8460
 3.2760	 6.7880
 3.2780	 6.7740
 3.2800	 6.7760
 3.2820	 6.6840
 3.2840	 6.7380
 3.2860	 6.8500
 3.2880	 6.8770
 3.2900	 6.7850
 3.2920	 6.6810
 3.2940	 6.5250
 3.2960	 6.6090
 3.2990	 6.5530
 3.3010	 6.5640
 3.3030	 6.6410
 3.3050	 6.6470
 3.3070	 6.7560
 3.3090	 6.8480
 3.3110	 6.6380
 3.3130	 6.5960
 3.3150	 6.6560
 3.3180	 6.6970
 3.3200	 6.6120
 3.3220	 6.6080
 3.3240	 6.6350
 3.3260	 6.5450
 3.3280	 6.4020
 3.3300	 6.4250
 3.3330	 6.4850
 3.3350	 6.4880
 3.3370	 6.3700
 3.3390	 6.3900
 3.3410	 6.4360
 3.3430	 6.4900
 3.3450	 6.3740
 3.3480	 6.3510
 3.3500	 6.3430
 3.3520	 6.4550
 3.3540	 6.5090
 3.3560	 6.4490
 3.3580	 6.3190
 3.3610	 6.3710
 3.3630	 6.3980
 3.3650	 6.4510
 3.3670	 6.3490
 3.3690	 6.3170
 3.3720	 6.3240
 3.3740	 6.4270
 3.3760	 6.5030
 3.3780	 6.5150
 3.3800	 6.5240
 3.3830	 6.5440
 3.3850	 6.5770
 3.3870	 6.5760
 3.3890	 6.4800
 3.3910	 6.4220
 3.3940	 6.3420
 3.3960	 6.3280
 3.3980	 6.3470
 3.4000	 6.4510
 3.4020	 6.5210
 3.4050	 6.6390
 3.4070	 6.8460
 3.4090	 7.0710
 3.4110	 7.2910
 3.4140	 7.7080
 3.4160	 8.1550
 3.4180	 8.6340
 3.4200	 9.1670
 3.4230	10.1660
 3.4250	11.3020
 3.4270	12.3580
 3.4290	12.7780
 3.4320	12.1830
 3.4340	10.9120
 3.4360	 9.9090
 3.4390	 9.1840
 3.4410	 8.7750
 3.4430	 8.5530
 3.4450	 8.5120
 3.4480	 8.4810
 3.4500	 8.4100
 3.4520	 8.2160
 3.4550	 8.1870
 3.4570	 8.1660
 3.4590	 8.0940
 3.4620	 7.9830
 3.4640	 7.9330
 3.4660	 7.8220
 3.4680	 7.8050
 3.4710	 7.7010
 3.4730	 7.6170
 3.4750	 7.4680
 3.4780	 7.3670
 3.4800	 7.2570
 3.4820	 7.2520
 3.4850	 7.2290
 3.4870	 7.1460
 3.4890	 7.0690
 3.4920	 7.1160
 3.4940	 7.2130
 3.4970	 7.3090
 3.4990	 7.4150
 3.5010	 7.6270
 3.5040	 8.0420
 3.5060	 8.9940
 3.5080	10.4260
 3.5110	11.6520
 3.5130	11.4560
 3.5160	10.3060
 3.5180	 9.3440
 3.5200	 8.8410
 3.5230	 8.4900
 3.5250	 8.3250
 3.5270	 8.1980
 3.5300	 8.0180
 3.5320	 7.7660
 3.5350	 7.7820
 3.5370	 7.8460
 3.5400	 7.8120
 3.5420	 7.8010
 3.5440	 7.7550
 3.5470	 7.6510
 3.5490	 7.6150
 3.5520	 7.6080
 3.5540	 7.5650
 3.5570	 7.5430
 3.5590	 7.6790
 3.5610	 7.6760
 3.5640	 7.6530
 3.5660	 7.4720
 3.5690	 7.3240
 3.5710	 7.3210
 3.5740	 7.3450
 3.5760	 7.3820
 3.5790	 7.4870
 3.5810	 7.5410
 3.5840	 7.4040
 3.5860	 7.3740
 3.5890	 7.4340
 3.5910	 7.4570
 3.5930	 7.5380
 3.5960	 7.5020
 3.5980	 7.4080
 3.6010	 7.4810
 3.6030	 7.4860
 3.6060	 7.3740
 3.6080	 7.3110
 3.6110	 7.3360
 3.6140	 7.4100
 3.6160	 7.3790
 3.6190	 7.3310
 3.6210	 7.2940
 3.6240	 7.2850
 3.6260	 7.2270
 3.6290	 7.2540
 3.6310	 7.2640
 3.6340	 7.2440
 3.6360	 7.1920
 3.6390	 7.2760
 3.6410	 7.2400
 3.6440	 7.1820
 3.6470	 7.2350
 3.6490	 7.2450
 3.6520	 7.1730
 3.6540	 7.1850
 3.6570	 7.1810
 3.6590	 7.1920
 3.6620	 7.1740
 3.6650	 7.1880
 3.6670	 7.2230
 3.6700	 7.2930
 3.6720	 7.2930
 3.6750	 7.2830
 3.6780	 7.2890
 3.6800	 7.2190
 3.6830	 7.1130
 3.6850	 7.1870
 3.6880	 7.2380
 3.6910	 7.2460
 3.6930	 7.1640
 3.6960	 7.2240
 3.6990	 7.2640
 3.7010	 7.2770
 3.7040	 7.2470
 3.7060	 7.2240
 3.7090	 7.1820
 3.7120	 7.1940
 3.7140	 7.2240
 3.7170	 7.2600
 3.7200	 7.2200
 3.7220	 7.2480
 3.7250	 7.2710
 3.7280	 7.2880
 3.7300	 7.2420
 3.7330	 7.2060
 3.7360	 7.1740
 3.7390	 7.1330
 3.7410	 7.1560
 3.7440	 7.3060
 3.7470	 7.3020
 3.7490	 7.1720
 3.7520	 7.2430
 3.7550	 7.2940
 3.7580	 7.2190
 3.7600	 7.1800
 3.7630	 7.1520
 3.7660	 7.0980
 3.7680	 7.1100
 3.7710	 7.1970
 3.7740	 7.1900
 3.7770	 7.1980
 3.7790	 7.1870
 3.7820	 7.2500
 3.7850	 7.1820
 3.7880	 7.0910
 3.7900	 7.1430
 3.7930	 7.1900
 3.7960	 7.1040
 3.7990	 7.0960
 3.8020	 7.1430
 3.8040	 7.1640
 3.8070	 7.1360
 3.8100	 7.1280
 3.8130	 7.0980
 3.8160	 7.0920
 3.8180	 7.1370
 3.8210	 7.2240
 3.8240	 7.1870
 3.8270	 7.2050
 3.8300	 7.1960
 3.8330	 7.1540
 3.8350	 7.1300
 3.8380	 7.1460
 3.8410	 7.2260
 3.8440	 7.2760
 3.8470	 7.2130
 3.8500	 7.1620
 3.8520	 7.1740
 3.8550	 7.1730
 3.8580	 7.0790
 3.8610	 7.1630
 3.8640	 7.1600
 3.8670	 7.1110
 3.8700	 7.1340
 3.8730	 7.1570
 3.8750	 7.1240
 3.8780	 7.1810
 3.8810	 7.1760
 3.8840	 7.2620
 3.8870	 7.2890
 3.8900	 7.1980
 3.8930	 7.0960
 3.8960	 7.1460
 3.8990	 7.1250
 3.9020	 7.0620
 3.9050	 7.0430
 3.9080	 7.0740
 3.9110	 7.1330
 3.9140	 7.2310
 3.9160	 7.2170
 3.9190	 7.2070
 3.9220	 7.1570
 3.9250	 7.1210
 3.9280	 7.1100
 3.9310	 7.1500
 3.9340	 7.1970
 3.9370	 7.1910
 3.9400	 7.1430
 3.9430	 7.1740
 3.9460	 7.1680
 3.9490	 7.1500
 3.9520	 7.1040
 3.9550	 7.0920
 3.9580	 7.1170
 3.9610	 7.1160
 3.9640	 7.0950
 3.9670	 7.1710
 3.9700	 7.1740
 3.9730	 7.1040
 3.9770	 7.0320
 3.9800	 7.1370
 3.9830	 7.2170
 3.9860	 7.2450
 3.9890	 7.1490
 3.9920	 7.1190
 3.9950	 7.1730
 3.9980	 7.2040
 4.0010	 7.1550
 4.0040	 7.0910
 4.0070	 7.0840
 4.0100	 7.1030
 4.0130	 7.0770
 4.0170	 7.0870
 4.0200	 7.0790
 4.0230	 7.1330
 4.0260	 7.2220
 4.0290	 7.2660
 4.0320	 7.2280
 4.0350	 7.1960
 4.0380	 7.1420
 4.0420	 7.1330
 4.0450	 7.1010
 4.0480	 7.1410
 4.0510	 7.0490
 4.0540	 6.9660
 4.0570	 7.0570
 4.0610	 7.1160
 4.0640	 7.1390
 4.0670	 7.1630
 4.0700	 7.1360
 4.0730	 7.1090
 4.0770	 7.0440
 4.0800	 7.0610
 4.0830	 7.0750
 4.0860	 7.1310
 4.0890	 7.1810
 4.0930	 7.1950
 4.0960	 7.2450
 4.0990	 7.2160
 4.1020	 7.2060
 4.1060	 7.2100
 4.1090	 7.1730
 4.1120	 7.1370
 4.1150	 7.0950
 4.1190	 7.1500
 4.1220	 7.1570
 4.1250	 7.1300
 4.1280	 7.1290
 4.1320	 7.2020
 4.1350	 7.1870
 4.1380	 7.1050
 4.1420	 7.1170
 4.1450	 7.2010
 4.1480	 7.2080
 4.1520	 7.1780
 4.1550	 7.1460
 4.1580	 7.1470
 4.1620	 7.1100
 4.1650	 7.1100
 4.1680	 7.1490
 4.1720	 7.0800
 4.1750	 7.0480
 4.1780	 7.1150
 4.1820	 7.1240
 4.1850	 7.1090
 4.1890	 7.0720
 4.1920	 7.1130
 4.1950	 7.1940
 4.1990	 7.2820
 4.2020	 7.2730
 4.2060	 7.2050
 4.2090	 7.1740
 4.2120	 7.1620
 4.2160	 7.1720
 4.2190	 7.2560
 4.2230	 7.3250
 4.2260	 7.5230
 4.2300	 7.9960
 4.2330	 7.8940
 4.2360	 7.2970
 4.2400	 7.0970
 4.2430	 7.1130
 4.2470	 7.1720
 4.2500	 6.9630
 4.2540	 6.9540
 4.2570	 7.0050
 4.2610	 7.2750
 4.2640	 7.6430
 4.2680	 7.6280
 4.2710	 7.5130
 4.2750	 7.4810
 4.2780	 7.1490
 4.2820	 6.9410
 4.2850	 7.1100
 4.2890	 7.2140
 4.2930	 7.3160
 4.2960	 7.2510
 4.3000	 7.1800
 4.3030	 7.1350
 4.3070	 7.2110
 4.3100	 7.3390
 4.3140	 7.2330
 4.3180	 7.1010
 4.3210	 7.1030
 4.3250	 7.1350
 4.3280	 7.0520
 4.3320	 7.0450
 4.3360	 7.0190
 4.3390	 6.9690
 4.3430	 6.8890
 4.3470	 6.8660
 4.3500	 6.8270
 4.3540	 6.9210
 4.3570	 7.0080
 4.3610	 6.9380
 4.3650	 6.9560
 4.3680	 7.0000
 4.3720	 6.9890
 4.3760	 7.0670
 4.3800	 7.0480
 4.3830	 6.9980
 4.3870	 6.9530
 4.3910	 6.9930
 4.3940	 6.9950
 4.3980	 6.9530
 4.4020	 6.9290
 4.4060	 6.9850
 4.4090	 6.9950
 4.4130	 6.9560
 4.4170	 6.9650
 4.4210	 6.9950
 4.4240	 6.9900
 4.4280	 6.9470
 4.4320	 6.8920
 4.4360	 6.9750
 4.4400	 7.0300
 4.4430	 7.0230
 4.4470	 7.0270
 4.4510	 7.0180
 4.4550	 6.9780
 4.4590	 6.8940
 4.4620	 6.8480
 4.4660	 6.9270
 4.4700	 6.9690
 4.4740	 6.9810
 4.4780	 6.9700
 4.4820	 6.9170
 4.4860	 6.9200
 4.4900	 7.0130
 4.4930	 6.9720
 4.4970	 6.9950
 4.5010	 7.0340
 4.5050	 7.0170
 4.5090	 6.9950
 4.5130	 6.9310
 4.5170	 6.9290
 4.5210	 6.9770
 4.5250	 6.9900
 4.5290	 7.0710
 4.5330	 7.0130
 4.5370	 6.9750
 4.5410	 7.0060
 4.5450	 6.9470
 4.5490	 6.9110
 4.5530	 6.8610
 4.5570	 6.8500
 4.5610	 6.8710
 4.5650	 6.8770
 4.5690	 6.8940
 4.5730	 6.8880
 4.5770	 6.9480
 4.5810	 6.9660
 4.5850	 6.9040
 4.5890	 6.9190
 4.5930	 7.0100
 4.5970	 6.9980
 4.6010	 6.9800
 4.6050	 6.9480
 4.6090	 6.8940
 4.6130	 7.0110
 4.6170	 7.0000
 4.6220	 6.9860
 4.6260	 6.9750
 4.6300	 6.8900
 4.6340	 6.9660
 4.6380	 7.0190
 4.6420	 6.9050
 4.6460	 6.8980
 4.6510	 6.8830
 4.6550	 6.8660
 4.6590	 6.8730
 4.6630	 6.9360
 4.6670	 7.0080
 4.6720	 6.9520
 4.6760	 6.8990
 4.6800	 6.9000
 4.6840	 6.8650
 4.6880	 6.8690
 4.6930	 6.8340
 4.6970	 6.8740
 4.7010	 6.9650
 4.7050	 7.0140
 4.7100	 7.0300
 4.7140	 6.9950
 4.7180	 6.8920
 4.7230	 6.8520
 4.7270	 6.8120
 4.7310	 6.8480
 4.7360	 6.9300
 4.7400	 6.8650
 4.7440	 6.8510
 4.7490	 6.8620
 4.7530	 6.8690
 4.7570	 6.8670
 4.7620	 6.9100
 4.7660	 6.9240
 4.7700	 6.9360
 4.7750	 6.9570
 4.7790	 6.9420
 4.7840	 6.8990
 4.7880	 6.8790
 4.7920	 6.8840
 4.7970	 6.8810
 4.8010	 6.9380
 4.8060	 6.9440
 4.8100	 6.9350
 4.8150	 6.8400
 4.8190	 6.8020
 4.8240	 6.7930
 4.8280	 6.7670
 4.8330	 6.8000
 4.8370	 6.8460
 4.8420	 6.8990
 4.8460	 6.8390
 4.8510	 6.7830
 4.8550	 6.7570
 4.8600	 6.7970
 4.8640	 6.8290
 4.8690	 6.7940
 4.8730	 6.7820
 4.8780	 6.7730
 4.8830	 6.7680
 4.8870	 6.7370
 4.8920	 6.7530
 4.8960	 6.7940
 4.9010	 6.7980
 4.9060	 6.7450
 4.9100	 6.7300
 4.9150	 6.7460
 4.9200	 6.7360
 4.9240	 6.7140
 4.9290	 6.7730
 4.9340	 6.7640
 4.9380	 6.7660
 4.9430	 6.7570
 4.9480	 6.7420
 4.9530	 6.7510
 4.9570	 6.7350
 4.9620	 6.6130
 4.9670	 6.6370
 4.9720	 6.7550
 4.9760	 6.7890
 4.9810	 6.7150
 4.9860	 6.7130
 4.9910	 6.7620
 4.9960	 6.7950
 5.0000	 6.7770
 5.0050	 6.7430
 5.0100	 6.6940
 5.0150	 6.6180
 5.0200	 6.5570
 5.0250	 6.6120
 5.0290	 6.6200
 5.0340	 6.6120
 5.0390	 6.6740
 5.0440	 6.7070
 5.0490	 6.7410
 5.0540	 6.7430
 5.0590	 6.6890
 5.0640	 6.6280
 5.0690	 6.5580
 5.0740	 6.6060
 5.0790	 6.6650
 5.0840	 6.7610
 5.0890	 6.7040
 5.0940	 6.6110
 5.0990	 6.6230
 5.1040	 6.6340
 5.1090	 6.7120
 5.1140	 6.8200
 5.1190	 6.7830
 5.1240	 6.6100
 5.1290	 6.4830
 5.1340	 6.5530
 5.1390	 6.6570
 5.1440	 6.6320
 5.1490	 6.5860
 5.1540	 6.6780
 5.1600	 6.7360
 5.1650	 6.6950
 5.1700	 6.6540
 5.1750	 6.7470
 5.1800	 6.7910
 5.1850	 6.7420
 5.1910	 6.6320
 5.1960	 6.6460
 5.2010	 6.6960
 5.2060	 6.6890
 5.2110	 6.6260
 5.2170	 6.7000
 5.2220	 6.7780
 5.2270	 6.7750
 5.2320	 6.6810
 5.2380	 6.6770
 5.2430	 6.6260
 5.2480	 6.5920
 5.2540	 6.6030
 5.2590	 6.6510
 5.2640	 6.6610
 5.2700	 6.6470
 5.2750	 6.5460
 5.2800	 6.5570
 5.2860	 6.6170
 5.2910	 6.5750
 5.2970	 6.5430
 5.3020	 6.6480
 5.3070	 6.6270
 5.3130	 6.5880
 5.3180	 6.6050
 5.3240	 6.5730
 5.3290	 6.5350
 5.3350	 6.5680
 5.3400	 6.5600
 5.3460	 6.5990
 5.3510	 6.5890
 5.3570	 6.5830
 5.3620	 6.5840
 5.3680	 6.5700
 5.3730	 6.5540
 5.3790	 6.5370
 5.3850	 6.5290
 5.3900	 6.5580
 5.3960	 6.5280
 5.4010	 6.5030
 5.4070	 6.5160
 5.4130	 6.5520
 5.4180	 6.5150
 5.4240	 6.5010
 5.4300	 6.4820
 5.4350	 6.5290
