Name: Ceanothus megacarpus 3
Type: vegetation
Class: Shrub
Genus: Ceanothus
Species: megacarpus
Sample No.: VH215
Owner: UCSB
Wavelength Range: TIR
Origin: 34.4909; -119.7914; WGS84
Collection Date: 10/13/2013
Description: Samples were collected as part of the HyspIRI Airborne Campaign. 48 individual plants were sampled in three times in 2013 - spring  summer  and fall. The name of the sample includes a 1  2  or 3 which references a different individual of the species. Samples were taken to JPL and processed within 48 hours of collection. The same leaves were processed in the Nicolet and then measured using the ASD.
Measurement: Hemispherical reflectance
First Column: X
Second Column: Y
X Units: Wavelength (micrometers)
Y Units: Reflectance (percentage)
First X Value: 2.501
Last X Value: 15.387
Number of X Values: 1737
Additional Information: vegetation.shrub.ceanothus.megacarpus.tir.vh215.ucsb.nicolet.ancillary.txt

 2.5010	 5.2260
 2.5030	 4.9200
 2.5040	 4.7940
 2.5050	 5.0700
 2.5060	 5.1840
 2.5070	 5.2340
 2.5090	 5.2530
 2.5100	 5.0050
 2.5110	 4.9220
 2.5120	 4.9500
 2.5140	 4.8820
 2.5150	 4.8400
 2.5160	 5.0060
 2.5170	 5.0200
 2.5180	 5.0260
 2.5200	 4.9270
 2.5210	 4.9400
 2.5220	 5.0290
 2.5230	 5.1610
 2.5250	 5.0440
 2.5260	 4.8950
 2.5270	 4.9360
 2.5280	 5.0820
 2.5290	 4.9120
 2.5310	 4.8780
 2.5320	 4.7660
 2.5330	 4.7220
 2.5340	 4.8930
 2.5360	 5.0110
 2.5370	 4.9970
 2.5380	 4.9580
 2.5390	 4.9900
 2.5410	 5.1410
 2.5420	 4.9960
 2.5430	 4.9890
 2.5440	 4.9350
 2.5460	 4.7280
 2.5470	 4.7320
 2.5480	 4.8440
 2.5490	 4.8310
 2.5510	 4.9880
 2.5520	 5.0510
 2.5530	 5.0000
 2.5540	 4.9330
 2.5560	 4.9400
 2.5570	 5.0150
 2.5580	 5.1930
 2.5590	 5.1910
 2.5610	 5.0630
 2.5620	 5.0060
 2.5630	 4.9550
 2.5640	 4.9620
 2.5660	 5.0780
 2.5670	 5.0310
 2.5680	 5.1240
 2.5700	 5.0900
 2.5710	 5.0090
 2.5720	 5.1020
 2.5730	 5.0910
 2.5750	 4.9750
 2.5760	 5.1460
 2.5770	 5.0940
 2.5790	 4.9870
 2.5800	 4.8740
 2.5810	 4.8960
 2.5820	 5.0160
 2.5840	 5.2350
 2.5850	 5.1210
 2.5860	 5.0260
 2.5880	 5.0460
 2.5890	 4.9830
 2.5900	 4.9760
 2.5910	 5.3120
 2.5930	 5.1190
 2.5940	 4.9890
 2.5950	 5.2230
 2.5970	 5.3330
 2.5980	 5.1590
 2.5990	 4.9940
 2.6000	 4.8980
 2.6020	 4.8110
 2.6030	 4.7600
 2.6040	 4.9290
 2.6060	 5.0080
 2.6070	 5.0240
 2.6080	 4.9500
 2.6100	 4.9050
 2.6110	 5.0700
 2.6120	 5.0350
 2.6140	 4.8130
 2.6150	 4.8530
 2.6160	 4.8080
 2.6180	 4.8080
 2.6190	 4.7520
 2.6200	 4.8850
 2.6220	 5.0120
 2.6230	 4.9710
 2.6240	 4.8370
 2.6260	 4.8510
 2.6270	 4.8460
 2.6280	 4.9810
 2.6300	 4.9300
 2.6310	 5.0160
 2.6320	 5.1730
 2.6340	 5.0250
 2.6350	 4.7790
 2.6360	 4.8360
 2.6380	 4.9030
 2.6390	 4.9920
 2.6400	 4.9390
 2.6420	 4.8000
 2.6430	 4.8550
 2.6440	 4.9420
 2.6460	 4.7370
 2.6470	 4.6170
 2.6480	 4.5880
 2.6500	 4.7570
 2.6510	 4.8760
 2.6520	 4.7990
 2.6540	 4.7630
 2.6550	 4.5550
 2.6560	 4.5260
 2.6580	 4.7650
 2.6590	 4.7330
 2.6610	 4.6590
 2.6620	 4.6800
 2.6630	 4.6470
 2.6650	 4.5140
 2.6660	 4.6180
 2.6670	 4.7790
 2.6690	 4.9570
 2.6700	 4.9150
 2.6720	 4.6290
 2.6730	 4.5340
 2.6740	 4.7360
 2.6760	 4.8420
 2.6770	 4.8130
 2.6780	 4.6300
 2.6800	 4.6430
 2.6810	 4.7090
 2.6830	 4.6680
 2.6840	 4.5450
 2.6850	 4.5180
 2.6870	 4.5180
 2.6880	 4.4430
 2.6900	 4.3800
 2.6910	 4.6140
 2.6920	 4.5400
 2.6940	 4.5020
 2.6950	 4.7880
 2.6970	 4.8940
 2.6980	 4.6260
 2.6990	 4.5940
 2.7010	 4.6510
 2.7020	 4.3840
 2.7040	 4.3470
 2.7050	 4.6200
 2.7060	 4.6160
 2.7080	 4.4500
 2.7090	 4.3280
 2.7110	 4.4290
 2.7120	 4.4400
 2.7130	 4.4210
 2.7150	 4.3470
 2.7160	 4.2840
 2.7180	 4.2950
 2.7190	 4.3530
 2.7210	 4.5090
 2.7220	 4.6330
 2.7230	 4.5130
 2.7250	 4.2680
 2.7260	 4.2390
 2.7280	 4.3600
 2.7290	 4.0470
 2.7310	 4.2190
 2.7320	 4.5230
 2.7330	 4.2490
 2.7350	 3.9350
 2.7360	 4.0480
 2.7380	 4.0890
 2.7390	 4.1480
 2.7410	 4.2770
 2.7420	 4.6180
 2.7440	 4.8110
 2.7450	 4.6140
 2.7470	 4.6670
 2.7480	 4.9190
 2.7490	 4.6890
 2.7510	 4.7380
 2.7520	 4.8550
 2.7540	 5.2380
 2.7550	 4.6990
 2.7570	 3.7750
 2.7580	 3.7330
 2.7600	 4.2750
 2.7610	 4.4620
 2.7630	 4.1130
 2.7640	 3.8090
 2.7660	 4.3380
 2.7670	 4.5910
 2.7680	 4.1550
 2.7700	 4.0160
 2.7710	 4.2420
 2.7730	 4.2640
 2.7740	 4.6160
 2.7760	 4.7520
 2.7770	 4.8080
 2.7790	 4.5690
 2.7800	 4.4880
 2.7820	 4.5440
 2.7830	 4.1480
 2.7850	 3.8790
 2.7860	 4.1310
 2.7880	 4.2240
 2.7890	 3.8740
 2.7910	 3.6140
 2.7920	 3.9880
 2.7940	 4.4160
 2.7950	 4.5530
 2.7970	 4.5060
 2.7980	 4.2840
 2.8000	 4.1070
 2.8010	 4.1880
 2.8030	 4.0500
 2.8040	 3.9260
 2.8060	 3.9480
 2.8070	 4.0940
 2.8090	 4.1850
 2.8110	 4.2700
 2.8120	 4.1190
 2.8140	 3.9130
 2.8150	 4.2010
 2.8170	 4.1770
 2.8180	 3.9360
 2.8200	 4.1610
 2.8210	 4.3200
 2.8230	 4.4170
 2.8240	 4.1380
 2.8260	 3.8960
 2.8270	 3.9790
 2.8290	 3.8770
 2.8300	 3.8120
 2.8320	 4.0230
 2.8340	 4.3990
 2.8350	 4.4960
 2.8370	 4.2150
 2.8380	 4.2440
 2.8400	 4.1350
 2.8410	 4.2010
 2.8430	 4.2870
 2.8440	 4.0700
 2.8460	 3.9990
 2.8480	 4.0710
 2.8490	 3.8690
 2.8510	 3.7880
 2.8520	 3.9510
 2.8540	 3.8950
 2.8550	 3.8380
 2.8570	 3.9900
 2.8590	 4.0680
 2.8600	 4.0400
 2.8620	 3.8920
 2.8630	 3.9530
 2.8650	 3.9340
 2.8660	 4.0350
 2.8680	 3.9510
 2.8700	 3.6440
 2.8710	 3.7690
 2.8730	 4.0370
 2.8740	 3.8480
 2.8760	 3.9120
 2.8780	 4.0520
 2.8790	 4.1610
 2.8810	 3.9920
 2.8820	 3.6470
 2.8840	 3.6360
 2.8860	 3.5560
 2.8870	 3.6430
 2.8890	 4.0700
 2.8900	 4.0220
 2.8920	 3.8710
 2.8940	 3.6320
 2.8950	 3.8830
 2.8970	 4.1860
 2.8980	 4.1940
 2.9000	 3.9220
 2.9020	 4.0820
 2.9030	 4.2980
 2.9050	 4.0100
 2.9070	 3.7080
 2.9080	 3.4990
 2.9100	 3.7890
 2.9120	 4.0600
 2.9130	 4.1200
 2.9150	 3.8710
 2.9160	 3.9510
 2.9180	 4.0780
 2.9200	 4.0120
 2.9210	 3.9180
 2.9230	 3.9650
 2.9250	 4.0250
 2.9260	 4.1120
 2.9280	 4.1300
 2.9300	 3.9430
 2.9310	 3.6810
 2.9330	 3.7320
 2.9350	 3.8770
 2.9360	 3.8280
 2.9380	 3.7720
 2.9400	 3.7430
 2.9410	 3.7940
 2.9430	 3.8760
 2.9450	 3.9350
 2.9460	 4.5060
 2.9480	 4.6580
 2.9500	 4.5690
 2.9510	 4.3430
 2.9530	 4.5530
 2.9550	 4.6590
 2.9560	 3.8660
 2.9580	 3.9050
 2.9600	 4.4340
 2.9610	 3.4860
 2.9630	 2.5520
 2.9650	 2.2680
 2.9660	 2.4140
 2.9680	 2.9780
 2.9700	 4.3250
 2.9720	 4.9380
 2.9730	 3.2090
 2.9750	 2.6880
 2.9770	 1.4960
 2.9780	 0.9340
 2.9800	 3.2180
 2.9820	 4.7270
 2.9840	 3.8380
 2.9850	 4.2770
 2.9870	 4.8580
 2.9890	 4.4610
 2.9900	 5.3880
 2.9920	 6.8550
 2.9940	 8.5380
 2.9960	 5.9820
 2.9970	 4.5890
 2.9990	 5.2320
 3.0010	 3.1560
 3.0030	 3.8650
 3.0040	 5.9900
 3.0060	 5.4970
 3.0080	 3.8040
 3.0100	 2.9700
 3.0110	 1.2900
 3.0130	 1.8410
 3.0150	 4.0160
 3.0170	 4.3390
 3.0180	 2.7670
 3.0200	 2.5950
 3.0220	 3.9500
 3.0240	 4.2350
 3.0250	 3.1330
 3.0270	 2.9400
 3.0290	 4.2340
 3.0310	 6.0020
 3.0320	 5.8620
 3.0340	 4.1350
 3.0360	 3.8570
 3.0380	 5.8500
 3.0400	 7.9530
 3.0410	 5.9140
 3.0430	 4.0930
 3.0450	 3.4000
 3.0470	 3.2330
 3.0480	 5.1730
 3.0500	 6.8710
 3.0520	 5.8570
 3.0540	 4.7320
 3.0560	 3.9590
 3.0570	 2.8510
 3.0590	 2.0630
 3.0610	 3.7160
 3.0630	 5.5990
 3.0650	 5.4650
 3.0660	 3.2010
 3.0680	 1.4420
 3.0700	 2.9330
 3.0720	 3.2910
 3.0740	 3.2440
 3.0760	 4.0180
 3.0770	 4.1570
 3.0790	 3.8210
 3.0810	 3.5170
 3.0830	 3.9260
 3.0850	 3.9180
 3.0870	 4.0190
 3.0880	 4.2920
 3.0900	 4.0020
 3.0920	 3.6970
 3.0940	 3.5490
 3.0960	 3.8590
 3.0980	 4.3360
 3.0990	 4.3580
 3.1010	 4.0570
 3.1030	 3.7410
 3.1050	 3.2890
 3.1070	 3.3830
 3.1090	 3.8290
 3.1110	 4.0940
 3.1120	 4.2890
 3.1140	 4.3650
 3.1160	 4.0850
 3.1180	 4.0480
 3.1200	 4.3270
 3.1220	 4.0940
 3.1240	 3.7470
 3.1260	 3.9840
 3.1270	 4.1900
 3.1290	 3.6910
 3.1310	 3.6840
 3.1330	 3.7430
 3.1350	 3.6990
 3.1370	 3.0070
 3.1390	 2.9600
 3.1410	 3.0400
 3.1430	 2.4860
 3.1450	 1.7280
 3.1460	 3.7140
 3.1480	 4.5790
 3.1500	 4.0080
 3.1520	 4.6290
 3.1540	 4.3220
 3.1560	 3.0040
 3.1580	 2.2330
 3.1600	 1.2260
 3.1620	 1.2310
 3.1640	 3.9730
 3.1660	 4.7080
 3.1680	 4.1500
 3.1700	 3.6620
 3.1710	 3.2620
 3.1730	 6.2830
 3.1750	 7.3480
 3.1770	 3.7900
 3.1790	 3.5070
 3.1810	 4.4610
 3.1830	 2.3220
 3.1850	 2.6070
 3.1870	 3.9860
 3.1890	 3.7170
 3.1910	 3.3050
 3.1930	 3.7250
 3.1950	 3.8810
 3.1970	 3.8930
 3.1990	 4.1280
 3.2010	 3.7730
 3.2030	 3.8210
 3.2050	 3.9770
 3.2070	 4.1460
 3.2090	 4.0040
 3.2110	 3.7760
 3.2130	 3.7240
 3.2150	 3.7110
 3.2170	 3.4430
 3.2190	 3.6170
 3.2210	 3.9210
 3.2230	 3.7020
 3.2250	 3.7050
 3.2270	 4.1860
 3.2290	 4.3460
 3.2310	 4.2520
 3.2330	 4.1240
 3.2350	 3.7580
 3.2370	 3.3840
 3.2390	 3.5640
 3.2410	 3.9300
 3.2430	 3.6740
 3.2450	 3.5030
 3.2470	 3.8010
 3.2490	 3.9630
 3.2510	 3.8370
 3.2530	 4.2700
 3.2550	 4.4020
 3.2570	 3.5160
 3.2590	 3.6770
 3.2610	 4.3200
 3.2630	 4.2490
 3.2650	 3.7760
 3.2670	 3.4370
 3.2690	 3.3970
 3.2720	 3.8190
 3.2740	 3.9330
 3.2760	 3.7490
 3.2780	 4.0330
 3.2800	 4.0950
 3.2820	 3.5520
 3.2840	 3.3260
 3.2860	 3.5740
 3.2880	 3.8220
 3.2900	 3.9760
 3.2920	 4.2020
 3.2940	 4.3600
 3.2960	 4.0140
 3.2990	 3.6410
 3.3010	 3.6190
 3.3030	 3.8810
 3.3050	 3.8790
 3.3070	 3.8150
 3.3090	 3.9080
 3.3110	 3.4950
 3.3130	 3.1480
 3.3150	 3.1360
 3.3180	 2.9690
 3.3200	 2.7590
 3.3220	 3.1800
 3.3240	 3.6600
 3.3260	 3.8040
 3.3280	 3.7050
 3.3300	 3.7890
 3.3330	 3.9040
 3.3350	 3.7870
 3.3370	 3.6470
 3.3390	 3.7200
 3.3410	 3.5830
 3.3430	 3.3490
 3.3450	 3.3610
 3.3480	 3.6530
 3.3500	 3.6460
 3.3520	 3.4870
 3.3540	 3.3360
 3.3560	 3.4970
 3.3580	 3.4300
 3.3610	 3.3460
 3.3630	 3.3190
 3.3650	 3.2960
 3.3670	 3.2920
 3.3690	 3.4070
 3.3720	 3.3630
 3.3740	 3.2790
 3.3760	 3.3530
 3.3780	 3.4290
 3.3800	 3.3760
 3.3830	 3.4310
 3.3850	 3.3720
 3.3870	 3.3590
 3.3890	 3.5140
 3.3910	 3.6200
 3.3940	 3.4110
 3.3960	 3.1980
 3.3980	 3.1430
 3.4000	 3.0440
 3.4020	 2.9920
 3.4050	 3.1320
 3.4070	 3.2270
 3.4090	 3.3250
 3.4110	 3.3220
 3.4140	 3.5350
 3.4160	 4.1480
 3.4180	 4.7610
 3.4200	 5.2190
 3.4230	 6.0850
 3.4250	 7.1090
 3.4270	 8.0920
 3.4290	 8.6550
 3.4320	 8.4640
 3.4340	 7.5930
 3.4360	 6.5570
 3.4390	 6.1010
 3.4410	 5.7430
 3.4430	 5.3800
 3.4450	 5.2550
 3.4480	 5.3890
 3.4500	 5.4400
 3.4520	 5.2670
 3.4550	 5.5690
 3.4570	 5.7120
 3.4590	 5.3530
 3.4620	 5.1730
 3.4640	 5.1300
 3.4660	 4.9780
 3.4680	 4.8760
 3.4710	 4.7690
 3.4730	 4.5900
 3.4750	 4.4920
 3.4780	 4.4520
 3.4800	 4.4510
 3.4820	 4.3990
 3.4850	 4.2090
 3.4870	 4.1000
 3.4890	 4.0530
 3.4920	 4.0890
 3.4940	 4.0850
 3.4970	 4.1140
 3.4990	 4.0490
 3.5010	 4.0980
 3.5040	 4.5260
 3.5060	 5.2310
 3.5080	 6.4620
 3.5110	 7.9160
 3.5130	 8.1160
 3.5160	 7.4820
 3.5180	 6.8450
 3.5200	 6.2660
 3.5230	 5.8280
 3.5250	 5.6090
 3.5270	 5.4890
 3.5300	 5.4570
 3.5320	 5.3270
 3.5350	 5.2430
 3.5370	 5.0490
 3.5400	 4.9220
 3.5420	 4.8280
 3.5440	 4.8630
 3.5470	 4.9170
 3.5490	 5.0580
 3.5520	 5.0670
 3.5540	 5.0200
 3.5570	 4.9310
 3.5590	 4.9050
 3.5610	 4.8630
 3.5640	 4.8960
 3.5660	 4.9240
 3.5690	 4.9700
 3.5710	 5.0150
 3.5740	 5.0260
 3.5760	 4.9170
 3.5790	 4.7930
 3.5810	 4.7960
 3.5840	 4.7510
 3.5860	 4.7590
 3.5890	 4.8650
 3.5910	 4.6990
 3.5930	 4.6800
 3.5960	 5.1500
 3.5980	 5.1090
 3.6010	 4.4640
 3.6030	 4.4310
 3.6060	 4.7010
 3.6080	 4.7820
 3.6110	 4.7390
 3.6140	 4.6150
 3.6160	 4.5810
 3.6190	 4.6690
 3.6210	 4.6950
 3.6240	 4.6200
 3.6260	 4.5760
 3.6290	 4.6650
 3.6310	 4.7080
 3.6340	 4.9100
 3.6360	 4.9590
 3.6390	 4.7480
 3.6410	 4.4750
 3.6440	 4.5200
 3.6470	 4.5760
 3.6490	 4.4940
 3.6520	 4.3640
 3.6540	 4.4760
 3.6570	 4.6880
 3.6590	 4.7950
 3.6620	 4.7470
 3.6650	 4.6090
 3.6670	 4.4680
 3.6700	 4.3800
 3.6720	 4.3020
 3.6750	 4.3370
 3.6780	 4.4500
 3.6800	 4.5640
 3.6830	 4.4570
 3.6850	 4.4170
 3.6880	 4.5240
 3.6910	 4.5880
 3.6930	 4.5420
 3.6960	 4.5430
 3.6990	 4.5600
 3.7010	 4.6300
 3.7040	 4.6510
 3.7060	 4.6990
 3.7090	 4.6320
 3.7120	 4.4450
 3.7140	 4.3920
 3.7170	 4.4730
 3.7200	 4.6280
 3.7220	 4.7000
 3.7250	 4.5380
 3.7280	 4.5840
 3.7300	 4.6380
 3.7330	 4.6500
 3.7360	 4.6260
 3.7390	 4.4610
 3.7410	 4.2430
 3.7440	 4.3480
 3.7470	 4.5010
 3.7490	 4.4240
 3.7520	 4.3930
 3.7550	 4.5480
 3.7580	 4.5160
 3.7600	 4.2810
 3.7630	 4.1450
 3.7660	 4.2520
 3.7680	 4.4680
 3.7710	 4.5220
 3.7740	 4.4920
 3.7770	 4.5420
 3.7790	 4.4180
 3.7820	 4.4160
 3.7850	 4.4980
 3.7880	 4.4710
 3.7900	 4.4540
 3.7930	 4.5510
 3.7960	 4.5400
 3.7990	 4.4620
 3.8020	 4.4890
 3.8040	 4.6530
 3.8070	 4.6230
 3.8100	 4.5160
 3.8130	 4.4660
 3.8160	 4.5250
 3.8180	 4.5170
 3.8210	 4.5670
 3.8240	 4.5750
 3.8270	 4.4730
 3.8300	 4.4100
 3.8330	 4.3710
 3.8350	 4.4290
 3.8380	 4.5360
 3.8410	 4.5360
 3.8440	 4.5710
 3.8470	 4.4430
 3.8500	 4.4350
 3.8520	 4.4640
 3.8550	 4.4680
 3.8580	 4.5160
 3.8610	 4.5170
 3.8640	 4.4910
 3.8670	 4.4790
 3.8700	 4.4960
 3.8730	 4.4540
 3.8750	 4.4360
 3.8780	 4.4750
 3.8810	 4.4330
 3.8840	 4.3950
 3.8870	 4.3810
 3.8900	 4.3470
 3.8930	 4.3170
 3.8960	 4.5220
 3.8990	 4.6900
 3.9020	 4.6540
 3.9050	 4.5440
 3.9080	 4.4520
 3.9110	 4.4620
 3.9140	 4.4220
 3.9160	 4.4360
 3.9190	 4.4720
 3.9220	 4.4350
 3.9250	 4.4180
 3.9280	 4.4440
 3.9310	 4.5170
 3.9340	 4.5450
 3.9370	 4.5250
 3.9400	 4.5000
 3.9430	 4.4600
 3.9460	 4.4190
 3.9490	 4.3870
 3.9520	 4.3850
 3.9550	 4.5120
 3.9580	 4.5580
 3.9610	 4.4900
 3.9640	 4.4920
 3.9670	 4.5540
 3.9700	 4.5600
 3.9730	 4.5220
 3.9770	 4.4410
 3.9800	 4.5380
 3.9830	 4.5750
 3.9860	 4.5400
 3.9890	 4.5460
 3.9920	 4.5650
 3.9950	 4.4890
 3.9980	 4.4110
 4.0010	 4.3630
 4.0040	 4.4290
 4.0070	 4.4790
 4.0100	 4.4000
 4.0130	 4.3930
 4.0170	 4.4360
 4.0200	 4.4760
 4.0230	 4.4360
 4.0260	 4.3470
 4.0290	 4.4040
 4.0320	 4.4610
 4.0350	 4.4730
 4.0380	 4.4610
 4.0420	 4.4200
 4.0450	 4.3860
 4.0480	 4.4310
 4.0510	 4.4370
 4.0540	 4.5560
 4.0570	 4.6070
 4.0610	 4.4960
 4.0640	 4.3880
 4.0670	 4.5080
 4.0700	 4.5050
 4.0730	 4.3970
 4.0770	 4.4360
 4.0800	 4.4230
 4.0830	 4.3740
 4.0860	 4.3630
 4.0890	 4.4010
 4.0930	 4.5270
 4.0960	 4.5370
 4.0990	 4.4950
 4.1020	 4.4890
 4.1060	 4.4470
 4.1090	 4.4620
 4.1120	 4.5280
 4.1150	 4.5290
 4.1190	 4.3320
 4.1220	 4.2090
 4.1250	 4.3290
 4.1280	 4.3850
 4.1320	 4.4910
 4.1350	 4.5890
 4.1380	 4.6270
 4.1420	 4.6070
 4.1450	 4.4680
 4.1480	 4.3460
 4.1520	 4.4210
 4.1550	 4.5130
 4.1580	 4.5560
 4.1620	 4.5020
 4.1650	 4.4180
 4.1680	 4.4010
 4.1720	 4.3990
 4.1750	 4.3660
 4.1780	 4.4180
 4.1820	 4.3660
 4.1850	 4.3770
 4.1890	 4.4750
 4.1920	 4.4840
 4.1950	 4.4850
 4.1990	 4.5180
 4.2020	 4.6860
 4.2060	 4.8190
 4.2090	 4.7160
 4.2120	 4.6970
 4.2160	 4.8550
 4.2190	 5.1580
 4.2230	 5.3870
 4.2260	 5.4790
 4.2300	 5.3030
 4.2330	 5.2860
 4.2360	 5.0870
 4.2400	 5.0270
 4.2430	 5.3880
 4.2470	 5.5370
 4.2500	 5.4140
 4.2540	 5.0730
 4.2570	 5.1210
 4.2610	 5.3820
 4.2640	 5.6420
 4.2680	 5.3740
 4.2710	 5.2240
 4.2750	 5.4080
 4.2780	 5.2750
 4.2820	 5.1210
 4.2850	 5.3110
 4.2890	 5.2920
 4.2930	 5.1530
 4.2960	 5.0100
 4.3000	 4.9010
 4.3030	 5.1170
 4.3070	 5.0930
 4.3100	 4.9640
 4.3140	 4.8590
 4.3180	 4.7880
 4.3210	 4.7560
 4.3250	 4.8110
 4.3280	 4.7570
 4.3320	 4.5980
 4.3360	 4.6330
 4.3390	 4.6910
 4.3430	 4.6310
 4.3470	 4.6220
 4.3500	 4.6250
 4.3540	 4.5370
 4.3570	 4.5660
 4.3610	 4.6090
 4.3650	 4.5680
 4.3680	 4.5190
 4.3720	 4.4740
 4.3760	 4.4500
 4.3800	 4.4330
 4.3830	 4.5700
 4.3870	 4.5470
 4.3910	 4.4720
 4.3940	 4.4540
 4.3980	 4.4130
 4.4020	 4.3800
 4.4060	 4.3750
 4.4090	 4.4220
 4.4130	 4.4650
 4.4170	 4.4460
 4.4210	 4.4090
 4.4240	 4.4470
 4.4280	 4.5150
 4.4320	 4.5770
 4.4360	 4.4950
 4.4400	 4.4240
 4.4430	 4.4520
 4.4470	 4.4900
 4.4510	 4.4580
 4.4550	 4.4110
 4.4590	 4.4150
 4.4620	 4.5040
 4.4660	 4.4810
 4.4700	 4.5040
 4.4740	 4.4720
 4.4780	 4.4200
 4.4820	 4.4220
 4.4860	 4.4390
 4.4900	 4.5160
 4.4930	 4.6460
 4.4970	 4.5330
 4.5010	 4.2850
 4.5050	 4.0270
 4.5090	 4.0620
 4.5130	 4.3120
 4.5170	 4.4830
 4.5210	 4.4410
 4.5250	 4.3950
 4.5290	 4.4160
 4.5330	 4.3690
 4.5370	 4.3210
 4.5410	 4.3090
 4.5450	 4.3270
 4.5490	 4.3910
 4.5530	 4.3640
 4.5570	 4.3550
 4.5610	 4.4150
 4.5650	 4.4090
 4.5690	 4.3170
 4.5730	 4.3000
 4.5770	 4.3930
 4.5810	 4.4440
 4.5850	 4.4200
 4.5890	 4.4530
 4.5930	 4.3870
 4.5970	 4.4090
 4.6010	 4.4540
 4.6050	 4.4440
 4.6090	 4.4560
 4.6130	 4.5220
 4.6170	 4.1950
 4.6220	 4.0400
 4.6260	 4.1620
 4.6300	 4.2280
 4.6340	 4.3730
 4.6380	 4.4700
 4.6420	 4.3500
 4.6460	 4.2590
 4.6510	 4.2960
 4.6550	 4.3310
 4.6590	 4.3700
 4.6630	 4.4800
 4.6670	 4.4800
 4.6720	 4.4520
 4.6760	 4.4740
 4.6800	 4.4200
 4.6840	 4.2200
 4.6880	 4.1700
 4.6930	 4.3040
 4.6970	 4.4420
 4.7010	 4.4040
 4.7050	 4.2740
 4.7100	 4.2270
 4.7140	 4.2810
 4.7180	 4.2830
 4.7230	 4.2920
 4.7270	 4.3040
 4.7310	 4.3440
 4.7360	 4.3650
 4.7400	 4.3810
 4.7440	 4.3290
 4.7490	 4.2650
 4.7530	 4.2530
 4.7570	 4.2070
 4.7620	 4.2040
 4.7660	 4.2370
 4.7700	 4.1910
 4.7750	 4.1970
 4.7790	 4.3150
 4.7840	 4.3970
 4.7880	 4.4110
 4.7920	 4.5230
 4.7970	 4.6050
 4.8010	 4.4890
 4.8060	 4.2100
 4.8100	 4.1760
 4.8150	 4.2230
 4.8190	 4.1570
 4.8240	 4.1700
 4.8280	 4.2430
 4.8330	 4.1760
 4.8370	 4.1590
 4.8420	 4.1870
 4.8460	 4.2230
 4.8510	 4.2930
 4.8550	 4.3520
 4.8600	 4.3510
 4.8640	 4.3230
 4.8690	 4.3210
 4.8730	 4.4240
 4.8780	 4.4210
 4.8830	 4.2980
 4.8870	 4.1860
 4.8920	 4.3440
 4.8960	 4.4200
 4.9010	 4.3230
 4.9060	 4.2910
 4.9100	 4.3520
 4.9150	 4.3690
 4.9200	 4.3280
 4.9240	 4.2930
 4.9290	 4.2810
 4.9340	 4.2440
 4.9380	 4.3180
 4.9430	 4.3380
 4.9480	 4.3410
 4.9530	 4.3550
 4.9570	 4.3620
 4.9620	 4.3240
 4.9670	 4.3300
 4.9720	 4.3270
 4.9760	 4.3680
 4.9810	 4.4210
 4.9860	 4.4450
 4.9910	 4.3900
 4.9960	 4.3080
 5.0000	 4.3290
 5.0050	 4.3930
 5.0100	 4.4030
 5.0150	 4.3720
 5.0200	 4.3070
 5.0250	 4.3030
 5.0290	 4.3220
 5.0340	 4.3270
 5.0390	 4.2900
 5.0440	 4.2870
 5.0490	 4.2880
 5.0540	 4.2710
 5.0590	 4.2590
 5.0640	 4.3830
 5.0690	 4.3900
 5.0740	 4.3570
 5.0790	 4.3160
 5.0840	 4.2860
 5.0890	 4.2390
 5.0940	 4.2910
 5.0990	 4.3480
 5.1040	 4.3520
 5.1090	 4.3090
 5.1140	 4.3760
 5.1190	 4.3480
 5.1240	 4.3610
 5.1290	 4.4100
 5.1340	 4.4480
 5.1390	 4.3950
 5.1440	 4.3800
 5.1490	 4.3120
 5.1540	 4.3670
 5.1600	 4.4340
 5.1650	 4.3940
 5.1700	 4.2470
 5.1750	 4.2990
 5.1800	 4.3690
 5.1850	 4.3920
 5.1910	 4.3300
 5.1960	 4.3090
 5.2010	 4.3170
 5.2060	 4.3980
 5.2110	 4.3450
 5.2170	 4.2750
 5.2220	 4.2490
 5.2270	 4.2460
 5.2320	 4.2470
 5.2380	 4.3250
 5.2430	 4.3300
 5.2480	 4.3450
 5.2540	 4.3250
 5.2590	 4.3330
 5.2640	 4.3540
 5.2700	 4.3950
 5.2750	 4.2810
 5.2800	 4.3290
 5.2860	 4.3600
 5.2910	 4.4790
 5.2970	 4.4710
 5.3020	 4.3300
 5.3070	 4.3450
 5.3130	 4.3530
 5.3180	 4.3100
 5.3240	 4.3180
 5.3290	 4.3240
 5.3350	 4.2700
 5.3400	 4.2020
 5.3460	 4.2740
 5.3510	 4.2830
 5.3570	 4.2890
 5.3620	 4.3450
 5.3680	 4.3960
 5.3730	 4.2890
 5.3790	 4.2510
 5.3850	 4.2140
 5.3900	 4.3120
 5.3960	 4.3820
 5.4010	 4.3600
 5.4070	 4.2780
 5.4130	 4.2670
 5.4180	 4.2360
 5.4240	 4.2570
 5.4300	 4.1910
 5.4350	 4.1900
