Name: Podocarpus gracilior
Type: vegetation
Class: Tree
Genus: Podocarpus
Species: gracilior
Sample No.: JPL233
Owner: JPL
Wavelength Range: VSWIR
Origin: 34.13033; -118.1123; WGS84
Collection Date: 10/3/2016
Description: Samples were collected at the Huntington Garden in San Marino California as part of a JPL Subcontract studying HyTES imagery. Samples were taken to JPL and processed within 48 hours of collection. The same leaves were processed in the Nicolet and then measured using the ASD.
Measurement: Bidirectional reflectance
First Column: X
Second Column: Y
X Units: Wavelength (micrometer)
Y Units: Reflectance (percentage)
First X Value: 0.35
Last X Value: 2.5
Number of X Values: 2151
Additional Information: vegetation.tree.podocarpus.gracilior.vswir.jpl233.jpl.asd.ancillary.txt

 0.3500	 8.7120
 0.3510	 8.7470
 0.3520	 8.8760
 0.3530	 8.9230
 0.3540	 8.7840
 0.3550	 8.6340
 0.3560	 8.6420
 0.3570	 8.7150
 0.3580	 8.6580
 0.3590	 8.6150
 0.3600	 8.5750
 0.3610	 8.5310
 0.3620	 8.5080
 0.3630	 8.5440
 0.3640	 8.5800
 0.3650	 8.5570
 0.3660	 8.5460
 0.3670	 8.5120
 0.3680	 8.4560
 0.3690	 8.4090
 0.3700	 8.4960
 0.3710	 8.5510
 0.3720	 8.5010
 0.3730	 8.5110
 0.3740	 8.4840
 0.3750	 8.4420
 0.3760	 8.4400
 0.3770	 8.4780
 0.3780	 8.4860
 0.3790	 8.4650
 0.3800	 8.4770
 0.3810	 8.4620
 0.3820	 8.4480
 0.3830	 8.4540
 0.3840	 8.4540
 0.3850	 8.4130
 0.3860	 8.3940
 0.3870	 8.4600
 0.3880	 8.4910
 0.3890	 8.5010
 0.3900	 8.5060
 0.3910	 8.5120
 0.3920	 8.5010
 0.3930	 8.4950
 0.3940	 8.5140
 0.3950	 8.5550
 0.3960	 8.5700
 0.3970	 8.5750
 0.3980	 8.6120
 0.3990	 8.6240
 0.4000	 8.6180
 0.4010	 8.6140
 0.4020	 8.6350
 0.4030	 8.6810
 0.4040	 8.7030
 0.4050	 8.6740
 0.4060	 8.6910
 0.4070	 8.7170
 0.4080	 8.7420
 0.4090	 8.7680
 0.4100	 8.8010
 0.4110	 8.8300
 0.4120	 8.8480
 0.4130	 8.8640
 0.4140	 8.8680
 0.4150	 8.8730
 0.4160	 8.8920
 0.4170	 8.9260
 0.4180	 8.9480
 0.4190	 8.9550
 0.4200	 8.9640
 0.4210	 8.9650
 0.4220	 8.9680
 0.4230	 8.9800
 0.4240	 8.9890
 0.4250	 8.9880
 0.4260	 8.9830
 0.4270	 8.9870
 0.4280	 8.9860
 0.4290	 8.9820
 0.4300	 8.9740
 0.4310	 8.9570
 0.4320	 8.9420
 0.4330	 8.9310
 0.4340	 8.9230
 0.4350	 8.9100
 0.4360	 8.9100
 0.4370	 8.9210
 0.4380	 8.9280
 0.4390	 8.9400
 0.4400	 8.9540
 0.4410	 8.9710
 0.4420	 8.9960
 0.4430	 9.0190
 0.4440	 9.0290
 0.4450	 9.0210
 0.4460	 9.0270
 0.4470	 9.0430
 0.4480	 9.0610
 0.4490	 9.0710
 0.4500	 9.0780
 0.4510	 9.0860
 0.4520	 9.0960
 0.4530	 9.0970
 0.4540	 9.1000
 0.4550	 9.1100
 0.4560	 9.1230
 0.4570	 9.1260
 0.4580	 9.1270
 0.4590	 9.1320
 0.4600	 9.1420
 0.4610	 9.1420
 0.4620	 9.1390
 0.4630	 9.1450
 0.4640	 9.1430
 0.4650	 9.1350
 0.4660	 9.1280
 0.4670	 9.1340
 0.4680	 9.1330
 0.4690	 9.1290
 0.4700	 9.1290
 0.4710	 9.1310
 0.4720	 9.1270
 0.4730	 9.1240
 0.4740	 9.1380
 0.4750	 9.1420
 0.4760	 9.1410
 0.4770	 9.1410
 0.4780	 9.1460
 0.4790	 9.1440
 0.4800	 9.1390
 0.4810	 9.1400
 0.4820	 9.1380
 0.4830	 9.1380
 0.4840	 9.1390
 0.4850	 9.1360
 0.4860	 9.1320
 0.4870	 9.1330
 0.4880	 9.1430
 0.4890	 9.1490
 0.4900	 9.1650
 0.4910	 9.1890
 0.4920	 9.2120
 0.4930	 9.2390
 0.4940	 9.2710
 0.4950	 9.3070
 0.4960	 9.3490
 0.4970	 9.3930
 0.4980	 9.4440
 0.4990	 9.5030
 0.5000	 9.5670
 0.5010	 9.6370
 0.5020	 9.7170
 0.5030	 9.8090
 0.5040	 9.9090
 0.5050	10.0180
 0.5060	10.1410
 0.5070	10.2750
 0.5080	10.4240
 0.5090	10.5850
 0.5100	10.7560
 0.5110	10.9510
 0.5120	11.1610
 0.5130	11.3800
 0.5140	11.6050
 0.5150	11.8460
 0.5160	12.1000
 0.5170	12.3620
 0.5180	12.6370
 0.5190	12.9130
 0.5200	13.1850
 0.5210	13.4540
 0.5220	13.7190
 0.5230	13.9770
 0.5240	14.2240
 0.5250	14.4560
 0.5260	14.6730
 0.5270	14.8710
 0.5280	15.0490
 0.5290	15.2140
 0.5300	15.3630
 0.5310	15.4930
 0.5320	15.6030
 0.5330	15.7000
 0.5340	15.7840
 0.5350	15.8560
 0.5360	15.9110
 0.5370	15.9520
 0.5380	15.9820
 0.5390	16.0010
 0.5400	16.0090
 0.5410	16.0050
 0.5420	15.9940
 0.5430	15.9890
 0.5440	15.9960
 0.5450	16.0170
 0.5460	16.0480
 0.5470	16.0850
 0.5480	16.1180
 0.5490	16.1420
 0.5500	16.1560
 0.5510	16.1620
 0.5520	16.1610
 0.5530	16.1500
 0.5540	16.1230
 0.5550	16.0830
 0.5560	16.0300
 0.5570	15.9610
 0.5580	15.8780
 0.5590	15.7820
 0.5600	15.6770
 0.5610	15.5620
 0.5620	15.4390
 0.5630	15.3060
 0.5640	15.1630
 0.5650	15.0140
 0.5660	14.8570
 0.5670	14.6900
 0.5680	14.5170
 0.5690	14.3470
 0.5700	14.1780
 0.5710	14.0110
 0.5720	13.8510
 0.5730	13.6980
 0.5740	13.5580
 0.5750	13.4350
 0.5760	13.3190
 0.5770	13.2080
 0.5780	13.1020
 0.5790	12.9930
 0.5800	12.8870
 0.5810	12.7870
 0.5820	12.6970
 0.5830	12.6130
 0.5840	12.5350
 0.5850	12.4640
 0.5860	12.3960
 0.5870	12.3240
 0.5880	12.2530
 0.5890	12.1880
 0.5900	12.1330
 0.5910	12.0920
 0.5920	12.0580
 0.5930	12.0200
 0.5940	11.9890
 0.5950	11.9620
 0.5960	11.9360
 0.5970	11.9090
 0.5980	11.8820
 0.5990	11.8550
 0.6000	11.8270
 0.6010	11.7990
 0.6020	11.7690
 0.6030	11.7330
 0.6040	11.6890
 0.6050	11.6410
 0.6060	11.5870
 0.6070	11.5230
 0.6080	11.4570
 0.6090	11.3790
 0.6100	11.2800
 0.6110	11.1670
 0.6120	11.0970
 0.6130	11.0530
 0.6140	11.0150
 0.6150	10.9620
 0.6160	10.9060
 0.6170	10.8510
 0.6180	10.7970
 0.6190	10.7410
 0.6200	10.6910
 0.6210	10.6500
 0.6220	10.6140
 0.6230	10.5840
 0.6240	10.5570
 0.6250	10.5320
 0.6260	10.5130
 0.6270	10.5000
 0.6280	10.4880
 0.6290	10.4730
 0.6300	10.4600
 0.6310	10.4470
 0.6320	10.4350
 0.6330	10.4200
 0.6340	10.3950
 0.6350	10.3610
 0.6360	10.3170
 0.6370	10.2680
 0.6380	10.2110
 0.6390	10.1470
 0.6400	10.0800
 0.6410	10.0130
 0.6420	 9.9440
 0.6430	 9.8740
 0.6440	 9.8040
 0.6450	 9.7360
 0.6460	 9.6700
 0.6470	 9.6070
 0.6480	 9.5510
 0.6490	 9.5020
 0.6500	 9.4590
 0.6510	 9.4240
 0.6520	 9.3960
 0.6530	 9.3720
 0.6540	 9.3520
 0.6550	 9.3360
 0.6560	 9.3190
 0.6570	 9.2990
 0.6580	 9.2800
 0.6590	 9.2560
 0.6600	 9.2350
 0.6610	 9.2150
 0.6620	 9.1930
 0.6630	 9.1730
 0.6640	 9.1580
 0.6650	 9.1490
 0.6660	 9.1430
 0.6670	 9.1410
 0.6680	 9.1430
 0.6690	 9.1500
 0.6700	 9.1640
 0.6710	 9.1870
 0.6720	 9.2160
 0.6730	 9.2480
 0.6740	 9.2850
 0.6750	 9.3290
 0.6760	 9.3830
 0.6770	 9.4420
 0.6780	 9.5040
 0.6790	 9.5710
 0.6800	 9.6470
 0.6810	 9.7290
 0.6820	 9.8130
 0.6830	 9.9000
 0.6840	 9.9990
 0.6850	10.1030
 0.6860	10.2150
 0.6870	10.3420
 0.6880	10.4910
 0.6890	10.6770
 0.6900	10.9100
 0.6910	11.1960
 0.6920	11.5450
 0.6930	11.9630
 0.6940	12.4520
 0.6950	13.0200
 0.6960	13.6610
 0.6970	14.3700
 0.6980	15.1360
 0.6990	15.9600
 0.7000	16.8260
 0.7010	17.7270
 0.7020	18.6570
 0.7030	19.6070
 0.7040	20.5720
 0.7050	21.5460
 0.7060	22.5260
 0.7070	23.5140
 0.7080	24.5090
 0.7090	25.5120
 0.7100	26.5270
 0.7110	27.5500
 0.7120	28.5800
 0.7130	29.6200
 0.7140	30.6660
 0.7150	31.7190
 0.7160	32.7740
 0.7170	33.8310
 0.7180	34.8860
 0.7190	35.9390
 0.7200	36.9890
 0.7210	38.0270
 0.7220	39.0530
 0.7230	40.0640
 0.7240	41.0550
 0.7250	42.0250
 0.7260	42.9710
 0.7270	43.8910
 0.7280	44.7790
 0.7290	45.6360
 0.7300	46.4620
 0.7310	47.2560
 0.7320	48.0150
 0.7330	48.7350
 0.7340	49.4160
 0.7350	50.0670
 0.7360	50.6820
 0.7370	51.2600
 0.7380	51.8050
 0.7390	52.3140
 0.7400	52.7880
 0.7410	53.2290
 0.7420	53.6370
 0.7430	54.0130
 0.7440	54.3580
 0.7450	54.6720
 0.7460	54.9570
 0.7470	55.2140
 0.7480	55.4480
 0.7490	55.6590
 0.7500	55.8460
 0.7510	56.0130
 0.7520	56.1620
 0.7530	56.2930
 0.7540	56.4140
 0.7550	56.5260
 0.7560	56.6250
 0.7570	56.7080
 0.7580	56.7850
 0.7590	56.8550
 0.7600	56.9160
 0.7610	56.9700
 0.7620	57.0150
 0.7630	57.0530
 0.7640	57.0860
 0.7650	57.1150
 0.7660	57.1450
 0.7670	57.1710
 0.7680	57.1860
 0.7690	57.2000
 0.7700	57.2130
 0.7710	57.2220
 0.7720	57.2260
 0.7730	57.2340
 0.7740	57.2430
 0.7750	57.2520
 0.7760	57.2610
 0.7770	57.2700
 0.7780	57.2770
 0.7790	57.2840
 0.7800	57.2910
 0.7810	57.2960
 0.7820	57.3010
 0.7830	57.3110
 0.7840	57.3190
 0.7850	57.3240
 0.7860	57.3280
 0.7870	57.3350
 0.7880	57.3390
 0.7890	57.3400
 0.7900	57.3420
 0.7910	57.3420
 0.7920	57.3430
 0.7930	57.3440
 0.7940	57.3390
 0.7950	57.3340
 0.7960	57.3310
 0.7970	57.3280
 0.7980	57.3210
 0.7990	57.3140
 0.8000	57.3060
 0.8010	57.2950
 0.8020	57.2870
 0.8030	57.2770
 0.8040	57.2650
 0.8050	57.2520
 0.8060	57.2410
 0.8070	57.2280
 0.8080	57.2110
 0.8090	57.1970
 0.8100	57.1860
 0.8110	57.1740
 0.8120	57.1590
 0.8130	57.1390
 0.8140	57.1180
 0.8150	57.1000
 0.8160	57.0850
 0.8170	57.0720
 0.8180	57.0580
 0.8190	57.0430
 0.8200	57.0300
 0.8210	57.0120
 0.8220	56.9970
 0.8230	56.9860
 0.8240	56.9720
 0.8250	56.9580
 0.8260	56.9430
 0.8270	56.9280
 0.8280	56.9160
 0.8290	56.9040
 0.8300	56.8920
 0.8310	56.8800
 0.8320	56.8710
 0.8330	56.8620
 0.8340	56.8520
 0.8350	56.8450
 0.8360	56.8400
 0.8370	56.8390
 0.8380	56.8370
 0.8390	56.8330
 0.8400	56.8310
 0.8410	56.8290
 0.8420	56.8280
 0.8430	56.8300
 0.8440	56.8350
 0.8450	56.8400
 0.8460	56.8410
 0.8470	56.8430
 0.8480	56.8470
 0.8490	56.8540
 0.8500	56.8630
 0.8510	56.8710
 0.8520	56.8830
 0.8530	56.8970
 0.8540	56.9030
 0.8550	56.9120
 0.8560	56.9220
 0.8570	56.9330
 0.8580	56.9430
 0.8590	56.9520
 0.8600	56.9620
 0.8610	56.9750
 0.8620	56.9890
 0.8630	57.0050
 0.8640	57.0200
 0.8650	57.0340
 0.8660	57.0470
 0.8670	57.0570
 0.8680	57.0710
 0.8690	57.0930
 0.8700	57.1080
 0.8710	57.1200
 0.8720	57.1340
 0.8730	57.1500
 0.8740	57.1670
 0.8750	57.1870
 0.8760	57.2070
 0.8770	57.2230
 0.8780	57.2410
 0.8790	57.2600
 0.8800	57.2780
 0.8810	57.2970
 0.8820	57.3110
 0.8830	57.3240
 0.8840	57.3420
 0.8850	57.3580
 0.8860	57.3700
 0.8870	57.3840
 0.8880	57.4060
 0.8890	57.4200
 0.8900	57.4330
 0.8910	57.4500
 0.8920	57.4680
 0.8930	57.4850
 0.8940	57.5020
 0.8950	57.5170
 0.8960	57.5310
 0.8970	57.5480
 0.8980	57.5610
 0.8990	57.5730
 0.9000	57.5900
 0.9010	57.6000
 0.9020	57.6080
 0.9030	57.6200
 0.9040	57.6360
 0.9050	57.6450
 0.9060	57.6550
 0.9070	57.6700
 0.9080	57.6790
 0.9090	57.6870
 0.9100	57.6970
 0.9110	57.7060
 0.9120	57.7140
 0.9130	57.7150
 0.9140	57.7200
 0.9150	57.7340
 0.9160	57.7320
 0.9170	57.7310
 0.9180	57.7340
 0.9190	57.7340
 0.9200	57.7310
 0.9210	57.7300
 0.9220	57.7320
 0.9230	57.7300
 0.9240	57.7120
 0.9250	57.7050
 0.9260	57.7040
 0.9270	57.6850
 0.9280	57.6690
 0.9290	57.6540
 0.9300	57.6370
 0.9310	57.6120
 0.9320	57.5960
 0.9330	57.5800
 0.9340	57.5550
 0.9350	57.5230
 0.9360	57.5000
 0.9370	57.4720
 0.9380	57.4340
 0.9390	57.4000
 0.9400	57.3770
 0.9410	57.3460
 0.9420	57.2990
 0.9430	57.2530
 0.9440	57.2100
 0.9450	57.1630
 0.9460	57.1070
 0.9470	57.0490
 0.9480	56.9960
 0.9490	56.9350
 0.9500	56.8590
 0.9510	56.7900
 0.9520	56.7170
 0.9530	56.6430
 0.9540	56.5700
 0.9550	56.4860
 0.9560	56.4130
 0.9570	56.3440
 0.9580	56.2700
 0.9590	56.2150
 0.9600	56.1560
 0.9610	56.1000
 0.9620	56.0550
 0.9630	56.0000
 0.9640	55.9590
 0.9650	55.9230
 0.9660	55.8760
 0.9670	55.8580
 0.9680	55.8420
 0.9690	55.8190
 0.9700	55.7900
 0.9710	55.7590
 0.9720	55.7460
 0.9730	55.7460
 0.9740	55.7390
 0.9750	55.7180
 0.9760	55.7080
 0.9770	55.7080
 0.9780	55.7040
 0.9790	55.7010
 0.9800	55.6900
 0.9810	55.6760
 0.9820	55.6720
 0.9830	55.6920
 0.9840	55.7030
 0.9850	55.7020
 0.9860	55.7010
 0.9870	55.7040
 0.9880	55.7180
 0.9890	55.7420
 0.9900	55.7690
 0.9910	55.7740
 0.9920	55.7770
 0.9930	55.7860
 0.9940	55.8030
 0.9950	55.8170
 0.9960	55.8310
 0.9970	55.8510
 0.9980	55.8810
 0.9990	55.9080
 1.0000	55.9210
 1.0010	57.1650
 1.0020	57.1900
 1.0030	57.2100
 1.0040	57.2340
 1.0050	57.2650
 1.0060	57.2870
 1.0070	57.3110
 1.0080	57.3370
 1.0090	57.3650
 1.0100	57.3890
 1.0110	57.4120
 1.0120	57.4370
 1.0130	57.4580
 1.0140	57.4840
 1.0150	57.5150
 1.0160	57.5440
 1.0170	57.5680
 1.0180	57.5950
 1.0190	57.6190
 1.0200	57.6390
 1.0210	57.6660
 1.0220	57.6940
 1.0230	57.7200
 1.0240	57.7470
 1.0250	57.7730
 1.0260	57.7980
 1.0270	57.8210
 1.0280	57.8410
 1.0290	57.8660
 1.0300	57.8930
 1.0310	57.9180
 1.0320	57.9440
 1.0330	57.9700
 1.0340	57.9990
 1.0350	58.0230
 1.0360	58.0460
 1.0370	58.0750
 1.0380	58.0980
 1.0390	58.1150
 1.0400	58.1350
 1.0410	58.1570
 1.0420	58.1770
 1.0430	58.1940
 1.0440	58.2150
 1.0450	58.2410
 1.0460	58.2630
 1.0470	58.2890
 1.0480	58.3080
 1.0490	58.3210
 1.0500	58.3340
 1.0510	58.3460
 1.0520	58.3560
 1.0530	58.3670
 1.0540	58.3800
 1.0550	58.3910
 1.0560	58.4030
 1.0570	58.4160
 1.0580	58.4290
 1.0590	58.4410
 1.0600	58.4540
 1.0610	58.4650
 1.0620	58.4750
 1.0630	58.4830
 1.0640	58.4910
 1.0650	58.4970
 1.0660	58.4980
 1.0670	58.5000
 1.0680	58.5010
 1.0690	58.4990
 1.0700	58.5000
 1.0710	58.5020
 1.0720	58.5020
 1.0730	58.5020
 1.0740	58.5020
 1.0750	58.5030
 1.0760	58.5020
 1.0770	58.5030
 1.0780	58.5000
 1.0790	58.4910
 1.0800	58.4860
 1.0810	58.4810
 1.0820	58.4760
 1.0830	58.4750
 1.0840	58.4710
 1.0850	58.4680
 1.0860	58.4610
 1.0870	58.4540
 1.0880	58.4440
 1.0890	58.4380
 1.0900	58.4330
 1.0910	58.4240
 1.0920	58.4170
 1.0930	58.4060
 1.0940	58.3880
 1.0950	58.3770
 1.0960	58.3670
 1.0970	58.3580
 1.0980	58.3540
 1.0990	58.3450
 1.1000	58.3320
 1.1010	58.3200
 1.1020	58.3040
 1.1030	58.2900
 1.1040	58.2780
 1.1050	58.2660
 1.1060	58.2540
 1.1070	58.2420
 1.1080	58.2300
 1.1090	58.2200
 1.1100	58.2050
 1.1110	58.1890
 1.1120	58.1730
 1.1130	58.1530
 1.1140	58.1340
 1.1150	58.1190
 1.1160	58.0980
 1.1170	58.0760
 1.1180	58.0510
 1.1190	58.0240
 1.1200	57.9930
 1.1210	57.9620
 1.1220	57.9270
 1.1230	57.8860
 1.1240	57.8410
 1.1250	57.7890
 1.1260	57.7310
 1.1270	57.6670
 1.1280	57.5980
 1.1290	57.5210
 1.1300	57.4390
 1.1310	57.3460
 1.1320	57.2470
 1.1330	57.1360
 1.1340	57.0130
 1.1350	56.8830
 1.1360	56.7440
 1.1370	56.5990
 1.1380	56.4500
 1.1390	56.2960
 1.1400	56.1380
 1.1410	55.9750
 1.1420	55.8050
 1.1430	55.6360
 1.1440	55.4680
 1.1450	55.2990
 1.1460	55.1350
 1.1470	54.9710
 1.1480	54.8140
 1.1490	54.6590
 1.1500	54.5140
 1.1510	54.3770
 1.1520	54.2480
 1.1530	54.1270
 1.1540	54.0140
 1.1550	53.9090
 1.1560	53.8110
 1.1570	53.7230
 1.1580	53.6450
 1.1590	53.5750
 1.1600	53.5100
 1.1610	53.4520
 1.1620	53.3980
 1.1630	53.3470
 1.1640	53.3020
 1.1650	53.2600
 1.1660	53.2230
 1.1670	53.1890
 1.1680	53.1600
 1.1690	53.1310
 1.1700	53.1050
 1.1710	53.0790
 1.1720	53.0540
 1.1730	53.0290
 1.1740	53.0050
 1.1750	52.9810
 1.1760	52.9580
 1.1770	52.9330
 1.1780	52.9060
 1.1790	52.8790
 1.1800	52.8510
 1.1810	52.8240
 1.1820	52.7960
 1.1830	52.7680
 1.1840	52.7400
 1.1850	52.7120
 1.1860	52.6850
 1.1870	52.6600
 1.1880	52.6350
 1.1890	52.6120
 1.1900	52.5900
 1.1910	52.5690
 1.1920	52.5500
 1.1930	52.5320
 1.1940	52.5170
 1.1950	52.5030
 1.1960	52.4900
 1.1970	52.4800
 1.1980	52.4690
 1.1990	52.4620
 1.2000	52.4580
 1.2010	52.4560
 1.2020	52.4570
 1.2030	52.4610
 1.2040	52.4670
 1.2050	52.4770
 1.2060	52.4890
 1.2070	52.5030
 1.2080	52.5190
 1.2090	52.5380
 1.2100	52.5580
 1.2110	52.5780
 1.2120	52.6000
 1.2130	52.6240
 1.2140	52.6510
 1.2150	52.6780
 1.2160	52.7070
 1.2170	52.7400
 1.2180	52.7710
 1.2190	52.8000
 1.2200	52.8320
 1.2210	52.8650
 1.2220	52.8980
 1.2230	52.9310
 1.2240	52.9650
 1.2250	52.9950
 1.2260	53.0280
 1.2270	53.0640
 1.2280	53.0960
 1.2290	53.1270
 1.2300	53.1570
 1.2310	53.1850
 1.2320	53.2150
 1.2330	53.2470
 1.2340	53.2750
 1.2350	53.3020
 1.2360	53.3270
 1.2370	53.3490
 1.2380	53.3690
 1.2390	53.3890
 1.2400	53.4110
 1.2410	53.4340
 1.2420	53.4560
 1.2430	53.4760
 1.2440	53.4950
 1.2450	53.5110
 1.2460	53.5280
 1.2470	53.5460
 1.2480	53.5630
 1.2490	53.5800
 1.2500	53.5940
 1.2510	53.6060
 1.2520	53.6180
 1.2530	53.6290
 1.2540	53.6410
 1.2550	53.6530
 1.2560	53.6630
 1.2570	53.6740
 1.2580	53.6790
 1.2590	53.6840
 1.2600	53.6880
 1.2610	53.6910
 1.2620	53.6920
 1.2630	53.6960
 1.2640	53.6980
 1.2650	53.6970
 1.2660	53.6960
 1.2670	53.6950
 1.2680	53.6920
 1.2690	53.6890
 1.2700	53.6830
 1.2710	53.6740
 1.2720	53.6650
 1.2730	53.6560
 1.2740	53.6450
 1.2750	53.6350
 1.2760	53.6230
 1.2770	53.6090
 1.2780	53.5910
 1.2790	53.5690
 1.2800	53.5470
 1.2810	53.5230
 1.2820	53.4990
 1.2830	53.4730
 1.2840	53.4450
 1.2850	53.4140
 1.2860	53.3800
 1.2870	53.3430
 1.2880	53.3040
 1.2890	53.2630
 1.2900	53.2170
 1.2910	53.1690
 1.2920	53.1190
 1.2930	53.0640
 1.2940	53.0080
 1.2950	52.9480
 1.2960	52.8840
 1.2970	52.8200
 1.2980	52.7520
 1.2990	52.6790
 1.3000	52.6070
 1.3010	52.5310
 1.3020	52.4520
 1.3030	52.3710
 1.3040	52.2860
 1.3050	52.1980
 1.3060	52.1080
 1.3070	52.0140
 1.3080	51.9200
 1.3090	51.8220
 1.3100	51.7210
 1.3110	51.6190
 1.3120	51.5120
 1.3130	51.4030
 1.3140	51.2910
 1.3150	51.1770
 1.3160	51.0580
 1.3170	50.9370
 1.3180	50.8140
 1.3190	50.6870
 1.3200	50.5590
 1.3210	50.4300
 1.3220	50.2980
 1.3230	50.1630
 1.3240	50.0240
 1.3250	49.8840
 1.3260	49.7390
 1.3270	49.5940
 1.3280	49.4490
 1.3290	49.3010
 1.3300	49.1530
 1.3310	49.0030
 1.3320	48.8480
 1.3330	48.6950
 1.3340	48.5430
 1.3350	48.3890
 1.3360	48.2370
 1.3370	48.0840
 1.3380	47.9300
 1.3390	47.7780
 1.3400	47.6260
 1.3410	47.4770
 1.3420	47.3310
 1.3430	47.1850
 1.3440	47.0420
 1.3450	46.9010
 1.3460	46.7590
 1.3470	46.6210
 1.3480	46.4850
 1.3490	46.3500
 1.3500	46.2180
 1.3510	46.0890
 1.3520	45.9580
 1.3530	45.8290
 1.3540	45.6990
 1.3550	45.5680
 1.3560	45.4390
 1.3570	45.3070
 1.3580	45.1750
 1.3590	45.0400
 1.3600	44.9010
 1.3610	44.7610
 1.3620	44.6130
 1.3630	44.4610
 1.3640	44.3040
 1.3650	44.1360
 1.3660	43.9620
 1.3670	43.7770
 1.3680	43.5820
 1.3690	43.3750
 1.3700	43.1540
 1.3710	42.9190
 1.3720	42.6710
 1.3730	42.4050
 1.3740	42.1230
 1.3750	41.8210
 1.3760	41.4960
 1.3770	41.1510
 1.3780	40.7810
 1.3790	40.3890
 1.3800	39.9750
 1.3810	39.5350
 1.3820	39.0770
 1.3830	38.5990
 1.3840	38.1040
 1.3850	37.5890
 1.3860	37.0620
 1.3870	36.5130
 1.3880	35.9640
 1.3890	35.4040
 1.3900	34.8350
 1.3910	34.2700
 1.3920	33.7010
 1.3930	33.1300
 1.3940	32.5660
 1.3950	32.0020
 1.3960	31.4480
 1.3970	30.9070
 1.3980	30.3780
 1.3990	29.8700
 1.4000	29.3750
 1.4010	28.8950
 1.4020	28.4370
 1.4030	27.9940
 1.4040	27.5710
 1.4050	27.1720
 1.4060	26.7900
 1.4070	26.4310
 1.4080	26.0910
 1.4090	25.7690
 1.4100	25.4670
 1.4110	25.1810
 1.4120	24.9150
 1.4130	24.6660
 1.4140	24.4320
 1.4150	24.2160
 1.4160	24.0130
 1.4170	23.8220
 1.4180	23.6460
 1.4190	23.4800
 1.4200	23.3260
 1.4210	23.1830
 1.4220	23.0480
 1.4230	22.9240
 1.4240	22.8090
 1.4250	22.7010
 1.4260	22.6030
 1.4270	22.5110
 1.4280	22.4250
 1.4290	22.3460
 1.4300	22.2750
 1.4310	22.2090
 1.4320	22.1490
 1.4330	22.0930
 1.4340	22.0430
 1.4350	21.9970
 1.4360	21.9560
 1.4370	21.9190
 1.4380	21.8880
 1.4390	21.8600
 1.4400	21.8360
 1.4410	21.8150
 1.4420	21.7980
 1.4430	21.7830
 1.4440	21.7720
 1.4450	21.7630
 1.4460	21.7560
 1.4470	21.7510
 1.4480	21.7490
 1.4490	21.7490
 1.4500	21.7530
 1.4510	21.7580
 1.4520	21.7660
 1.4530	21.7740
 1.4540	21.7850
 1.4550	21.7970
 1.4560	21.8130
 1.4570	21.8320
 1.4580	21.8540
 1.4590	21.8780
 1.4600	21.9050
 1.4610	21.9370
 1.4620	21.9730
 1.4630	22.0150
 1.4640	22.0610
 1.4650	22.1090
 1.4660	22.1610
 1.4670	22.2170
 1.4680	22.2790
 1.4690	22.3440
 1.4700	22.4140
 1.4710	22.4890
 1.4720	22.5660
 1.4730	22.6480
 1.4740	22.7330
 1.4750	22.8200
 1.4760	22.9110
 1.4770	23.0040
