Name: Betula lenta
Type: Vegetation
Class: Tree
Genus: Betula
Species: lenta
Sample No.: BELE-1-57
Owner: UCSB
Wavelength Range: VSWIR
Origin: USA; Massachusetts; Harvard Forest
Collection Date: 7/8/2013
Description: Samples were collected as part of NSF Macrosystem Biology proposal titled: Collaborative Research: Thermal controls on ecosystem metabolism and function: scaling from leaves to canopies to regions. Samples were collected and overnighted to JPL facilities for processing. The same leaves were processed in the Nicolet and then measured using the ASD.
Measurement: Bidirectional reflectance
First Column: X
Second Column: Y
X Units: Wavelength (micrometers)
Y Units: Reflectance (percentage)
First X Value: 0.35
Last X Value: 2.5
Number of X Values: 2151
Additional Information: vegetation.tree.betula.lenta.vswir.bele-1-57.ucsb.asd.ancillary.txt

 0.3500	 6.4600
 0.3510	 6.6060
 0.3520	 6.5530
 0.3530	 6.4670
 0.3540	 6.5320
 0.3550	 6.5940
 0.3560	 6.6580
 0.3570	 6.6810
 0.3580	 6.6110
 0.3590	 6.4590
 0.3600	 6.4690
 0.3610	 6.6350
 0.3620	 6.5830
 0.3630	 6.5580
 0.3640	 6.5760
 0.3650	 6.5750
 0.3660	 6.4240
 0.3670	 6.3490
 0.3680	 6.4310
 0.3690	 6.6170
 0.3700	 6.6600
 0.3710	 6.6080
 0.3720	 6.5080
 0.3730	 6.2930
 0.3740	 6.4280
 0.3750	 6.6240
 0.3760	 6.5010
 0.3770	 6.4960
 0.3780	 6.5020
 0.3790	 6.4780
 0.3800	 6.4600
 0.3810	 6.5070
 0.3820	 6.5340
 0.3830	 6.5040
 0.3840	 6.5390
 0.3850	 6.5310
 0.3860	 6.4900
 0.3870	 6.4740
 0.3880	 6.5580
 0.3890	 6.6050
 0.3900	 6.5700
 0.3910	 6.5250
 0.3920	 6.5500
 0.3930	 6.6120
 0.3940	 6.6560
 0.3950	 6.6620
 0.3960	 6.6600
 0.3970	 6.6390
 0.3980	 6.5810
 0.3990	 6.5930
 0.4000	 6.6250
 0.4010	 6.6290
 0.4020	 6.5860
 0.4030	 6.5550
 0.4040	 6.5650
 0.4050	 6.6160
 0.4060	 6.6700
 0.4070	 6.6940
 0.4080	 6.6880
 0.4090	 6.6800
 0.4100	 6.6730
 0.4110	 6.6800
 0.4120	 6.6930
 0.4130	 6.6600
 0.4140	 6.6610
 0.4150	 6.6740
 0.4160	 6.6590
 0.4170	 6.6700
 0.4180	 6.6760
 0.4190	 6.6680
 0.4200	 6.6620
 0.4210	 6.6590
 0.4220	 6.6710
 0.4230	 6.6950
 0.4240	 6.6960
 0.4250	 6.6920
 0.4260	 6.6880
 0.4270	 6.6820
 0.4280	 6.6860
 0.4290	 6.6930
 0.4300	 6.6950
 0.4310	 6.6810
 0.4320	 6.6690
 0.4330	 6.6590
 0.4340	 6.6480
 0.4350	 6.6380
 0.4360	 6.6300
 0.4370	 6.6290
 0.4380	 6.6470
 0.4390	 6.6760
 0.4400	 6.6880
 0.4410	 6.6740
 0.4420	 6.6720
 0.4430	 6.6560
 0.4440	 6.6470
 0.4450	 6.6720
 0.4460	 6.7000
 0.4470	 6.7000
 0.4480	 6.6830
 0.4490	 6.7110
 0.4500	 6.7140
 0.4510	 6.7080
 0.4520	 6.7180
 0.4530	 6.7300
 0.4540	 6.7310
 0.4550	 6.7300
 0.4560	 6.7500
 0.4570	 6.7430
 0.4580	 6.7300
 0.4590	 6.7270
 0.4600	 6.7330
 0.4610	 6.7360
 0.4620	 6.7360
 0.4630	 6.7350
 0.4640	 6.7240
 0.4650	 6.7170
 0.4660	 6.7160
 0.4670	 6.7190
 0.4680	 6.7230
 0.4690	 6.7220
 0.4700	 6.7150
 0.4710	 6.7240
 0.4720	 6.7240
 0.4730	 6.7170
 0.4740	 6.7210
 0.4750	 6.7160
 0.4760	 6.7060
 0.4770	 6.7000
 0.4780	 6.7080
 0.4790	 6.7090
 0.4800	 6.7070
 0.4810	 6.7100
 0.4820	 6.7240
 0.4830	 6.7260
 0.4840	 6.7160
 0.4850	 6.7120
 0.4860	 6.7140
 0.4870	 6.7260
 0.4880	 6.7420
 0.4890	 6.7350
 0.4900	 6.7490
 0.4910	 6.7730
 0.4920	 6.7730
 0.4930	 6.7840
 0.4940	 6.7980
 0.4950	 6.8150
 0.4960	 6.8400
 0.4970	 6.8560
 0.4980	 6.8770
 0.4990	 6.9150
 0.5000	 6.9380
 0.5010	 6.9640
 0.5020	 7.0030
 0.5030	 7.0520
 0.5040	 7.1010
 0.5050	 7.1530
 0.5060	 7.2150
 0.5070	 7.2940
 0.5080	 7.3730
 0.5090	 7.4620
 0.5100	 7.5780
 0.5110	 7.6860
 0.5120	 7.8050
 0.5130	 7.9470
 0.5140	 8.1090
 0.5150	 8.2810
 0.5160	 8.4650
 0.5170	 8.6650
 0.5180	 8.8690
 0.5190	 9.0840
 0.5200	 9.3100
 0.5210	 9.5460
 0.5220	 9.7850
 0.5230	10.0230
 0.5240	10.2540
 0.5250	10.4690
 0.5260	10.6850
 0.5270	10.8950
 0.5280	11.0880
 0.5290	11.2670
 0.5300	11.4270
 0.5310	11.5710
 0.5320	11.7130
 0.5330	11.8220
 0.5340	11.9120
 0.5350	11.9980
 0.5360	12.0670
 0.5370	12.1330
 0.5380	12.1940
 0.5390	12.2400
 0.5400	12.2700
 0.5410	12.2970
 0.5420	12.3270
 0.5430	12.3510
 0.5440	12.3790
 0.5450	12.4100
 0.5460	12.4380
 0.5470	12.4710
 0.5480	12.4970
 0.5490	12.5110
 0.5500	12.5210
 0.5510	12.5280
 0.5520	12.5260
 0.5530	12.5120
 0.5540	12.4920
 0.5550	12.4530
 0.5560	12.3960
 0.5570	12.3320
 0.5580	12.2560
 0.5590	12.1690
 0.5600	12.0730
 0.5610	11.9640
 0.5620	11.8400
 0.5630	11.7030
 0.5640	11.5590
 0.5650	11.4080
 0.5660	11.2510
 0.5670	11.0890
 0.5680	10.9290
 0.5690	10.7650
 0.5700	10.6050
 0.5710	10.4530
 0.5720	10.3100
 0.5730	10.1690
 0.5740	10.0340
 0.5750	 9.9130
 0.5760	 9.8020
 0.5770	 9.7010
 0.5780	 9.6090
 0.5790	 9.5190
 0.5800	 9.4340
 0.5810	 9.3500
 0.5820	 9.2700
 0.5830	 9.2000
 0.5840	 9.1380
 0.5850	 9.0800
 0.5860	 9.0240
 0.5870	 8.9710
 0.5880	 8.9180
 0.5890	 8.8650
 0.5900	 8.8230
 0.5910	 8.7820
 0.5920	 8.7470
 0.5930	 8.7220
 0.5940	 8.6990
 0.5950	 8.6750
 0.5960	 8.6530
 0.5970	 8.6310
 0.5980	 8.6100
 0.5990	 8.5870
 0.6000	 8.5610
 0.6010	 8.5380
 0.6020	 8.5120
 0.6030	 8.4820
 0.6040	 8.4500
 0.6050	 8.4150
 0.6060	 8.3760
 0.6070	 8.3320
 0.6080	 8.2900
 0.6090	 8.2450
 0.6100	 8.1890
 0.6110	 8.1220
 0.6120	 8.0740
 0.6130	 8.0350
 0.6140	 7.9950
 0.6150	 7.9540
 0.6160	 7.9120
 0.6170	 7.8730
 0.6180	 7.8390
 0.6190	 7.8030
 0.6200	 7.7710
 0.6210	 7.7460
 0.6220	 7.7250
 0.6230	 7.7020
 0.6240	 7.6870
 0.6250	 7.6810
 0.6260	 7.6660
 0.6270	 7.6550
 0.6280	 7.6470
 0.6290	 7.6370
 0.6300	 7.6260
 0.6310	 7.6180
 0.6320	 7.6120
 0.6330	 7.6020
 0.6340	 7.5750
 0.6350	 7.5450
 0.6360	 7.5230
 0.6370	 7.4850
 0.6380	 7.4410
 0.6390	 7.3960
 0.6400	 7.3540
 0.6410	 7.3100
 0.6420	 7.2610
 0.6430	 7.2120
 0.6440	 7.1760
 0.6450	 7.1410
 0.6460	 7.1050
 0.6470	 7.0700
 0.6480	 7.0420
 0.6490	 7.0200
 0.6500	 7.0040
 0.6510	 6.9920
 0.6520	 6.9780
 0.6530	 6.9670
 0.6540	 6.9600
 0.6550	 6.9550
 0.6560	 6.9490
 0.6570	 6.9410
 0.6580	 6.9320
 0.6590	 6.9220
 0.6600	 6.9120
 0.6610	 6.9030
 0.6620	 6.8950
 0.6630	 6.8860
 0.6640	 6.8830
 0.6650	 6.8890
 0.6660	 6.8930
 0.6670	 6.9020
 0.6680	 6.9150
 0.6690	 6.9280
 0.6700	 6.9500
 0.6710	 6.9770
 0.6720	 7.0050
 0.6730	 7.0300
 0.6740	 7.0650
 0.6750	 7.1070
 0.6760	 7.1500
 0.6770	 7.1960
 0.6780	 7.2430
 0.6790	 7.2940
 0.6800	 7.3550
 0.6810	 7.4120
 0.6820	 7.4670
 0.6830	 7.5240
 0.6840	 7.5820
 0.6850	 7.6430
 0.6860	 7.7090
 0.6870	 7.7810
 0.6880	 7.8620
 0.6890	 7.9600
 0.6900	 8.0880
 0.6910	 8.2580
 0.6920	 8.4720
 0.6930	 8.7450
 0.6940	 9.0870
 0.6950	 9.4980
 0.6960	 9.9910
 0.6970	10.5680
 0.6980	11.2220
 0.6990	11.9310
 0.7000	12.7030
 0.7010	13.5340
 0.7020	14.4150
 0.7030	15.3160
 0.7040	16.2390
 0.7050	17.1850
 0.7060	18.1230
 0.7070	19.0670
 0.7080	20.0080
 0.7090	20.9310
 0.7100	21.8570
 0.7110	22.7800
 0.7120	23.6880
 0.7130	24.5730
 0.7140	25.4470
 0.7150	26.3040
 0.7160	27.1360
 0.7170	27.9580
 0.7180	28.7570
 0.7190	29.5270
 0.7200	30.2650
 0.7210	30.9820
 0.7220	31.6830
 0.7230	32.3620
 0.7240	32.9990
 0.7250	33.5990
 0.7260	34.1740
 0.7270	34.7310
 0.7280	35.2500
 0.7290	35.7540
 0.7300	36.2300
 0.7310	36.6560
 0.7320	37.0680
 0.7330	37.4540
 0.7340	37.8150
 0.7350	38.1670
 0.7360	38.4730
 0.7370	38.7620
 0.7380	39.0500
 0.7390	39.2940
 0.7400	39.5230
 0.7410	39.7390
 0.7420	39.9300
 0.7430	40.0960
 0.7440	40.2530
 0.7450	40.4040
 0.7460	40.5380
 0.7470	40.6540
 0.7480	40.7450
 0.7490	40.8180
 0.7500	40.9090
 0.7510	40.9740
 0.7520	41.0270
 0.7530	41.0880
 0.7540	41.1110
 0.7550	41.1480
 0.7560	41.2010
 0.7570	41.2310
 0.7580	41.2390
 0.7590	41.2490
 0.7600	41.2690
 0.7610	41.2780
 0.7620	41.2960
 0.7630	41.3120
 0.7640	41.3100
 0.7650	41.3110
 0.7660	41.3110
 0.7670	41.3070
 0.7680	41.2980
 0.7690	41.2840
 0.7700	41.2750
 0.7710	41.2780
 0.7720	41.2910
 0.7730	41.2670
 0.7740	41.2460
 0.7750	41.2590
 0.7760	41.2620
 0.7770	41.2610
 0.7780	41.2590
 0.7790	41.2590
 0.7800	41.2560
 0.7810	41.2510
 0.7820	41.2460
 0.7830	41.2430
 0.7840	41.2400
 0.7850	41.2320
 0.7860	41.2220
 0.7870	41.2460
 0.7880	41.2470
 0.7890	41.2380
 0.7900	41.2490
 0.7910	41.2490
 0.7920	41.2460
 0.7930	41.2450
 0.7940	41.2430
 0.7950	41.2480
 0.7960	41.2530
 0.7970	41.2500
 0.7980	41.2370
 0.7990	41.2440
 0.8000	41.2540
 0.8010	41.2470
 0.8020	41.2340
 0.8030	41.2300
 0.8040	41.2270
 0.8050	41.2150
 0.8060	41.1990
 0.8070	41.1980
 0.8080	41.2060
 0.8090	41.2050
 0.8100	41.2050
 0.8110	41.1930
 0.8120	41.1700
 0.8130	41.1650
 0.8140	41.1710
 0.8150	41.1720
 0.8160	41.1580
 0.8170	41.1420
 0.8180	41.1240
 0.8190	41.1080
 0.8200	41.1010
 0.8210	41.1110
 0.8220	41.1070
 0.8230	41.0890
 0.8240	41.0840
 0.8250	41.0760
 0.8260	41.0740
 0.8270	41.0740
 0.8280	41.0460
 0.8290	41.0330
 0.8300	41.0270
 0.8310	41.0120
 0.8320	40.9890
 0.8330	40.9870
 0.8340	40.9940
 0.8350	40.9860
 0.8360	40.9630
 0.8370	40.9610
 0.8380	40.9730
 0.8390	40.9570
 0.8400	40.9400
 0.8410	40.9380
 0.8420	40.9460
 0.8430	40.9290
 0.8440	40.9120
 0.8450	40.9050
 0.8460	40.9050
 0.8470	40.8900
 0.8480	40.8930
 0.8490	40.9000
 0.8500	40.8910
 0.8510	40.8880
 0.8520	40.8790
 0.8530	40.8700
 0.8540	40.8740
 0.8550	40.8810
 0.8560	40.8770
 0.8570	40.8700
 0.8580	40.8880
 0.8590	40.8740
 0.8600	40.8650
 0.8610	40.8780
 0.8620	40.8730
 0.8630	40.8580
 0.8640	40.8480
 0.8650	40.8500
 0.8660	40.8500
 0.8670	40.8530
 0.8680	40.8640
 0.8690	40.8830
 0.8700	40.8720
 0.8710	40.8660
 0.8720	40.8700
 0.8730	40.8700
 0.8740	40.8790
 0.8750	40.9010
 0.8760	40.9210
 0.8770	40.9060
 0.8780	40.9040
 0.8790	40.9040
 0.8800	40.8960
 0.8810	40.8870
 0.8820	40.8730
 0.8830	40.8760
 0.8840	40.9020
 0.8850	40.9110
 0.8860	40.9240
 0.8870	40.9310
 0.8880	40.9240
 0.8890	40.9330
 0.8900	40.9450
 0.8910	40.9500
 0.8920	40.9450
 0.8930	40.9510
 0.8940	40.9640
 0.8950	40.9800
 0.8960	40.9890
 0.8970	40.9790
 0.8980	40.9780
 0.8990	40.9930
 0.9000	41.0050
 0.9010	40.9930
 0.9020	40.9940
 0.9030	41.0170
 0.9040	41.0280
 0.9050	41.0180
 0.9060	41.0150
 0.9070	41.0330
 0.9080	41.0430
 0.9090	41.0560
 0.9100	41.0600
 0.9110	41.0530
 0.9120	41.0680
 0.9130	41.0890
 0.9140	41.0870
 0.9150	41.0550
 0.9160	41.0670
 0.9170	41.0810
 0.9180	41.0980
 0.9190	41.1270
 0.9200	41.1230
 0.9210	41.1070
 0.9220	41.0980
 0.9230	41.1070
 0.9240	41.1270
 0.9250	41.1390
 0.9260	41.1370
 0.9270	41.1250
 0.9280	41.1250
 0.9290	41.1290
 0.9300	41.1310
 0.9310	41.1320
 0.9320	41.1240
 0.9330	41.1110
 0.9340	41.1010
 0.9350	41.1020
 0.9360	41.1040
 0.9370	41.1110
 0.9380	41.1210
 0.9390	41.1180
 0.9400	41.0950
 0.9410	41.0910
 0.9420	41.1130
 0.9430	41.0980
 0.9440	41.1060
 0.9450	41.1100
 0.9460	41.0880
 0.9470	41.0760
 0.9480	41.0680
 0.9490	41.0510
 0.9500	41.0250
 0.9510	41.0200
 0.9520	41.0040
 0.9530	40.9840
 0.9540	40.9690
 0.9550	40.9500
 0.9560	40.9470
 0.9570	40.9470
 0.9580	40.9300
 0.9590	40.9110
 0.9600	40.8760
 0.9610	40.8480
 0.9620	40.8500
 0.9630	40.8430
 0.9640	40.8280
 0.9650	40.8320
 0.9660	40.8700
 0.9670	40.8630
 0.9680	40.8420
 0.9690	40.8300
 0.9700	40.8330
 0.9710	40.8370
 0.9720	40.8310
 0.9730	40.8200
 0.9740	40.8150
 0.9750	40.8300
 0.9760	40.8550
 0.9770	40.8600
 0.9780	40.8250
 0.9790	40.8290
 0.9800	40.8430
 0.9810	40.8450
 0.9820	40.8280
 0.9830	40.8010
 0.9840	40.7920
 0.9850	40.8150
 0.9860	40.8660
 0.9870	40.8830
 0.9880	40.8980
 0.9890	40.8970
 0.9900	40.8570
 0.9910	40.8400
 0.9920	40.8650
 0.9930	40.8910
 0.9940	40.9160
 0.9950	40.9410
 0.9960	40.9670
 0.9970	40.9920
 0.9980	41.0170
 0.9990	41.0420
 1.0000	41.0680
 1.0010	41.0930
 1.0020	41.1180
 1.0030	41.1440
 1.0040	41.1690
 1.0050	41.1940
 1.0060	41.2190
 1.0070	41.2450
 1.0080	41.2700
 1.0090	41.2950
 1.0100	41.2950
 1.0110	41.3090
 1.0120	41.3180
 1.0130	41.3200
 1.0140	41.3240
 1.0150	41.3320
 1.0160	41.3350
 1.0170	41.3340
 1.0180	41.3420
 1.0190	41.3490
 1.0200	41.3560
 1.0210	41.3670
 1.0220	41.3750
 1.0230	41.3810
 1.0240	41.3860
 1.0250	41.3910
 1.0260	41.3900
 1.0270	41.3950
 1.0280	41.4040
 1.0290	41.4110
 1.0300	41.4220
 1.0310	41.4310
 1.0320	41.4370
 1.0330	41.4470
 1.0340	41.4540
 1.0350	41.4550
 1.0360	41.4590
 1.0370	41.4590
 1.0380	41.4620
 1.0390	41.4660
 1.0400	41.4730
 1.0410	41.4850
 1.0420	41.4930
 1.0430	41.5030
 1.0440	41.5080
 1.0450	41.5060
 1.0460	41.5090
 1.0470	41.5110
 1.0480	41.5130
 1.0490	41.5170
 1.0500	41.5210
 1.0510	41.5250
 1.0520	41.5310
 1.0530	41.5360
 1.0540	41.5390
 1.0550	41.5480
 1.0560	41.5590
 1.0570	41.5660
 1.0580	41.5780
 1.0590	41.5840
 1.0600	41.5820
 1.0610	41.5850
 1.0620	41.5890
 1.0630	41.5940
 1.0640	41.6040
 1.0650	41.6100
 1.0660	41.6170
 1.0670	41.6230
 1.0680	41.6280
 1.0690	41.6310
 1.0700	41.6350
 1.0710	41.6420
 1.0720	41.6460
 1.0730	41.6530
 1.0740	41.6540
 1.0750	41.6510
 1.0760	41.6510
 1.0770	41.6470
 1.0780	41.6480
 1.0790	41.6570
 1.0800	41.6600
 1.0810	41.6620
 1.0820	41.6670
 1.0830	41.6700
 1.0840	41.6740
 1.0850	41.6800
 1.0860	41.6860
 1.0870	41.6880
 1.0880	41.6900
 1.0890	41.6880
 1.0900	41.6840
 1.0910	41.6800
 1.0920	41.6710
 1.0930	41.6680
 1.0940	41.6670
 1.0950	41.6640
 1.0960	41.6620
 1.0970	41.6610
 1.0980	41.6590
 1.0990	41.6570
 1.1000	41.6610
 1.1010	41.6580
 1.1020	41.6520
 1.1030	41.6420
 1.1040	41.6380
 1.1050	41.6330
 1.1060	41.6260
 1.1070	41.6220
 1.1080	41.6170
 1.1090	41.6090
 1.1100	41.6040
 1.1110	41.6040
 1.1120	41.5990
 1.1130	41.5940
 1.1140	41.5870
 1.1150	41.5760
 1.1160	41.5690
 1.1170	41.5600
 1.1180	41.5530
 1.1190	41.5480
 1.1200	41.5460
 1.1210	41.5400
 1.1220	41.5330
 1.1230	41.5240
 1.1240	41.5090
 1.1250	41.4940
 1.1260	41.4790
 1.1270	41.4590
 1.1280	41.4340
 1.1290	41.4130
 1.1300	41.3930
 1.1310	41.3680
 1.1320	41.3450
 1.1330	41.3180
 1.1340	41.2870
 1.1350	41.2540
 1.1360	41.2180
 1.1370	41.1830
 1.1380	41.1410
 1.1390	41.0990
 1.1400	41.0580
 1.1410	41.0140
 1.1420	40.9670
 1.1430	40.9200
 1.1440	40.8760
 1.1450	40.8340
 1.1460	40.7910
 1.1470	40.7490
 1.1480	40.7110
 1.1490	40.6700
 1.1500	40.6350
 1.1510	40.6070
 1.1520	40.5770
 1.1530	40.5460
 1.1540	40.5200
 1.1550	40.4960
 1.1560	40.4740
 1.1570	40.4560
 1.1580	40.4420
 1.1590	40.4270
 1.1600	40.4130
 1.1610	40.4030
 1.1620	40.3950
 1.1630	40.3900
 1.1640	40.3820
 1.1650	40.3760
 1.1660	40.3700
 1.1670	40.3660
 1.1680	40.3650
 1.1690	40.3640
 1.1700	40.3680
 1.1710	40.3660
 1.1720	40.3620
 1.1730	40.3590
 1.1740	40.3520
 1.1750	40.3490
 1.1760	40.3510
 1.1770	40.3490
 1.1780	40.3470
 1.1790	40.3440
 1.1800	40.3390
 1.1810	40.3350
 1.1820	40.3300
 1.1830	40.3250
 1.1840	40.3180
 1.1850	40.3130
 1.1860	40.3090
 1.1870	40.3070
 1.1880	40.3040
 1.1890	40.3010
 1.1900	40.3000
 1.1910	40.3010
 1.1920	40.2980
 1.1930	40.2950
 1.1940	40.2940
 1.1950	40.2910
 1.1960	40.2910
 1.1970	40.2910
 1.1980	40.2910
 1.1990	40.2890
 1.2000	40.2860
 1.2010	40.2880
 1.2020	40.2930
 1.2030	40.2960
 1.2040	40.2990
 1.2050	40.3000
 1.2060	40.3010
 1.2070	40.3030
 1.2080	40.3050
 1.2090	40.3090
 1.2100	40.3150
 1.2110	40.3210
 1.2120	40.3310
 1.2130	40.3360
 1.2140	40.3380
 1.2150	40.3420
 1.2160	40.3450
 1.2170	40.3490
 1.2180	40.3590
 1.2190	40.3660
 1.2200	40.3710
 1.2210	40.3770
 1.2220	40.3810
 1.2230	40.3850
 1.2240	40.3910
 1.2250	40.3950
 1.2260	40.4010
 1.2270	40.4070
 1.2280	40.4140
 1.2290	40.4210
 1.2300	40.4280
 1.2310	40.4340
 1.2320	40.4360
 1.2330	40.4380
 1.2340	40.4420
 1.2350	40.4460
 1.2360	40.4510
 1.2370	40.4590
 1.2380	40.4660
 1.2390	40.4680
 1.2400	40.4710
 1.2410	40.4700
 1.2420	40.4720
 1.2430	40.4760
 1.2440	40.4780
 1.2450	40.4810
 1.2460	40.4820
 1.2470	40.4850
 1.2480	40.4880
 1.2490	40.4910
 1.2500	40.4960
 1.2510	40.5040
 1.2520	40.5100
 1.2530	40.5140
 1.2540	40.5190
 1.2550	40.5170
 1.2560	40.5160
 1.2570	40.5190
 1.2580	40.5140
 1.2590	40.5120
 1.2600	40.5160
 1.2610	40.5130
 1.2620	40.5070
 1.2630	40.5050
 1.2640	40.5040
 1.2650	40.4960
 1.2660	40.4930
 1.2670	40.4900
 1.2680	40.4820
 1.2690	40.4780
 1.2700	40.4730
 1.2710	40.4690
 1.2720	40.4670
 1.2730	40.4610
 1.2740	40.4560
 1.2750	40.4530
 1.2760	40.4460
 1.2770	40.4400
 1.2780	40.4350
 1.2790	40.4250
 1.2800	40.4170
 1.2810	40.4100
 1.2820	40.4010
 1.2830	40.3940
 1.2840	40.3900
 1.2850	40.3830
 1.2860	40.3760
 1.2870	40.3710
 1.2880	40.3670
 1.2890	40.3620
 1.2900	40.3560
 1.2910	40.3510
 1.2920	40.3420
 1.2930	40.3310
 1.2940	40.3220
 1.2950	40.3110
 1.2960	40.2980
 1.2970	40.2840
 1.2980	40.2690
 1.2990	40.2520
 1.3000	40.2370
 1.3010	40.2220
 1.3020	40.2030
 1.3030	40.1820
 1.3040	40.1590
 1.3050	40.1350
 1.3060	40.1090
 1.3070	40.0820
 1.3080	40.0550
 1.3090	40.0270
 1.3100	39.9970
 1.3110	39.9710
 1.3120	39.9420
 1.3130	39.9110
 1.3140	39.8790
 1.3150	39.8480
 1.3160	39.8100
 1.3170	39.7700
 1.3180	39.7290
 1.3190	39.6860
 1.3200	39.6420
 1.3210	39.6000
 1.3220	39.5560
 1.3230	39.5080
 1.3240	39.4590
 1.3250	39.4110
 1.3260	39.3620
 1.3270	39.3090
 1.3280	39.2530
 1.3290	39.1990
 1.3300	39.1450
 1.3310	39.0900
 1.3320	39.0380
 1.3330	38.9860
 1.3340	38.9320
 1.3350	38.8780
 1.3360	38.8230
 1.3370	38.7630
 1.3380	38.7020
 1.3390	38.6430
 1.3400	38.5850
 1.3410	38.5270
 1.3420	38.4710
 1.3430	38.4130
 1.3440	38.3520
 1.3450	38.2940
 1.3460	38.2370
 1.3470	38.1820
 1.3480	38.1300
 1.3490	38.0780
 1.3500	38.0280
 1.3510	37.9760
 1.3520	37.9250
 1.3530	37.8740
 1.3540	37.8210
 1.3550	37.7710
 1.3560	37.7180
 1.3570	37.6640
 1.3580	37.6110
 1.3590	37.5570
 1.3600	37.4990
 1.3610	37.4370
 1.3620	37.3740
 1.3630	37.3100
 1.3640	37.2420
 1.3650	37.1710
 1.3660	37.0970
 1.3670	37.0140
 1.3680	36.9240
 1.3690	36.8300
 1.3700	36.7240
 1.3710	36.6110
 1.3720	36.4920
 1.3730	36.3630
 1.3740	36.2280
 1.3750	36.0860
 1.3760	35.9310
 1.3770	35.7650
 1.3780	35.5840
 1.3790	35.3890
 1.3800	35.1800
 1.3810	34.9560
 1.3820	34.7180
 1.3830	34.4670
 1.3840	34.2000
 1.3850	33.9180
 1.3860	33.6250
 1.3870	33.3160
 1.3880	33.0010
 1.3890	32.6760
 1.3900	32.3410
 1.3910	32.0020
 1.3920	31.6550
 1.3930	31.3020
 1.3940	30.9470
 1.3950	30.5850
 1.3960	30.2250
 1.3970	29.8680
 1.3980	29.5110
 1.3990	29.1640
 1.4000	28.8240
 1.4010	28.4880
 1.4020	28.1640
 1.4030	27.8470
 1.4040	27.5400
 1.4050	27.2480
 1.4060	26.9690
 1.4070	26.7100
 1.4080	26.4630
 1.4090	26.2280
 1.4100	26.0080
 1.4110	25.7980
 1.4120	25.6030
 1.4130	25.4220
 1.4140	25.2550
 1.4150	25.1020
 1.4160	24.9610
 1.4170	24.8310
 1.4180	24.7100
 1.4190	24.5970
 1.4200	24.4970
 1.4210	24.4060
 1.4220	24.3230
 1.4230	24.2510
 1.4240	24.1860
 1.4250	24.1270
 1.4260	24.0760
 1.4270	24.0300
 1.4280	23.9890
 1.4290	23.9540
 1.4300	23.9240
 1.4310	23.8990
 1.4320	23.8840
 1.4330	23.8700
 1.4340	23.8620
 1.4350	23.8530
 1.4360	23.8460
 1.4370	23.8410
 1.4380	23.8400
 1.4390	23.8410
 1.4400	23.8440
 1.4410	23.8500
 1.4420	23.8570
 1.4430	23.8700
 1.4440	23.8860
 1.4450	23.9040
 1.4460	23.9230
 1.4470	23.9440
 1.4480	23.9660
 1.4490	23.9870
 1.4500	24.0080
 1.4510	24.0280
 1.4520	24.0490
 1.4530	24.0730
 1.4540	24.1010
 1.4550	24.1300
 1.4560	24.1590
 1.4570	24.1930
 1.4580	24.2300
 1.4590	24.2700
 1.4600	24.3160
 1.4610	24.3640
 1.4620	24.4160
 1.4630	24.4730
 1.4640	24.5320
 1.4650	24.5960
 1.4660	24.6640
 1.4670	24.7370
 1.4680	24.8170
 1.4690	24.8990
 1.4700	24.9870
 1.4710	25.0770
 1.4720	25.1670
 1.4730	25.2600
