Name: Adenostoma fasciculatum 1
Type: vegetation
Class: Shrub
Genus: Adenostoma
Species: fasciculatum
Sample No.: VH217
Owner: UCSB
Wavelength Range: VSWIR
Origin: 34.5084; -119.7687; WGS84
Collection Date: 10/13/2013
Description: Samples were collected as part of the HyspIRI Airborne Campaign. 48 individual plants were sampled in three times in 2013 - spring  summer  and fall. The name of the sample includes a 1  2  or 3 which references a different individual of the species. Samples were taken to JPL and processed within 48 hours of collection. The same leaves were processed in the Nicolet and then measured using the ASD.
Measurement: Bidirectional reflectance
First Column: X
Second Column: Y
X Units: Wavelength (micrometers)
Y Units: Reflectance (percentage)
First X Value: 0.35
Last X Value: 2.5
Number of X Values: 2151
Additional Information: vegetation.shrub.adenostoma.fasciculatum.vswir.vh217.ucsb.asd.ancillary.txt

 0.3500	 2.9140
 0.3510	 2.8150
 0.3520	 2.7160
 0.3530	 2.5640
 0.3540	 2.3820
 0.3550	 2.5900
 0.3560	 2.7660
 0.3570	 2.8210
 0.3580	 2.8330
 0.3590	 2.6640
 0.3600	 2.4840
 0.3610	 2.4430
 0.3620	 2.6310
 0.3630	 2.7080
 0.3640	 2.6870
 0.3650	 2.6790
 0.3660	 2.7590
 0.3670	 2.7260
 0.3680	 2.6520
 0.3690	 2.7650
 0.3700	 2.7370
 0.3710	 2.7100
 0.3720	 2.7540
 0.3730	 2.6820
 0.3740	 2.5140
 0.3750	 2.4560
 0.3760	 2.6450
 0.3770	 2.6110
 0.3780	 2.5180
 0.3790	 2.5250
 0.3800	 2.7340
 0.3810	 2.6910
 0.3820	 2.6520
 0.3830	 2.7450
 0.3840	 2.5410
 0.3850	 2.4690
 0.3860	 2.5680
 0.3870	 2.7050
 0.3880	 2.7080
 0.3890	 2.6720
 0.3900	 2.6660
 0.3910	 2.7110
 0.3920	 2.6890
 0.3930	 2.6710
 0.3940	 2.7060
 0.3950	 2.6740
 0.3960	 2.6970
 0.3970	 2.7360
 0.3980	 2.6900
 0.3990	 2.6630
 0.4000	 2.6800
 0.4010	 2.7170
 0.4020	 2.6990
 0.4030	 2.7190
 0.4040	 2.7570
 0.4050	 2.7740
 0.4060	 2.7980
 0.4070	 2.8200
 0.4080	 2.8300
 0.4090	 2.8150
 0.4100	 2.8150
 0.4110	 2.8410
 0.4120	 2.8760
 0.4130	 2.8670
 0.4140	 2.8920
 0.4150	 2.9300
 0.4160	 2.9420
 0.4170	 2.9900
 0.4180	 3.0070
 0.4190	 3.0060
 0.4200	 3.0670
 0.4210	 3.0870
 0.4220	 3.0900
 0.4230	 3.1080
 0.4240	 3.1250
 0.4250	 3.1590
 0.4260	 3.1960
 0.4270	 3.2160
 0.4280	 3.2120
 0.4290	 3.2350
 0.4300	 3.2840
 0.4310	 3.2870
 0.4320	 3.2870
 0.4330	 3.3010
 0.4340	 3.3240
 0.4350	 3.3020
 0.4360	 3.3230
 0.4370	 3.3730
 0.4380	 3.3730
 0.4390	 3.3860
 0.4400	 3.4090
 0.4410	 3.4270
 0.4420	 3.4100
 0.4430	 3.4230
 0.4440	 3.4600
 0.4450	 3.4870
 0.4460	 3.4900
 0.4470	 3.4880
 0.4480	 3.4990
 0.4490	 3.5340
 0.4500	 3.5510
 0.4510	 3.5650
 0.4520	 3.5890
 0.4530	 3.5970
 0.4540	 3.6050
 0.4550	 3.6130
 0.4560	 3.6130
 0.4570	 3.6240
 0.4580	 3.6420
 0.4590	 3.6580
 0.4600	 3.6610
 0.4610	 3.6730
 0.4620	 3.6800
 0.4630	 3.6700
 0.4640	 3.7040
 0.4650	 3.7220
 0.4660	 3.7140
 0.4670	 3.7330
 0.4680	 3.7570
 0.4690	 3.7690
 0.4700	 3.7620
 0.4710	 3.7530
 0.4720	 3.7570
 0.4730	 3.7700
 0.4740	 3.7790
 0.4750	 3.7920
 0.4760	 3.8070
 0.4770	 3.8200
 0.4780	 3.8300
 0.4790	 3.8330
 0.4800	 3.8340
 0.4810	 3.8390
 0.4820	 3.8390
 0.4830	 3.8540
 0.4840	 3.8780
 0.4850	 3.8820
 0.4860	 3.8760
 0.4870	 3.8910
 0.4880	 3.9320
 0.4890	 3.9150
 0.4900	 3.9280
 0.4910	 3.9700
 0.4920	 3.9970
 0.4930	 4.0100
 0.4940	 4.0290
 0.4950	 4.0580
 0.4960	 4.0700
 0.4970	 4.0980
 0.4980	 4.1340
 0.4990	 4.1630
 0.5000	 4.1850
 0.5010	 4.2120
 0.5020	 4.2500
 0.5030	 4.3040
 0.5040	 4.3500
 0.5050	 4.4030
 0.5060	 4.4700
 0.5070	 4.5180
 0.5080	 4.5870
 0.5090	 4.6660
 0.5100	 4.7320
 0.5110	 4.7950
 0.5120	 4.8760
 0.5130	 4.9750
 0.5140	 5.0700
 0.5150	 5.1600
 0.5160	 5.2590
 0.5170	 5.3700
 0.5180	 5.4680
 0.5190	 5.5820
 0.5200	 5.7100
 0.5210	 5.8230
 0.5220	 5.9360
 0.5230	 6.0510
 0.5240	 6.1680
 0.5250	 6.2850
 0.5260	 6.3860
 0.5270	 6.4820
 0.5280	 6.5940
 0.5290	 6.6960
 0.5300	 6.7850
 0.5310	 6.8660
 0.5320	 6.9500
 0.5330	 7.0230
 0.5340	 7.0920
 0.5350	 7.1620
 0.5360	 7.2190
 0.5370	 7.2820
 0.5380	 7.3470
 0.5390	 7.3960
 0.5400	 7.4500
 0.5410	 7.5010
 0.5420	 7.5430
 0.5430	 7.5920
 0.5440	 7.6470
 0.5450	 7.6990
 0.5460	 7.7430
 0.5470	 7.7830
 0.5480	 7.8240
 0.5490	 7.8650
 0.5500	 7.9000
 0.5510	 7.9470
 0.5520	 7.9910
 0.5530	 8.0190
 0.5540	 8.0390
 0.5550	 8.0530
 0.5560	 8.0600
 0.5570	 8.0610
 0.5580	 8.0610
 0.5590	 8.0600
 0.5600	 8.0530
 0.5610	 8.0370
 0.5620	 8.0200
 0.5630	 7.9990
 0.5640	 7.9730
 0.5650	 7.9510
 0.5660	 7.9240
 0.5670	 7.8920
 0.5680	 7.8620
 0.5690	 7.8190
 0.5700	 7.7760
 0.5710	 7.7470
 0.5720	 7.7060
 0.5730	 7.6760
 0.5740	 7.6550
 0.5750	 7.6270
 0.5760	 7.6040
 0.5770	 7.5890
 0.5780	 7.5830
 0.5790	 7.5770
 0.5800	 7.5670
 0.5810	 7.5560
 0.5820	 7.5520
 0.5830	 7.5500
 0.5840	 7.5510
 0.5850	 7.5530
 0.5860	 7.5480
 0.5870	 7.5430
 0.5880	 7.5420
 0.5890	 7.5500
 0.5900	 7.5620
 0.5910	 7.5780
 0.5920	 7.5980
 0.5930	 7.6220
 0.5940	 7.6490
 0.5950	 7.6760
 0.5960	 7.7020
 0.5970	 7.7280
 0.5980	 7.7600
 0.5990	 7.7940
 0.6000	 7.8280
 0.6010	 7.8650
 0.6020	 7.9000
 0.6030	 7.9330
 0.6040	 7.9610
 0.6050	 7.9810
 0.6060	 7.9970
 0.6070	 8.0140
 0.6080	 8.0310
 0.6090	 8.0450
 0.6100	 8.0550
 0.6110	 8.0690
 0.6120	 8.0870
 0.6130	 8.1010
 0.6140	 8.1110
 0.6150	 8.1330
 0.6160	 8.1570
 0.6170	 8.1770
 0.6180	 8.1910
 0.6190	 8.2170
 0.6200	 8.2470
 0.6210	 8.2800
 0.6220	 8.3130
 0.6230	 8.3480
 0.6240	 8.3870
 0.6250	 8.4300
 0.6260	 8.4740
 0.6270	 8.5160
 0.6280	 8.5610
 0.6290	 8.6120
 0.6300	 8.6580
 0.6310	 8.7020
 0.6320	 8.7450
 0.6330	 8.7850
 0.6340	 8.8200
 0.6350	 8.8490
 0.6360	 8.8730
 0.6370	 8.8950
 0.6380	 8.9040
 0.6390	 8.9080
 0.6400	 8.9190
 0.6410	 8.9190
 0.6420	 8.9150
 0.6430	 8.9120
 0.6440	 8.9150
 0.6450	 8.9090
 0.6460	 8.8990
 0.6470	 8.8950
 0.6480	 8.8960
 0.6490	 8.9050
 0.6500	 8.9200
 0.6510	 8.9400
 0.6520	 8.9580
 0.6530	 8.9770
 0.6540	 8.9970
 0.6550	 9.0160
 0.6560	 9.0360
 0.6570	 9.0510
 0.6580	 9.0560
 0.6590	 9.0570
 0.6600	 9.0570
 0.6610	 9.0570
 0.6620	 9.0570
 0.6630	 9.0550
 0.6640	 9.0510
 0.6650	 9.0480
 0.6660	 9.0470
 0.6670	 9.0530
 0.6680	 9.0660
 0.6690	 9.0830
 0.6700	 9.1040
 0.6710	 9.1280
 0.6720	 9.1570
 0.6730	 9.1870
 0.6740	 9.2240
 0.6750	 9.2650
 0.6760	 9.3100
 0.6770	 9.3620
 0.6780	 9.4190
 0.6790	 9.4780
 0.6800	 9.5380
 0.6810	 9.6140
 0.6820	 9.6990
 0.6830	 9.7940
 0.6840	 9.9160
 0.6850	10.0520
 0.6860	10.2020
 0.6870	10.3720
 0.6880	10.5650
 0.6890	10.7950
 0.6900	11.0620
 0.6910	11.3540
 0.6920	11.6770
 0.6930	12.0390
 0.6940	12.4380
 0.6950	12.8620
 0.6960	13.3200
 0.6970	13.8150
 0.6980	14.3430
 0.6990	14.8850
 0.7000	15.4460
 0.7010	16.0290
 0.7020	16.6300
 0.7030	17.2320
 0.7040	17.8440
 0.7050	18.4670
 0.7060	19.0790
 0.7070	19.6970
 0.7080	20.3220
 0.7090	20.9510
 0.7100	21.5830
 0.7110	22.2190
 0.7120	22.8590
 0.7130	23.5000
 0.7140	24.1490
 0.7150	24.8000
 0.7160	25.4510
 0.7170	26.1050
 0.7180	26.7550
 0.7190	27.4000
 0.7200	28.0400
 0.7210	28.6850
 0.7220	29.3230
 0.7230	29.9460
 0.7240	30.5610
 0.7250	31.1530
 0.7260	31.7400
 0.7270	32.3280
 0.7280	32.8730
 0.7290	33.4080
 0.7300	33.9300
 0.7310	34.4270
 0.7320	34.9060
 0.7330	35.3640
 0.7340	35.8050
 0.7350	36.2310
 0.7360	36.6300
 0.7370	37.0100
 0.7380	37.3780
 0.7390	37.7330
 0.7400	38.0630
 0.7410	38.3720
 0.7420	38.6720
 0.7430	38.9750
 0.7440	39.2500
 0.7450	39.4910
 0.7460	39.7260
 0.7470	39.9490
 0.7480	40.1640
 0.7490	40.3750
 0.7500	40.5820
 0.7510	40.7600
 0.7520	40.9240
 0.7530	41.0970
 0.7540	41.2530
 0.7550	41.4020
 0.7560	41.5480
 0.7570	41.6870
 0.7580	41.8140
 0.7590	41.9420
 0.7600	42.0730
 0.7610	42.1920
 0.7620	42.3030
 0.7630	42.4060
 0.7640	42.5060
 0.7650	42.6240
 0.7660	42.7260
 0.7670	42.8160
 0.7680	42.9230
 0.7690	43.0130
 0.7700	43.0990
 0.7710	43.1930
 0.7720	43.2930
 0.7730	43.3770
 0.7740	43.4530
 0.7750	43.5330
 0.7760	43.6270
 0.7770	43.7100
 0.7780	43.7850
 0.7790	43.8620
 0.7800	43.9410
 0.7810	44.0220
 0.7820	44.1040
 0.7830	44.1840
 0.7840	44.2570
 0.7850	44.3350
 0.7860	44.4220
 0.7870	44.4860
 0.7880	44.5610
 0.7890	44.6420
 0.7900	44.7160
 0.7910	44.7860
 0.7920	44.8520
 0.7930	44.9130
 0.7940	44.9720
 0.7950	45.0350
 0.7960	45.1020
 0.7970	45.1750
 0.7980	45.2630
 0.7990	45.3250
 0.8000	45.3810
 0.8010	45.4520
 0.8020	45.5160
 0.8030	45.5760
 0.8040	45.6330
 0.8050	45.6900
 0.8060	45.7490
 0.8070	45.8120
 0.8080	45.8700
 0.8090	45.9120
 0.8100	45.9610
 0.8110	46.0130
 0.8120	46.0680
 0.8130	46.1350
 0.8140	46.1840
 0.8150	46.2250
 0.8160	46.2760
 0.8170	46.3350
 0.8180	46.3900
 0.8190	46.4360
 0.8200	46.4720
 0.8210	46.5310
 0.8220	46.5800
 0.8230	46.6210
 0.8240	46.6790
 0.8250	46.7250
 0.8260	46.7600
 0.8270	46.7930
 0.8280	46.8430
 0.8290	46.8850
 0.8300	46.9170
 0.8310	46.9490
 0.8320	46.9940
 0.8330	47.0380
 0.8340	47.0790
 0.8350	47.1160
 0.8360	47.1510
 0.8370	47.1920
 0.8380	47.2370
 0.8390	47.2800
 0.8400	47.3220
 0.8410	47.3670
 0.8420	47.4100
 0.8430	47.4360
 0.8440	47.4700
 0.8450	47.5190
 0.8460	47.5770
 0.8470	47.6160
 0.8480	47.6660
 0.8490	47.7140
 0.8500	47.7410
 0.8510	47.7710
 0.8520	47.8100
 0.8530	47.8480
 0.8540	47.8760
 0.8550	47.9170
 0.8560	47.9700
 0.8570	48.0260
 0.8580	48.0750
 0.8590	48.0840
 0.8600	48.1050
 0.8610	48.1570
 0.8620	48.1790
 0.8630	48.2010
 0.8640	48.2300
 0.8650	48.2670
 0.8660	48.3060
 0.8670	48.3340
 0.8680	48.3630
 0.8690	48.4050
 0.8700	48.4310
 0.8710	48.4740
 0.8720	48.5190
 0.8730	48.5350
 0.8740	48.5640
 0.8750	48.5920
 0.8760	48.6190
 0.8770	48.6630
 0.8780	48.6910
 0.8790	48.7150
 0.8800	48.7430
 0.8810	48.7600
 0.8820	48.7790
 0.8830	48.8050
 0.8840	48.8390
 0.8850	48.8640
 0.8860	48.8730
 0.8870	48.8750
 0.8880	48.8880
 0.8890	48.9260
 0.8900	48.9480
 0.8910	48.9600
 0.8920	48.9800
 0.8930	48.9880
 0.8940	49.0130
 0.8950	49.0430
 0.8960	49.0460
 0.8970	49.0640
 0.8980	49.0770
 0.8990	49.0800
 0.9000	49.0880
 0.9010	49.1090
 0.9020	49.1170
 0.9030	49.1120
 0.9040	49.1300
 0.9050	49.1420
 0.9060	49.1580
 0.9070	49.1790
 0.9080	49.1890
 0.9090	49.1760
 0.9100	49.1830
 0.9110	49.2240
 0.9120	49.2140
 0.9130	49.2160
 0.9140	49.2290
 0.9150	49.2390
 0.9160	49.2340
 0.9170	49.2460
 0.9180	49.2660
 0.9190	49.2690
 0.9200	49.2630
 0.9210	49.2640
 0.9220	49.2660
 0.9230	49.2580
 0.9240	49.2560
 0.9250	49.2570
 0.9260	49.2480
 0.9270	49.2150
 0.9280	49.2040
 0.9290	49.2020
 0.9300	49.1990
 0.9310	49.1860
 0.9320	49.1750
 0.9330	49.1420
 0.9340	49.0950
 0.9350	49.0770
 0.9360	49.0710
 0.9370	49.0540
 0.9380	49.0140
 0.9390	48.9590
 0.9400	48.9240
 0.9410	48.8800
 0.9420	48.8190
 0.9430	48.7880
 0.9440	48.7400
 0.9450	48.6820
 0.9460	48.6230
 0.9470	48.5590
 0.9480	48.4900
 0.9490	48.4160
 0.9500	48.3360
 0.9510	48.2410
 0.9520	48.1360
 0.9530	48.0150
 0.9540	47.8840
 0.9550	47.7850
 0.9560	47.6810
 0.9570	47.5670
 0.9580	47.4580
 0.9590	47.3860
 0.9600	47.2850
 0.9610	47.1730
 0.9620	47.0950
 0.9630	47.0510
 0.9640	47.0030
 0.9650	46.9420
 0.9660	46.8820
 0.9670	46.8570
 0.9680	46.7960
 0.9690	46.7490
 0.9700	46.7730
 0.9710	46.7120
 0.9720	46.6690
 0.9730	46.6630
 0.9740	46.6620
 0.9750	46.6400
 0.9760	46.6090
 0.9770	46.5950
 0.9780	46.6130
 0.9790	46.6170
 0.9800	46.6250
 0.9810	46.6250
 0.9820	46.6060
 0.9830	46.6570
 0.9840	46.6870
 0.9850	46.6920
 0.9860	46.7100
 0.9870	46.7130
 0.9880	46.7530
 0.9890	46.8040
 0.9900	46.8180
 0.9910	46.8390
 0.9920	46.9260
 0.9930	47.0120
 0.9940	47.0980
 0.9950	47.1850
 0.9960	47.2710
 0.9970	47.3580
 0.9980	47.4440
 0.9990	47.5300
 1.0000	47.6170
 1.0010	47.7030
 1.0020	47.7890
 1.0030	47.8760
 1.0040	47.9620
 1.0050	48.0490
 1.0060	48.1350
 1.0070	48.2210
 1.0080	48.3080
 1.0090	48.3940
 1.0100	48.3940
 1.0110	48.4560
 1.0120	48.5160
 1.0130	48.5720
 1.0140	48.6330
 1.0150	48.7010
 1.0160	48.7520
 1.0170	48.8110
 1.0180	48.8750
 1.0190	48.9420
 1.0200	49.0180
 1.0210	49.0880
 1.0220	49.1560
 1.0230	49.2150
 1.0240	49.2580
 1.0250	49.3150
 1.0260	49.3750
 1.0270	49.4290
 1.0280	49.4850
 1.0290	49.5410
 1.0300	49.5900
 1.0310	49.6450
 1.0320	49.7060
 1.0330	49.7630
 1.0340	49.8160
 1.0350	49.8690
 1.0360	49.9300
 1.0370	49.9780
 1.0380	50.0270
 1.0390	50.0750
 1.0400	50.1210
 1.0410	50.1580
 1.0420	50.2030
 1.0430	50.2530
 1.0440	50.2970
 1.0450	50.3400
 1.0460	50.3800
 1.0470	50.4140
 1.0480	50.4480
 1.0490	50.4740
 1.0500	50.5110
 1.0510	50.5600
 1.0520	50.5970
 1.0530	50.6330
 1.0540	50.6750
 1.0550	50.7050
 1.0560	50.7190
 1.0570	50.7490
 1.0580	50.7830
 1.0590	50.8160
 1.0600	50.8590
 1.0610	50.8910
 1.0620	50.9170
 1.0630	50.9450
 1.0640	50.9700
 1.0650	50.9950
 1.0660	51.0240
 1.0670	51.0470
 1.0680	51.0660
 1.0690	51.0800
 1.0700	51.0950
 1.0710	51.1040
 1.0720	51.1190
 1.0730	51.1370
 1.0740	51.1490
 1.0750	51.1600
 1.0760	51.1680
 1.0770	51.1710
 1.0780	51.1770
 1.0790	51.1860
 1.0800	51.1920
 1.0810	51.1980
 1.0820	51.2020
 1.0830	51.2010
 1.0840	51.2030
 1.0850	51.2080
 1.0860	51.2100
 1.0870	51.2070
 1.0880	51.2020
 1.0890	51.1990
 1.0900	51.1920
 1.0910	51.1880
 1.0920	51.1960
 1.0930	51.1860
 1.0940	51.1650
 1.0950	51.1500
 1.0960	51.1310
 1.0970	51.1120
 1.0980	51.0980
 1.0990	51.0780
 1.1000	51.0510
 1.1010	51.0260
 1.1020	51.0030
 1.1030	50.9780
 1.1040	50.9490
 1.1050	50.9320
 1.1060	50.9070
 1.1070	50.8840
 1.1080	50.8560
 1.1090	50.8260
 1.1100	50.7910
 1.1110	50.7560
 1.1120	50.7130
 1.1130	50.6630
 1.1140	50.6110
 1.1150	50.5550
 1.1160	50.4960
 1.1170	50.4390
 1.1180	50.3760
 1.1190	50.3110
 1.1200	50.2350
 1.1210	50.1550
 1.1220	50.0680
 1.1230	49.9670
 1.1240	49.8640
 1.1250	49.7540
 1.1260	49.6380
 1.1270	49.5110
 1.1280	49.3780
 1.1290	49.2300
 1.1300	49.0710
 1.1310	48.9000
 1.1320	48.7190
 1.1330	48.5270
 1.1340	48.3220
 1.1350	48.1090
 1.1360	47.8880
 1.1370	47.6570
 1.1380	47.4180
 1.1390	47.1740
 1.1400	46.9230
 1.1410	46.6700
 1.1420	46.4120
 1.1430	46.1420
 1.1440	45.8780
 1.1450	45.6070
 1.1460	45.3490
 1.1470	45.0940
 1.1480	44.8480
 1.1490	44.6050
 1.1500	44.3750
 1.1510	44.1550
 1.1520	43.9430
 1.1530	43.7380
 1.1540	43.5480
 1.1550	43.3660
 1.1560	43.1950
 1.1570	43.0420
 1.1580	42.9040
 1.1590	42.7800
 1.1600	42.6640
 1.1610	42.5580
 1.1620	42.4610
 1.1630	42.3740
 1.1640	42.2930
 1.1650	42.2180
 1.1660	42.1540
 1.1670	42.0910
 1.1680	42.0340
 1.1690	41.9790
 1.1700	41.9300
 1.1710	41.8800
 1.1720	41.8330
 1.1730	41.7870
 1.1740	41.7410
 1.1750	41.7010
 1.1760	41.6580
 1.1770	41.6110
 1.1780	41.5660
 1.1790	41.5210
 1.1800	41.4810
 1.1810	41.4410
 1.1820	41.3960
 1.1830	41.3510
 1.1840	41.3050
 1.1850	41.2630
 1.1860	41.2240
 1.1870	41.1840
 1.1880	41.1480
 1.1890	41.1170
 1.1900	41.0830
 1.1910	41.0490
 1.1920	41.0220
 1.1930	40.9980
 1.1940	40.9770
 1.1950	40.9610
 1.1960	40.9480
 1.1970	40.9380
 1.1980	40.9250
 1.1990	40.9180
 1.2000	40.9190
 1.2010	40.9160
 1.2020	40.9200
 1.2030	40.9310
 1.2040	40.9460
 1.2050	40.9640
 1.2060	40.9860
 1.2070	41.0170
 1.2080	41.0490
 1.2090	41.0860
 1.2100	41.1270
 1.2110	41.1710
 1.2120	41.2150
 1.2130	41.2680
 1.2140	41.3320
 1.2150	41.3930
 1.2160	41.4580
 1.2170	41.5230
 1.2180	41.5890
 1.2190	41.6590
 1.2200	41.7390
 1.2210	41.8210
 1.2220	41.9000
 1.2230	41.9810
 1.2240	42.0580
 1.2250	42.1300
 1.2260	42.2070
 1.2270	42.2820
 1.2280	42.3540
 1.2290	42.4270
 1.2300	42.4980
 1.2310	42.5680
 1.2320	42.6300
 1.2330	42.6960
 1.2340	42.7590
 1.2350	42.8170
 1.2360	42.8750
 1.2370	42.9340
 1.2380	42.9870
 1.2390	43.0390
 1.2400	43.0940
 1.2410	43.1460
 1.2420	43.1970
 1.2430	43.2420
 1.2440	43.2870
 1.2450	43.3300
 1.2460	43.3700
 1.2470	43.4130
 1.2480	43.4550
 1.2490	43.4940
 1.2500	43.5320
 1.2510	43.5650
 1.2520	43.5980
 1.2530	43.6280
 1.2540	43.6580
 1.2550	43.6890
 1.2560	43.7160
 1.2570	43.7440
 1.2580	43.7710
 1.2590	43.7940
 1.2600	43.8150
 1.2610	43.8350
 1.2620	43.8530
 1.2630	43.8690
 1.2640	43.8880
 1.2650	43.9020
 1.2660	43.9110
 1.2670	43.9220
 1.2680	43.9300
 1.2690	43.9370
 1.2700	43.9450
 1.2710	43.9500
 1.2720	43.9540
 1.2730	43.9560
 1.2740	43.9570
 1.2750	43.9550
 1.2760	43.9470
 1.2770	43.9380
 1.2780	43.9300
 1.2790	43.9130
 1.2800	43.8920
 1.2810	43.8690
 1.2820	43.8400
 1.2830	43.8180
 1.2840	43.8010
 1.2850	43.7770
 1.2860	43.7510
 1.2870	43.7210
 1.2880	43.6840
 1.2890	43.6400
 1.2900	43.6000
 1.2910	43.5550
 1.2920	43.5060
 1.2930	43.4570
 1.2940	43.4040
 1.2950	43.3470
 1.2960	43.2860
 1.2970	43.2200
 1.2980	43.1500
 1.2990	43.0780
 1.3000	43.0060
 1.3010	42.9330
 1.3020	42.8540
 1.3030	42.7740
 1.3040	42.6850
 1.3050	42.5850
 1.3060	42.4840
 1.3070	42.3790
 1.3080	42.2670
 1.3090	42.1590
 1.3100	42.0420
 1.3110	41.9140
 1.3120	41.7850
 1.3130	41.6540
 1.3140	41.5160
 1.3150	41.3750
 1.3160	41.2300
 1.3170	41.0820
 1.3180	40.9260
 1.3190	40.7700
 1.3200	40.6110
 1.3210	40.4460
 1.3220	40.2790
 1.3230	40.1040
 1.3240	39.9230
 1.3250	39.7400
 1.3260	39.5540
 1.3270	39.3640
 1.3280	39.1710
 1.3290	38.9740
 1.3300	38.7740
 1.3310	38.5760
 1.3320	38.3760
 1.3330	38.1790
 1.3340	37.9780
 1.3350	37.7760
 1.3360	37.5760
 1.3370	37.3740
 1.3380	37.1730
 1.3390	36.9710
 1.3400	36.7660
 1.3410	36.5690
 1.3420	36.3770
 1.3430	36.1860
 1.3440	35.9960
 1.3450	35.8090
 1.3460	35.6200
 1.3470	35.4400
 1.3480	35.2640
 1.3490	35.0930
 1.3500	34.9280
 1.3510	34.7630
 1.3520	34.5990
 1.3530	34.4380
 1.3540	34.2780
 1.3550	34.1220
 1.3560	33.9680
 1.3570	33.8150
 1.3580	33.6640
 1.3590	33.5130
 1.3600	33.3570
 1.3610	33.1970
 1.3620	33.0340
 1.3630	32.8670
 1.3640	32.6990
 1.3650	32.5270
 1.3660	32.3490
 1.3670	32.1630
 1.3680	31.9690
 1.3690	31.7660
 1.3700	31.5500
 1.3710	31.3250
 1.3720	31.0910
 1.3730	30.8430
 1.3740	30.5820
 1.3750	30.3060
 1.3760	30.0150
 1.3770	29.7060
 1.3780	29.3790
 1.3790	29.0350
 1.3800	28.6740
 1.3810	28.2940
 1.3820	27.9020
 1.3830	27.4960
 1.3840	27.0800
 1.3850	26.6520
 1.3860	26.2180
 1.3870	25.7710
 1.3880	25.3260
 1.3890	24.8730
 1.3900	24.4170
 1.3910	23.9650
 1.3920	23.5120
 1.3930	23.0620
 1.3940	22.6180
 1.3950	22.1790
 1.3960	21.7490
 1.3970	21.3280
 1.3980	20.9150
 1.3990	20.5170
 1.4000	20.1320
 1.4010	19.7580
 1.4020	19.4020
 1.4030	19.0600
 1.4040	18.7290
 1.4050	18.4150
 1.4060	18.1150
 1.4070	17.8290
 1.4080	17.5580
 1.4090	17.3000
 1.4100	17.0580
 1.4110	16.8300
 1.4120	16.6170
 1.4130	16.4160
 1.4140	16.2290
 1.4150	16.0570
 1.4160	15.8960
 1.4170	15.7450
 1.4180	15.6080
 1.4190	15.4800
 1.4200	15.3590
 1.4210	15.2490
 1.4220	15.1450
 1.4230	15.0500
 1.4240	14.9630
 1.4250	14.8810
 1.4260	14.8040
 1.4270	14.7340
 1.4280	14.6720
 1.4290	14.6130
 1.4300	14.5600
 1.4310	14.5110
 1.4320	14.4660
 1.4330	14.4280
 1.4340	14.3980
 1.4350	14.3690
 1.4360	14.3450
 1.4370	14.3220
 1.4380	14.2980
 1.4390	14.2800
 1.4400	14.2650
 1.4410	14.2530
 1.4420	14.2450
 1.4430	14.2400
 1.4440	14.2360
 1.4450	14.2340
 1.4460	14.2330
 1.4470	14.2330
 1.4480	14.2350
 1.4490	14.2370
 1.4500	14.2410
 1.4510	14.2460
 1.4520	14.2520
 1.4530	14.2590
 1.4540	14.2690
 1.4550	14.2820
 1.4560	14.2950
 1.4570	14.3080
 1.4580	14.3260
 1.4590	14.3440
 1.4600	14.3640
 1.4610	14.3860
 1.4620	14.4100
 1.4630	14.4360
 1.4640	14.4620
 1.4650	14.4930
 1.4660	14.5280
 1.4670	14.5630
 1.4680	14.6060
 1.4690	14.6510
