Name: Fagus grandifolia
Type: Vegetation
Class: Tree
Genus: Fagus
Species: grandifolia
Sample No.: FAGR-1-39
Owner: UCSB
Wavelength Range: VSWIR
Origin: USA; Massachusetts; Harvard Forest
Collection Date: 7/8/2013
Description: Samples were collected as part of NSF Macrosystem Biology proposal titled: Collaborative Research: Thermal controls on ecosystem metabolism and function: scaling from leaves to canopies to regions. Samples were collected and overnighted to JPL facilities for processing. The same leaves were processed in the Nicolet and then measured using the ASD.
Measurement: Bidirectional reflectance
First Column: X
Second Column: Y
X Units: Wavelength (micrometers)
Y Units: Reflectance (percentage)
First X Value: 0.35
Last X Value: 2.5
Number of X Values: 2151
Additional Information: vegetation.tree.fagus.grandifolia.vswir.fagr-1-39.ucsb.asd.ancillary.txt

 0.3500	 5.5880
 0.3510	 5.6000
 0.3520	 5.6340
 0.3530	 5.6760
 0.3540	 5.7260
 0.3550	 5.6770
 0.3560	 5.7100
 0.3570	 5.7590
 0.3580	 5.6530
 0.3590	 5.4770
 0.3600	 5.4690
 0.3610	 5.6330
 0.3620	 5.6510
 0.3630	 5.6390
 0.3640	 5.6660
 0.3650	 5.7190
 0.3660	 5.4880
 0.3670	 5.3790
 0.3680	 5.4900
 0.3690	 5.6710
 0.3700	 5.7230
 0.3710	 5.6750
 0.3720	 5.5820
 0.3730	 5.4700
 0.3740	 5.5770
 0.3750	 5.7040
 0.3760	 5.6100
 0.3770	 5.5580
 0.3780	 5.5300
 0.3790	 5.5280
 0.3800	 5.5820
 0.3810	 5.6320
 0.3820	 5.6550
 0.3830	 5.6520
 0.3840	 5.6490
 0.3850	 5.6610
 0.3860	 5.6440
 0.3870	 5.5690
 0.3880	 5.6120
 0.3890	 5.6810
 0.3900	 5.7030
 0.3910	 5.6420
 0.3920	 5.6220
 0.3930	 5.6710
 0.3940	 5.7590
 0.3950	 5.7670
 0.3960	 5.7510
 0.3970	 5.7390
 0.3980	 5.7410
 0.3990	 5.7430
 0.4000	 5.7400
 0.4010	 5.7310
 0.4020	 5.7150
 0.4030	 5.7180
 0.4040	 5.7330
 0.4050	 5.7560
 0.4060	 5.8250
 0.4070	 5.8650
 0.4080	 5.8540
 0.4090	 5.8110
 0.4100	 5.8210
 0.4110	 5.8510
 0.4120	 5.8650
 0.4130	 5.8470
 0.4140	 5.8600
 0.4150	 5.8770
 0.4160	 5.8570
 0.4170	 5.8510
 0.4180	 5.8610
 0.4190	 5.8750
 0.4200	 5.8680
 0.4210	 5.8760
 0.4220	 5.8970
 0.4230	 5.9140
 0.4240	 5.9000
 0.4250	 5.8960
 0.4260	 5.9010
 0.4270	 5.8980
 0.4280	 5.9030
 0.4290	 5.9080
 0.4300	 5.9090
 0.4310	 5.9050
 0.4320	 5.9040
 0.4330	 5.9000
 0.4340	 5.8910
 0.4350	 5.8980
 0.4360	 5.9010
 0.4370	 5.8970
 0.4380	 5.8960
 0.4390	 5.9220
 0.4400	 5.9310
 0.4410	 5.9080
 0.4420	 5.9160
 0.4430	 5.9060
 0.4440	 5.8970
 0.4450	 5.9230
 0.4460	 5.9450
 0.4470	 5.9470
 0.4480	 5.9390
 0.4490	 5.9640
 0.4500	 5.9650
 0.4510	 5.9600
 0.4520	 5.9720
 0.4530	 5.9850
 0.4540	 5.9840
 0.4550	 5.9830
 0.4560	 6.0060
 0.4570	 6.0050
 0.4580	 5.9930
 0.4590	 5.9860
 0.4600	 5.9890
 0.4610	 5.9940
 0.4620	 6.0010
 0.4630	 6.0100
 0.4640	 5.9960
 0.4650	 5.9860
 0.4660	 5.9890
 0.4670	 5.9900
 0.4680	 5.9880
 0.4690	 5.9880
 0.4700	 5.9920
 0.4710	 5.9970
 0.4720	 5.9900
 0.4730	 5.9830
 0.4740	 5.9900
 0.4750	 5.9880
 0.4760	 5.9800
 0.4770	 5.9740
 0.4780	 5.9800
 0.4790	 5.9820
 0.4800	 5.9810
 0.4810	 5.9850
 0.4820	 5.9970
 0.4830	 5.9990
 0.4840	 5.9920
 0.4850	 5.9880
 0.4860	 5.9940
 0.4870	 6.0060
 0.4880	 6.0210
 0.4890	 6.0180
 0.4900	 6.0270
 0.4910	 6.0450
 0.4920	 6.0540
 0.4930	 6.0650
 0.4940	 6.0750
 0.4950	 6.0880
 0.4960	 6.1210
 0.4970	 6.1360
 0.4980	 6.1530
 0.4990	 6.1900
 0.5000	 6.2130
 0.5010	 6.2440
 0.5020	 6.2860
 0.5030	 6.3290
 0.5040	 6.3710
 0.5050	 6.4210
 0.5060	 6.4870
 0.5070	 6.5660
 0.5080	 6.6480
 0.5090	 6.7440
 0.5100	 6.8640
 0.5110	 6.9700
 0.5120	 7.0930
 0.5130	 7.2490
 0.5140	 7.4180
 0.5150	 7.5990
 0.5160	 7.7960
 0.5170	 8.0100
 0.5180	 8.2280
 0.5190	 8.4580
 0.5200	 8.7040
 0.5210	 8.9590
 0.5220	 9.2150
 0.5230	 9.4720
 0.5240	 9.7270
 0.5250	 9.9580
 0.5260	10.1900
 0.5270	10.4180
 0.5280	10.6270
 0.5290	10.8270
 0.5300	11.0050
 0.5310	11.1620
 0.5320	11.3200
 0.5330	11.4450
 0.5340	11.5530
 0.5350	11.6600
 0.5360	11.7480
 0.5370	11.8330
 0.5380	11.9130
 0.5390	11.9770
 0.5400	12.0310
 0.5410	12.0800
 0.5420	12.1290
 0.5430	12.1760
 0.5440	12.2310
 0.5450	12.2890
 0.5460	12.3400
 0.5470	12.3800
 0.5480	12.4110
 0.5490	12.4370
 0.5500	12.4620
 0.5510	12.4820
 0.5520	12.4890
 0.5530	12.4820
 0.5540	12.4660
 0.5550	12.4300
 0.5560	12.3740
 0.5570	12.3050
 0.5580	12.2240
 0.5590	12.1310
 0.5600	12.0250
 0.5610	11.9040
 0.5620	11.7710
 0.5630	11.6280
 0.5640	11.4760
 0.5650	11.3150
 0.5660	11.1430
 0.5670	10.9660
 0.5680	10.7890
 0.5690	10.6090
 0.5700	10.4320
 0.5710	10.2630
 0.5720	10.1000
 0.5730	 9.9380
 0.5740	 9.7840
 0.5750	 9.6500
 0.5760	 9.5280
 0.5770	 9.4160
 0.5780	 9.3130
 0.5790	 9.2110
 0.5800	 9.1100
 0.5810	 9.0120
 0.5820	 8.9200
 0.5830	 8.8400
 0.5840	 8.7700
 0.5850	 8.7050
 0.5860	 8.6410
 0.5870	 8.5760
 0.5880	 8.5080
 0.5890	 8.4440
 0.5900	 8.3940
 0.5910	 8.3500
 0.5920	 8.3110
 0.5930	 8.2870
 0.5940	 8.2640
 0.5950	 8.2370
 0.5960	 8.2060
 0.5970	 8.1790
 0.5980	 8.1490
 0.5990	 8.1200
 0.6000	 8.0930
 0.6010	 8.0660
 0.6020	 8.0350
 0.6030	 8.0000
 0.6040	 7.9630
 0.6050	 7.9180
 0.6060	 7.8650
 0.6070	 7.8080
 0.6080	 7.7550
 0.6090	 7.7000
 0.6100	 7.6360
 0.6110	 7.5610
 0.6120	 7.4990
 0.6130	 7.4450
 0.6140	 7.3930
 0.6150	 7.3390
 0.6160	 7.2890
 0.6170	 7.2420
 0.6180	 7.1970
 0.6190	 7.1510
 0.6200	 7.1130
 0.6210	 7.0860
 0.6220	 7.0610
 0.6230	 7.0330
 0.6240	 7.0100
 0.6250	 6.9980
 0.6260	 6.9850
 0.6270	 6.9750
 0.6280	 6.9640
 0.6290	 6.9500
 0.6300	 6.9400
 0.6310	 6.9320
 0.6320	 6.9230
 0.6330	 6.9140
 0.6340	 6.8870
 0.6350	 6.8570
 0.6360	 6.8340
 0.6370	 6.7980
 0.6380	 6.7530
 0.6390	 6.7050
 0.6400	 6.6590
 0.6410	 6.6120
 0.6420	 6.5580
 0.6430	 6.5010
 0.6440	 6.4560
 0.6450	 6.4150
 0.6460	 6.3750
 0.6470	 6.3340
 0.6480	 6.2940
 0.6490	 6.2640
 0.6500	 6.2430
 0.6510	 6.2260
 0.6520	 6.2070
 0.6530	 6.1890
 0.6540	 6.1770
 0.6550	 6.1630
 0.6560	 6.1480
 0.6570	 6.1310
 0.6580	 6.1120
 0.6590	 6.0970
 0.6600	 6.0790
 0.6610	 6.0570
 0.6620	 6.0390
 0.6630	 6.0230
 0.6640	 6.0110
 0.6650	 6.0070
 0.6660	 6.0030
 0.6670	 6.0020
 0.6680	 6.0040
 0.6690	 6.0080
 0.6700	 6.0230
 0.6710	 6.0390
 0.6720	 6.0510
 0.6730	 6.0660
 0.6740	 6.0900
 0.6750	 6.1190
 0.6760	 6.1470
 0.6770	 6.1760
 0.6780	 6.2080
 0.6790	 6.2440
 0.6800	 6.2880
 0.6810	 6.3300
 0.6820	 6.3720
 0.6830	 6.4170
 0.6840	 6.4670
 0.6850	 6.5240
 0.6860	 6.5860
 0.6870	 6.6530
 0.6880	 6.7380
 0.6890	 6.8430
 0.6900	 6.9790
 0.6910	 7.1620
 0.6920	 7.3930
 0.6930	 7.6900
 0.6940	 8.0650
 0.6950	 8.5130
 0.6960	 9.0530
 0.6970	 9.6850
 0.6980	10.4010
 0.6990	11.1840
 0.7000	12.0350
 0.7010	12.9480
 0.7020	13.9040
 0.7030	14.8910
 0.7040	15.9010
 0.7050	16.9250
 0.7060	17.9390
 0.7070	18.9640
 0.7080	19.9860
 0.7090	20.9900
 0.7100	21.9920
 0.7110	22.9880
 0.7120	23.9730
 0.7130	24.9390
 0.7140	25.8990
 0.7150	26.8390
 0.7160	27.7490
 0.7170	28.6590
 0.7180	29.5390
 0.7190	30.3900
 0.7200	31.2230
 0.7210	32.0320
 0.7220	32.8220
 0.7230	33.5900
 0.7240	34.3190
 0.7250	35.0100
 0.7260	35.6800
 0.7270	36.3350
 0.7280	36.9410
 0.7290	37.5300
 0.7300	38.0930
 0.7310	38.6050
 0.7320	39.1120
 0.7330	39.5830
 0.7340	40.0160
 0.7350	40.4400
 0.7360	40.8300
 0.7370	41.1940
 0.7380	41.5400
 0.7390	41.8560
 0.7400	42.1650
 0.7410	42.4560
 0.7420	42.7060
 0.7430	42.9230
 0.7440	43.1370
 0.7450	43.3540
 0.7460	43.5480
 0.7470	43.7200
 0.7480	43.8610
 0.7490	43.9820
 0.7500	44.1380
 0.7510	44.2510
 0.7520	44.3380
 0.7530	44.4390
 0.7540	44.5150
 0.7550	44.5930
 0.7560	44.6750
 0.7570	44.7440
 0.7580	44.7920
 0.7590	44.8400
 0.7600	44.8930
 0.7610	44.9190
 0.7620	44.9610
 0.7630	45.0080
 0.7640	45.0360
 0.7650	45.0660
 0.7660	45.0810
 0.7670	45.0930
 0.7680	45.1270
 0.7690	45.1300
 0.7700	45.1350
 0.7710	45.1610
 0.7720	45.1920
 0.7730	45.1870
 0.7740	45.1850
 0.7750	45.2140
 0.7760	45.2300
 0.7770	45.2370
 0.7780	45.2400
 0.7790	45.2480
 0.7800	45.2680
 0.7810	45.2840
 0.7820	45.2900
 0.7830	45.2910
 0.7840	45.2960
 0.7850	45.2980
 0.7860	45.2990
 0.7870	45.3280
 0.7880	45.3370
 0.7890	45.3410
 0.7900	45.3640
 0.7910	45.3610
 0.7920	45.3620
 0.7930	45.3740
 0.7940	45.3820
 0.7950	45.3970
 0.7960	45.4040
 0.7970	45.4000
 0.7980	45.4070
 0.7990	45.4150
 0.8000	45.4260
 0.8010	45.4360
 0.8020	45.4230
 0.8030	45.4220
 0.8040	45.4260
 0.8050	45.4140
 0.8060	45.4110
 0.8070	45.4180
 0.8080	45.4270
 0.8090	45.4260
 0.8100	45.4380
 0.8110	45.4370
 0.8120	45.4160
 0.8130	45.4040
 0.8140	45.4080
 0.8150	45.4190
 0.8160	45.4260
 0.8170	45.4250
 0.8180	45.4050
 0.8190	45.3820
 0.8200	45.3850
 0.8210	45.3990
 0.8220	45.3930
 0.8230	45.3760
 0.8240	45.3870
 0.8250	45.3890
 0.8260	45.3830
 0.8270	45.3750
 0.8280	45.3650
 0.8290	45.3620
 0.8300	45.3560
 0.8310	45.3410
 0.8320	45.3260
 0.8330	45.3310
 0.8340	45.3460
 0.8350	45.3450
 0.8360	45.3240
 0.8370	45.3210
 0.8380	45.3320
 0.8390	45.3170
 0.8400	45.3060
 0.8410	45.3120
 0.8420	45.3230
 0.8430	45.3050
 0.8440	45.3000
 0.8450	45.3040
 0.8460	45.3020
 0.8470	45.2970
 0.8480	45.2950
 0.8490	45.2990
 0.8500	45.3050
 0.8510	45.3050
 0.8520	45.2840
 0.8530	45.2700
 0.8540	45.3020
 0.8550	45.3100
 0.8560	45.3060
 0.8570	45.3030
 0.8580	45.3060
 0.8590	45.3070
 0.8600	45.3070
 0.8610	45.3070
 0.8620	45.3050
 0.8630	45.2940
 0.8640	45.2850
 0.8650	45.2860
 0.8660	45.2880
 0.8670	45.2990
 0.8680	45.3160
 0.8690	45.3290
 0.8700	45.3240
 0.8710	45.3210
 0.8720	45.3180
 0.8730	45.3130
 0.8740	45.3410
 0.8750	45.3630
 0.8760	45.3600
 0.8770	45.3470
 0.8780	45.3540
 0.8790	45.3600
 0.8800	45.3570
 0.8810	45.3590
 0.8820	45.3380
 0.8830	45.3350
 0.8840	45.3650
 0.8850	45.3540
 0.8860	45.3710
 0.8870	45.3920
 0.8880	45.3830
 0.8890	45.3870
 0.8900	45.3880
 0.8910	45.3920
 0.8920	45.4070
 0.8930	45.4120
 0.8940	45.4200
 0.8950	45.4320
 0.8960	45.4460
 0.8970	45.4370
 0.8980	45.4300
 0.8990	45.4320
 0.9000	45.4300
 0.9010	45.4200
 0.9020	45.4330
 0.9030	45.4660
 0.9040	45.4710
 0.9050	45.4610
 0.9060	45.4640
 0.9070	45.4810
 0.9080	45.4720
 0.9090	45.4770
 0.9100	45.4880
 0.9110	45.4950
 0.9120	45.5160
 0.9130	45.5230
 0.9140	45.5110
 0.9150	45.4940
 0.9160	45.5220
 0.9170	45.5260
 0.9180	45.5230
 0.9190	45.5470
 0.9200	45.5390
 0.9210	45.5260
 0.9220	45.5290
 0.9230	45.5560
 0.9240	45.5590
 0.9250	45.5510
 0.9260	45.5390
 0.9270	45.5230
 0.9280	45.5380
 0.9290	45.5550
 0.9300	45.5550
 0.9310	45.5400
 0.9320	45.5220
 0.9330	45.5230
 0.9340	45.5290
 0.9350	45.5000
 0.9360	45.5100
 0.9370	45.5220
 0.9380	45.5170
 0.9390	45.5220
 0.9400	45.5110
 0.9410	45.5080
 0.9420	45.5180
 0.9430	45.4970
 0.9440	45.4940
 0.9450	45.4830
 0.9460	45.4510
 0.9470	45.4530
 0.9480	45.4370
 0.9490	45.4160
 0.9500	45.4060
 0.9510	45.4050
 0.9520	45.3910
 0.9530	45.3590
 0.9540	45.3180
 0.9550	45.3100
 0.9560	45.3060
 0.9570	45.3000
 0.9580	45.2900
 0.9590	45.2550
 0.9600	45.2230
 0.9610	45.2080
 0.9620	45.2080
 0.9630	45.1970
 0.9640	45.1710
 0.9650	45.1590
 0.9660	45.1850
 0.9670	45.1700
 0.9680	45.1360
 0.9690	45.1130
 0.9700	45.1230
 0.9710	45.1330
 0.9720	45.1210
 0.9730	45.1000
 0.9740	45.0980
 0.9750	45.1100
 0.9760	45.1370
 0.9770	45.1440
 0.9780	45.1080
 0.9790	45.0990
 0.9800	45.1010
 0.9810	45.0950
 0.9820	45.0750
 0.9830	45.0670
 0.9840	45.0600
 0.9850	45.0680
 0.9860	45.1060
 0.9870	45.1050
 0.9880	45.1200
 0.9890	45.1270
 0.9900	45.0850
 0.9910	45.0650
 0.9920	45.0460
 0.9930	45.0270
 0.9940	45.0080
 0.9950	44.9890
 0.9960	44.9700
 0.9970	44.9510
 0.9980	44.9320
 0.9990	44.9130
 1.0000	44.8940
 1.0010	44.8740
 1.0020	44.8550
 1.0030	44.8360
 1.0040	44.8170
 1.0050	44.7980
 1.0060	44.7790
 1.0070	44.7600
 1.0080	44.7410
 1.0090	44.7220
 1.0100	44.7220
 1.0110	44.7340
 1.0120	44.7420
 1.0130	44.7420
 1.0140	44.7440
 1.0150	44.7500
 1.0160	44.7510
 1.0170	44.7470
 1.0180	44.7500
 1.0190	44.7530
 1.0200	44.7620
 1.0210	44.7710
 1.0220	44.7770
 1.0230	44.7810
 1.0240	44.7810
 1.0250	44.7840
 1.0260	44.7840
 1.0270	44.7890
 1.0280	44.7960
 1.0290	44.8030
 1.0300	44.8160
 1.0310	44.8210
 1.0320	44.8190
 1.0330	44.8230
 1.0340	44.8290
 1.0350	44.8270
 1.0360	44.8320
 1.0370	44.8320
 1.0380	44.8360
 1.0390	44.8350
 1.0400	44.8420
 1.0410	44.8590
 1.0420	44.8650
 1.0430	44.8680
 1.0440	44.8690
 1.0450	44.8610
 1.0460	44.8600
 1.0470	44.8640
 1.0480	44.8650
 1.0490	44.8670
 1.0500	44.8690
 1.0510	44.8730
 1.0520	44.8750
 1.0530	44.8780
 1.0540	44.8800
 1.0550	44.8870
 1.0560	44.8960
 1.0570	44.9020
 1.0580	44.9100
 1.0590	44.9150
 1.0600	44.9140
 1.0610	44.9160
 1.0620	44.9200
 1.0630	44.9250
 1.0640	44.9320
 1.0650	44.9370
 1.0660	44.9430
 1.0670	44.9470
 1.0680	44.9520
 1.0690	44.9530
 1.0700	44.9590
 1.0710	44.9670
 1.0720	44.9700
 1.0730	44.9720
 1.0740	44.9740
 1.0750	44.9720
 1.0760	44.9720
 1.0770	44.9730
 1.0780	44.9750
 1.0790	44.9810
 1.0800	44.9830
 1.0810	44.9840
 1.0820	44.9880
 1.0830	44.9930
 1.0840	44.9960
 1.0850	45.0030
 1.0860	45.0040
 1.0870	45.0030
 1.0880	44.9970
 1.0890	44.9930
 1.0900	44.9890
 1.0910	44.9840
 1.0920	44.9760
 1.0930	44.9730
 1.0940	44.9710
 1.0950	44.9700
 1.0960	44.9740
 1.0970	44.9750
 1.0980	44.9750
 1.0990	44.9750
 1.1000	44.9800
 1.1010	44.9790
 1.1020	44.9760
 1.1030	44.9690
 1.1040	44.9590
 1.1050	44.9520
 1.1060	44.9440
 1.1070	44.9360
 1.1080	44.9310
 1.1090	44.9280
 1.1100	44.9240
 1.1110	44.9230
 1.1120	44.9190
 1.1130	44.9110
 1.1140	44.9030
 1.1150	44.8940
 1.1160	44.8880
 1.1170	44.8810
 1.1180	44.8750
 1.1190	44.8710
 1.1200	44.8690
 1.1210	44.8640
 1.1220	44.8570
 1.1230	44.8450
 1.1240	44.8320
 1.1250	44.8160
 1.1260	44.7980
 1.1270	44.7770
 1.1280	44.7510
 1.1290	44.7290
 1.1300	44.7070
 1.1310	44.6820
 1.1320	44.6590
 1.1330	44.6320
 1.1340	44.5990
 1.1350	44.5650
 1.1360	44.5300
 1.1370	44.4940
 1.1380	44.4510
 1.1390	44.4080
 1.1400	44.3650
 1.1410	44.3190
 1.1420	44.2700
 1.1430	44.2210
 1.1440	44.1770
 1.1450	44.1330
 1.1460	44.0900
 1.1470	44.0490
 1.1480	44.0090
 1.1490	43.9660
 1.1500	43.9280
 1.1510	43.8980
 1.1520	43.8660
 1.1530	43.8330
 1.1540	43.8030
 1.1550	43.7750
 1.1560	43.7510
 1.1570	43.7290
 1.1580	43.7110
 1.1590	43.6930
 1.1600	43.6760
 1.1610	43.6640
 1.1620	43.6570
 1.1630	43.6530
 1.1640	43.6460
 1.1650	43.6390
 1.1660	43.6280
 1.1670	43.6230
 1.1680	43.6200
 1.1690	43.6200
 1.1700	43.6250
 1.1710	43.6230
 1.1720	43.6190
 1.1730	43.6160
 1.1740	43.6090
 1.1750	43.6040
 1.1760	43.6060
 1.1770	43.6050
 1.1780	43.6030
 1.1790	43.6020
 1.1800	43.5970
 1.1810	43.5910
 1.1820	43.5850
 1.1830	43.5780
 1.1840	43.5720
 1.1850	43.5660
 1.1860	43.5630
 1.1870	43.5620
 1.1880	43.5600
 1.1890	43.5600
 1.1900	43.5600
 1.1910	43.5620
 1.1920	43.5620
 1.1930	43.5600
 1.1940	43.5590
 1.1950	43.5560
 1.1960	43.5570
 1.1970	43.5580
 1.1980	43.5610
 1.1990	43.5640
 1.2000	43.5660
 1.2010	43.5690
 1.2020	43.5720
 1.2030	43.5760
 1.2040	43.5800
 1.2050	43.5850
 1.2060	43.5910
 1.2070	43.5950
 1.2080	43.5980
 1.2090	43.6050
 1.2100	43.6120
 1.2110	43.6190
 1.2120	43.6300
 1.2130	43.6360
 1.2140	43.6370
 1.2150	43.6420
 1.2160	43.6470
 1.2170	43.6520
 1.2180	43.6630
 1.2190	43.6740
 1.2200	43.6820
 1.2210	43.6890
 1.2220	43.6950
 1.2230	43.7020
 1.2240	43.7120
 1.2250	43.7210
 1.2260	43.7330
 1.2270	43.7430
 1.2280	43.7520
 1.2290	43.7610
 1.2300	43.7730
 1.2310	43.7840
 1.2320	43.7920
 1.2330	43.7990
 1.2340	43.8060
 1.2350	43.8100
 1.2360	43.8170
 1.2370	43.8270
 1.2380	43.8360
 1.2390	43.8400
 1.2400	43.8440
 1.2410	43.8460
 1.2420	43.8480
 1.2430	43.8520
 1.2440	43.8560
 1.2450	43.8620
 1.2460	43.8680
 1.2470	43.8740
 1.2480	43.8830
 1.2490	43.8890
 1.2500	43.8940
 1.2510	43.9030
 1.2520	43.9060
 1.2530	43.9090
 1.2540	43.9160
 1.2550	43.9140
 1.2560	43.9150
 1.2570	43.9200
 1.2580	43.9170
 1.2590	43.9170
 1.2600	43.9220
 1.2610	43.9210
 1.2620	43.9160
 1.2630	43.9150
 1.2640	43.9150
 1.2650	43.9090
 1.2660	43.9070
 1.2670	43.9060
 1.2680	43.8990
 1.2690	43.8960
 1.2700	43.8910
 1.2710	43.8860
 1.2720	43.8830
 1.2730	43.8780
 1.2740	43.8760
 1.2750	43.8760
 1.2760	43.8750
 1.2770	43.8730
 1.2780	43.8680
 1.2790	43.8570
 1.2800	43.8490
 1.2810	43.8420
 1.2820	43.8330
 1.2830	43.8260
 1.2840	43.8200
 1.2850	43.8140
 1.2860	43.8070
 1.2870	43.8010
 1.2880	43.7960
 1.2890	43.7920
 1.2900	43.7880
 1.2910	43.7890
 1.2920	43.7850
 1.2930	43.7770
 1.2940	43.7670
 1.2950	43.7570
 1.2960	43.7470
 1.2970	43.7380
 1.2980	43.7280
 1.2990	43.7150
 1.3000	43.7030
 1.3010	43.6930
 1.3020	43.6780
 1.3030	43.6620
 1.3040	43.6420
 1.3050	43.6190
 1.3060	43.5950
 1.3070	43.5690
 1.3080	43.5440
 1.3090	43.5190
 1.3100	43.4950
 1.3110	43.4740
 1.3120	43.4480
 1.3130	43.4160
 1.3140	43.3850
 1.3150	43.3550
 1.3160	43.3180
 1.3170	43.2780
 1.3180	43.2390
 1.3190	43.1980
 1.3200	43.1540
 1.3210	43.1140
 1.3220	43.0760
 1.3230	43.0310
 1.3240	42.9840
 1.3250	42.9360
 1.3260	42.8830
 1.3270	42.8310
 1.3280	42.7770
 1.3290	42.7220
 1.3300	42.6700
 1.3310	42.6120
 1.3320	42.5530
 1.3330	42.4960
 1.3340	42.4370
 1.3350	42.3790
 1.3360	42.3190
 1.3370	42.2560
 1.3380	42.1930
 1.3390	42.1300
 1.3400	42.0680
 1.3410	42.0050
 1.3420	41.9410
 1.3430	41.8770
 1.3440	41.8110
 1.3450	41.7480
 1.3460	41.6870
 1.3470	41.6270
 1.3480	41.5690
 1.3490	41.5120
 1.3500	41.4570
 1.3510	41.4000
 1.3520	41.3450
 1.3530	41.2880
 1.3540	41.2320
 1.3550	41.1750
 1.3560	41.1180
 1.3570	41.0600
 1.3580	41.0030
 1.3590	40.9450
 1.3600	40.8830
 1.3610	40.8140
 1.3620	40.7440
 1.3630	40.6730
 1.3640	40.5990
 1.3650	40.5240
 1.3660	40.4460
 1.3670	40.3600
 1.3680	40.2690
 1.3690	40.1710
 1.3700	40.0640
 1.3710	39.9500
 1.3720	39.8270
 1.3730	39.6950
 1.3740	39.5550
 1.3750	39.4080
 1.3760	39.2490
 1.3770	39.0760
 1.3780	38.8880
 1.3790	38.6840
 1.3800	38.4650
 1.3810	38.2290
 1.3820	37.9780
 1.3830	37.7130
 1.3840	37.4310
 1.3850	37.1330
 1.3860	36.8220
 1.3870	36.4940
 1.3880	36.1590
 1.3890	35.8120
 1.3900	35.4560
 1.3910	35.0930
 1.3920	34.7170
 1.3930	34.3330
 1.3940	33.9420
 1.3950	33.5420
 1.3960	33.1410
 1.3970	32.7420
 1.3980	32.3410
 1.3990	31.9510
 1.4000	31.5670
 1.4010	31.1870
 1.4020	30.8170
 1.4030	30.4510
 1.4040	30.0970
 1.4050	29.7590
 1.4060	29.4350
 1.4070	29.1330
 1.4080	28.8460
 1.4090	28.5690
 1.4100	28.3070
 1.4110	28.0580
 1.4120	27.8260
 1.4130	27.6090
 1.4140	27.4060
 1.4150	27.2190
 1.4160	27.0460
 1.4170	26.8880
 1.4180	26.7430
 1.4190	26.6100
 1.4200	26.4880
 1.4210	26.3770
 1.4220	26.2770
 1.4230	26.1880
 1.4240	26.1080
 1.4250	26.0370
 1.4260	25.9750
 1.4270	25.9180
 1.4280	25.8700
 1.4290	25.8280
 1.4300	25.7910
 1.4310	25.7630
 1.4320	25.7450
 1.4330	25.7290
 1.4340	25.7190
 1.4350	25.7110
 1.4360	25.7050
 1.4370	25.7040
 1.4380	25.7090
 1.4390	25.7170
 1.4400	25.7270
 1.4410	25.7400
 1.4420	25.7550
 1.4430	25.7720
 1.4440	25.7930
 1.4450	25.8170
 1.4460	25.8410
 1.4470	25.8680
 1.4480	25.8960
 1.4490	25.9230
 1.4500	25.9510
 1.4510	25.9780
 1.4520	26.0070
 1.4530	26.0370
 1.4540	26.0700
 1.4550	26.1060
 1.4560	26.1430
 1.4570	26.1840
 1.4580	26.2260
 1.4590	26.2700
 1.4600	26.3190
 1.4610	26.3730
 1.4620	26.4300
 1.4630	26.4920
 1.4640	26.5590
 1.4650	26.6310
 1.4660	26.7080
 1.4670	26.7920
 1.4680	26.8800
 1.4690	26.9700
 1.4700	27.0650
 1.4710	27.1640
 1.4720	27.2660
