Name: Eucalyptus kartzoffiana
Type: vegetation
Class: Tree
Genus: Eucalyptus
Species: kartzoffiana
Sample No.: JPL151
Owner: JPL
Wavelength Range: VSWIR
Origin: 34.12439; -118.11369; WGS84
Collection Date: 9/14/2016
Description: Samples were collected at the Huntington Garden in San Marino California as part of a JPL Subcontract studying HyTES imagery. Samples were taken to JPL and processed within 48 hours of collection. The same leaves were processed in the Nicolet and then measured using the ASD.
Measurement: Bidirectional reflectance
First Column: X
Second Column: Y
X Units: Wavelength (micrometer)
Y Units: Reflectance (percentage)
First X Value: 0.35
Last X Value: 2.5
Number of X Values: 2151
Additional Information: vegetation.tree.eucalyptus.kartzoffiana.vswir.jpl151.jpl.asd.ancillary.txt

 0.3500	 5.1640
 0.3510	 4.9950
 0.3520	 4.9510
 0.3530	 5.0310
 0.3540	 5.1390
 0.3550	 5.0980
 0.3560	 4.9870
 0.3570	 4.9290
 0.3580	 5.0220
 0.3590	 4.9660
 0.3600	 4.9080
 0.3610	 4.9150
 0.3620	 4.8830
 0.3630	 4.9020
 0.3640	 4.9310
 0.3650	 4.9230
 0.3660	 4.9430
 0.3670	 4.9690
 0.3680	 4.9910
 0.3690	 5.0070
 0.3700	 4.9530
 0.3710	 4.9480
 0.3720	 5.0230
 0.3730	 5.0220
 0.3740	 4.9550
 0.3750	 4.9450
 0.3760	 5.0830
 0.3770	 5.1360
 0.3780	 5.1450
 0.3790	 5.1390
 0.3800	 5.1360
 0.3810	 5.1780
 0.3820	 5.2060
 0.3830	 5.1870
 0.3840	 5.1720
 0.3850	 5.2290
 0.3860	 5.2950
 0.3870	 5.2810
 0.3880	 5.2840
 0.3890	 5.3010
 0.3900	 5.3300
 0.3910	 5.3730
 0.3920	 5.4000
 0.3930	 5.4390
 0.3940	 5.5020
 0.3950	 5.5340
 0.3960	 5.5590
 0.3970	 5.5910
 0.3980	 5.6400
 0.3990	 5.7010
 0.4000	 5.7090
 0.4010	 5.6870
 0.4020	 5.7690
 0.4030	 5.8200
 0.4040	 5.8370
 0.4050	 5.8520
 0.4060	 5.9130
 0.4070	 5.9460
 0.4080	 5.9510
 0.4090	 5.9760
 0.4100	 6.0050
 0.4110	 6.0350
 0.4120	 6.0680
 0.4130	 6.1050
 0.4140	 6.1330
 0.4150	 6.1630
 0.4160	 6.2070
 0.4170	 6.2380
 0.4180	 6.2650
 0.4190	 6.2910
 0.4200	 6.3100
 0.4210	 6.3330
 0.4220	 6.3530
 0.4230	 6.3680
 0.4240	 6.3810
 0.4250	 6.3980
 0.4260	 6.4210
 0.4270	 6.4490
 0.4280	 6.4610
 0.4290	 6.4760
 0.4300	 6.4990
 0.4310	 6.5110
 0.4320	 6.5280
 0.4330	 6.5440
 0.4340	 6.5540
 0.4350	 6.5720
 0.4360	 6.5830
 0.4370	 6.5880
 0.4380	 6.5940
 0.4390	 6.6000
 0.4400	 6.6030
 0.4410	 6.6040
 0.4420	 6.6010
 0.4430	 6.6010
 0.4440	 6.6110
 0.4450	 6.6300
 0.4460	 6.6440
 0.4470	 6.6520
 0.4480	 6.6570
 0.4490	 6.6690
 0.4500	 6.6790
 0.4510	 6.6830
 0.4520	 6.6820
 0.4530	 6.6910
 0.4540	 6.7050
 0.4550	 6.7190
 0.4560	 6.7250
 0.4570	 6.7220
 0.4580	 6.7150
 0.4590	 6.7100
 0.4600	 6.7090
 0.4610	 6.7080
 0.4620	 6.7050
 0.4630	 6.7010
 0.4640	 6.7000
 0.4650	 6.7010
 0.4660	 6.7010
 0.4670	 6.6920
 0.4680	 6.6940
 0.4690	 6.6970
 0.4700	 6.6910
 0.4710	 6.6780
 0.4720	 6.6730
 0.4730	 6.6730
 0.4740	 6.6710
 0.4750	 6.6690
 0.4760	 6.6700
 0.4770	 6.6730
 0.4780	 6.6670
 0.4790	 6.6690
 0.4800	 6.6750
 0.4810	 6.6760
 0.4820	 6.6760
 0.4830	 6.6760
 0.4840	 6.6770
 0.4850	 6.6790
 0.4860	 6.6860
 0.4870	 6.6940
 0.4880	 6.6990
 0.4890	 6.7020
 0.4900	 6.7070
 0.4910	 6.7150
 0.4920	 6.7220
 0.4930	 6.7250
 0.4940	 6.7290
 0.4950	 6.7390
 0.4960	 6.7480
 0.4970	 6.7600
 0.4980	 6.7730
 0.4990	 6.7900
 0.5000	 6.8060
 0.5010	 6.8270
 0.5020	 6.8510
 0.5030	 6.8680
 0.5040	 6.8990
 0.5050	 6.9360
 0.5060	 6.9730
 0.5070	 7.0150
 0.5080	 7.0590
 0.5090	 7.1060
 0.5100	 7.1580
 0.5110	 7.2120
 0.5120	 7.2700
 0.5130	 7.3350
 0.5140	 7.4080
 0.5150	 7.4870
 0.5160	 7.5690
 0.5170	 7.6520
 0.5180	 7.7390
 0.5190	 7.8340
 0.5200	 7.9360
 0.5210	 8.0380
 0.5220	 8.1390
 0.5230	 8.2390
 0.5240	 8.3370
 0.5250	 8.4320
 0.5260	 8.5290
 0.5270	 8.6240
 0.5280	 8.7070
 0.5290	 8.7870
 0.5300	 8.8610
 0.5310	 8.9290
 0.5320	 8.9900
 0.5330	 9.0470
 0.5340	 9.0970
 0.5350	 9.1420
 0.5360	 9.1850
 0.5370	 9.2230
 0.5380	 9.2570
 0.5390	 9.2890
 0.5400	 9.3350
 0.5410	 9.3910
 0.5420	 9.4480
 0.5430	 9.4890
 0.5440	 9.5100
 0.5450	 9.5110
 0.5460	 9.4970
 0.5470	 9.4730
 0.5480	 9.4510
 0.5490	 9.4370
 0.5500	 9.4340
 0.5510	 9.4290
 0.5520	 9.4190
 0.5530	 9.4010
 0.5540	 9.3790
 0.5550	 9.3490
 0.5560	 9.3130
 0.5570	 9.2730
 0.5580	 9.2250
 0.5590	 9.1720
 0.5600	 9.1170
 0.5610	 9.0580
 0.5620	 8.9960
 0.5630	 8.9330
 0.5640	 8.8660
 0.5650	 8.7990
 0.5660	 8.7330
 0.5670	 8.6660
 0.5680	 8.5950
 0.5690	 8.5250
 0.5700	 8.4550
 0.5710	 8.3800
 0.5720	 8.3100
 0.5730	 8.2470
 0.5740	 8.1880
 0.5750	 8.1290
 0.5760	 8.0720
 0.5770	 8.0180
 0.5780	 7.9680
 0.5790	 7.9260
 0.5800	 7.8880
 0.5810	 7.8540
 0.5820	 7.8230
 0.5830	 7.7910
 0.5840	 7.7580
 0.5850	 7.7230
 0.5860	 7.6950
 0.5870	 7.6750
 0.5880	 7.6550
 0.5890	 7.6300
 0.5900	 7.6050
 0.5910	 7.5790
 0.5920	 7.5550
 0.5930	 7.5350
 0.5940	 7.5170
 0.5950	 7.5000
 0.5960	 7.4840
 0.5970	 7.4690
 0.5980	 7.4560
 0.5990	 7.4440
 0.6000	 7.4290
 0.6010	 7.4090
 0.6020	 7.3890
 0.6030	 7.3690
 0.6040	 7.3470
 0.6050	 7.3190
 0.6060	 7.2900
 0.6070	 7.2640
 0.6080	 7.2350
 0.6090	 7.2160
 0.6100	 7.2100
 0.6110	 7.2130
 0.6120	 7.1820
 0.6130	 7.1280
 0.6140	 7.0690
 0.6150	 7.0280
 0.6160	 6.9890
 0.6170	 6.9540
 0.6180	 6.9230
 0.6190	 6.9010
 0.6200	 6.8800
 0.6210	 6.8590
 0.6220	 6.8370
 0.6230	 6.8190
 0.6240	 6.8030
 0.6250	 6.7860
 0.6260	 6.7710
 0.6270	 6.7580
 0.6280	 6.7460
 0.6290	 6.7390
 0.6300	 6.7360
 0.6310	 6.7320
 0.6320	 6.7210
 0.6330	 6.7040
 0.6340	 6.6850
 0.6350	 6.6650
 0.6360	 6.6440
 0.6370	 6.6220
 0.6380	 6.5970
 0.6390	 6.5660
 0.6400	 6.5330
 0.6410	 6.4990
 0.6420	 6.4680
 0.6430	 6.4380
 0.6440	 6.4040
 0.6450	 6.3710
 0.6460	 6.3400
 0.6470	 6.3130
 0.6480	 6.2900
 0.6490	 6.2710
 0.6500	 6.2560
 0.6510	 6.2420
 0.6520	 6.2280
 0.6530	 6.2180
 0.6540	 6.2110
 0.6550	 6.2010
 0.6560	 6.1880
 0.6570	 6.1720
 0.6580	 6.1580
 0.6590	 6.1440
 0.6600	 6.1290
 0.6610	 6.1140
 0.6620	 6.0990
 0.6630	 6.0840
 0.6640	 6.0700
 0.6650	 6.0610
 0.6660	 6.0540
 0.6670	 6.0510
 0.6680	 6.0520
 0.6690	 6.0580
 0.6700	 6.0690
 0.6710	 6.0830
 0.6720	 6.1020
 0.6730	 6.1250
 0.6740	 6.1520
 0.6750	 6.1840
 0.6760	 6.2200
 0.6770	 6.2630
 0.6780	 6.3100
 0.6790	 6.3580
 0.6800	 6.4100
 0.6810	 6.4670
 0.6820	 6.5290
 0.6830	 6.5930
 0.6840	 6.6560
 0.6850	 6.7190
 0.6860	 6.7850
 0.6870	 6.8530
 0.6880	 6.9250
 0.6890	 7.0070
 0.6900	 7.1050
 0.6910	 7.2250
 0.6920	 7.3750
 0.6930	 7.5560
 0.6940	 7.7710
 0.6950	 8.0290
 0.6960	 8.3300
 0.6970	 8.6770
 0.6980	 9.0730
 0.6990	 9.5120
 0.7000	 9.9930
 0.7010	10.5130
 0.7020	11.0690
 0.7030	11.6570
 0.7040	12.2760
 0.7050	12.9190
 0.7060	13.5830
 0.7070	14.2680
 0.7080	14.9700
 0.7090	15.6910
 0.7100	16.4240
 0.7110	17.1780
 0.7120	17.9500
 0.7130	18.7340
 0.7140	19.5310
 0.7150	20.3400
 0.7160	21.1580
 0.7170	21.9860
 0.7180	22.8230
 0.7190	23.6630
 0.7200	24.5020
 0.7210	25.3430
 0.7220	26.1780
 0.7230	27.0030
 0.7240	27.8180
 0.7250	28.6170
 0.7260	29.3990
 0.7270	30.1630
 0.7280	30.9010
 0.7290	31.6150
 0.7300	32.3060
 0.7310	32.9710
 0.7320	33.6070
 0.7330	34.2150
 0.7340	34.7940
 0.7350	35.3470
 0.7360	35.8680
 0.7370	36.3580
 0.7380	36.8200
 0.7390	37.2540
 0.7400	37.6620
 0.7410	38.0430
 0.7420	38.3970
 0.7430	38.7230
 0.7440	39.0240
 0.7450	39.3020
 0.7460	39.5570
 0.7470	39.7880
 0.7480	39.9970
 0.7490	40.1880
 0.7500	40.3630
 0.7510	40.5210
 0.7520	40.6610
 0.7530	40.7880
 0.7540	40.9030
 0.7550	41.0080
 0.7560	41.1030
 0.7570	41.1880
 0.7580	41.2630
 0.7590	41.3320
 0.7600	41.4000
 0.7610	41.4550
 0.7620	41.5030
 0.7630	41.5460
 0.7640	41.5850
 0.7650	41.6180
 0.7660	41.6470
 0.7670	41.6720
 0.7680	41.6970
 0.7690	41.7190
 0.7700	41.7380
 0.7710	41.7540
 0.7720	41.7680
 0.7730	41.7810
 0.7740	41.7950
 0.7750	41.8090
 0.7760	41.8210
 0.7770	41.8290
 0.7780	41.8360
 0.7790	41.8460
 0.7800	41.8570
 0.7810	41.8670
 0.7820	41.8750
 0.7830	41.8830
 0.7840	41.8890
 0.7850	41.8960
 0.7860	41.9030
 0.7870	41.9080
 0.7880	41.9110
 0.7890	41.9150
 0.7900	41.9180
 0.7910	41.9220
 0.7920	41.9220
 0.7930	41.9210
 0.7940	41.9200
 0.7950	41.9180
 0.7960	41.9160
 0.7970	41.9120
 0.7980	41.9070
 0.7990	41.9040
 0.8000	41.9000
 0.8010	41.8920
 0.8020	41.8820
 0.8030	41.8760
 0.8040	41.8700
 0.8050	41.8590
 0.8060	41.8500
 0.8070	41.8380
 0.8080	41.8250
 0.8090	41.8140
 0.8100	41.8030
 0.8110	41.7930
 0.8120	41.7840
 0.8130	41.7700
 0.8140	41.7540
 0.8150	41.7400
 0.8160	41.7270
 0.8170	41.7110
 0.8180	41.6950
 0.8190	41.6790
 0.8200	41.6670
 0.8210	41.6550
 0.8220	41.6400
 0.8230	41.6240
 0.8240	41.6120
 0.8250	41.5980
 0.8260	41.5830
 0.8270	41.5690
 0.8280	41.5560
 0.8290	41.5400
 0.8300	41.5230
 0.8310	41.5090
 0.8320	41.4950
 0.8330	41.4840
 0.8340	41.4740
 0.8350	41.4600
 0.8360	41.4470
 0.8370	41.4380
 0.8380	41.4330
 0.8390	41.4260
 0.8400	41.4170
 0.8410	41.4090
 0.8420	41.4030
 0.8430	41.3990
 0.8440	41.3950
 0.8450	41.3930
 0.8460	41.3900
 0.8470	41.3850
 0.8480	41.3820
 0.8490	41.3790
 0.8500	41.3760
 0.8510	41.3770
 0.8520	41.3780
 0.8530	41.3760
 0.8540	41.3750
 0.8550	41.3760
 0.8560	41.3780
 0.8570	41.3800
 0.8580	41.3850
 0.8590	41.3890
 0.8600	41.3930
 0.8610	41.3980
 0.8620	41.4050
 0.8630	41.4080
 0.8640	41.4120
 0.8650	41.4190
 0.8660	41.4260
 0.8670	41.4310
 0.8680	41.4370
 0.8690	41.4450
 0.8700	41.4540
 0.8710	41.4630
 0.8720	41.4730
 0.8730	41.4850
 0.8740	41.4940
 0.8750	41.5050
 0.8760	41.5180
 0.8770	41.5290
 0.8780	41.5410
 0.8790	41.5510
 0.8800	41.5590
 0.8810	41.5680
 0.8820	41.5770
 0.8830	41.5890
 0.8840	41.6050
 0.8850	41.6150
 0.8860	41.6270
 0.8870	41.6380
 0.8880	41.6470
 0.8890	41.6570
 0.8900	41.6680
 0.8910	41.6780
 0.8920	41.6860
 0.8930	41.6960
 0.8940	41.7080
 0.8950	41.7200
 0.8960	41.7280
 0.8970	41.7350
 0.8980	41.7420
 0.8990	41.7480
 0.9000	41.7490
 0.9010	41.7600
 0.9020	41.7720
 0.9030	41.7800
 0.9040	41.7870
 0.9050	41.7950
 0.9060	41.8030
 0.9070	41.8100
 0.9080	41.8160
 0.9090	41.8200
 0.9100	41.8230
 0.9110	41.8260
 0.9120	41.8300
 0.9130	41.8360
 0.9140	41.8370
 0.9150	41.8320
 0.9160	41.8410
 0.9170	41.8450
 0.9180	41.8460
 0.9190	41.8490
 0.9200	41.8420
 0.9210	41.8380
 0.9220	41.8360
 0.9230	41.8300
 0.9240	41.8280
 0.9250	41.8230
 0.9260	41.8130
 0.9270	41.8030
 0.9280	41.7950
 0.9290	41.7850
 0.9300	41.7700
 0.9310	41.7540
 0.9320	41.7340
 0.9330	41.7140
 0.9340	41.6950
 0.9350	41.6720
 0.9360	41.6580
 0.9370	41.6410
 0.9380	41.6170
 0.9390	41.5980
 0.9400	41.5740
 0.9410	41.5460
 0.9420	41.5170
 0.9430	41.4900
 0.9440	41.4570
 0.9450	41.4180
 0.9460	41.3790
 0.9470	41.3490
 0.9480	41.3090
 0.9490	41.2590
 0.9500	41.2070
 0.9510	41.1590
 0.9520	41.1010
 0.9530	41.0390
 0.9540	40.9790
 0.9550	40.9220
 0.9560	40.8630
 0.9570	40.8050
 0.9580	40.7550
 0.9590	40.7200
 0.9600	40.6820
 0.9610	40.6340
 0.9620	40.5810
 0.9630	40.5390
 0.9640	40.5140
 0.9650	40.4940
 0.9660	40.4650
 0.9670	40.4350
 0.9680	40.4110
 0.9690	40.3880
 0.9700	40.3600
 0.9710	40.3460
 0.9720	40.3320
 0.9730	40.3130
 0.9740	40.2940
 0.9750	40.2860
 0.9760	40.2670
 0.9770	40.2480
 0.9780	40.2440
 0.9790	40.2390
 0.9800	40.2400
 0.9810	40.2330
 0.9820	40.2060
 0.9830	40.2120
 0.9840	40.2240
 0.9850	40.2260
 0.9860	40.2140
 0.9870	40.2120
 0.9880	40.2130
 0.9890	40.2210
 0.9900	40.2360
 0.9910	40.2330
 0.9920	40.2280
 0.9930	40.2390
 0.9940	40.2700
 0.9950	40.2760
 0.9960	40.2850
 0.9970	40.2980
 0.9980	40.3030
 0.9990	40.3110
 1.0000	40.3260
 1.0010	41.5500
 1.0020	41.5610
 1.0030	41.5760
 1.0040	41.5890
 1.0050	41.6030
 1.0060	41.6220
 1.0070	41.6360
 1.0080	41.6500
 1.0090	41.6630
 1.0100	41.6750
 1.0110	41.6840
 1.0120	41.6970
 1.0130	41.7120
 1.0140	41.7260
 1.0150	41.7440
 1.0160	41.7600
 1.0170	41.7760
 1.0180	41.7900
 1.0190	41.8030
 1.0200	41.8160
 1.0210	41.8300
 1.0220	41.8470
 1.0230	41.8620
 1.0240	41.8810
 1.0250	41.8950
 1.0260	41.9040
 1.0270	41.9190
 1.0280	41.9360
 1.0290	41.9520
 1.0300	41.9710
 1.0310	41.9880
 1.0320	42.0020
 1.0330	42.0180
 1.0340	42.0320
 1.0350	42.0430
 1.0360	42.0560
 1.0370	42.0650
 1.0380	42.0780
 1.0390	42.0960
 1.0400	42.1090
 1.0410	42.1250
 1.0420	42.1370
 1.0430	42.1440
 1.0440	42.1550
 1.0450	42.1660
 1.0460	42.1790
 1.0470	42.1950
 1.0480	42.2100
 1.0490	42.2250
 1.0500	42.2380
 1.0510	42.2490
 1.0520	42.2570
 1.0530	42.2650
 1.0540	42.2710
 1.0550	42.2780
 1.0560	42.2860
 1.0570	42.2950
 1.0580	42.3050
 1.0590	42.3110
 1.0600	42.3140
 1.0610	42.3180
 1.0620	42.3170
 1.0630	42.3200
 1.0640	42.3260
 1.0650	42.3310
 1.0660	42.3370
 1.0670	42.3400
 1.0680	42.3400
 1.0690	42.3380
 1.0700	42.3370
 1.0710	42.3320
 1.0720	42.3310
 1.0730	42.3330
 1.0740	42.3320
 1.0750	42.3330
 1.0760	42.3310
 1.0770	42.3290
 1.0780	42.3250
 1.0790	42.3200
 1.0800	42.3160
 1.0810	42.3120
 1.0820	42.3060
 1.0830	42.3000
 1.0840	42.2930
 1.0850	42.2850
 1.0860	42.2770
 1.0870	42.2710
 1.0880	42.2690
 1.0890	42.2630
 1.0900	42.2550
 1.0910	42.2470
 1.0920	42.2370
 1.0930	42.2290
 1.0940	42.2220
 1.0950	42.2140
 1.0960	42.2070
 1.0970	42.1970
 1.0980	42.1830
 1.0990	42.1710
 1.1000	42.1590
 1.1010	42.1470
 1.1020	42.1360
 1.1030	42.1300
 1.1040	42.1180
 1.1050	42.1030
 1.1060	42.0900
 1.1070	42.0750
 1.1080	42.0610
 1.1090	42.0500
 1.1100	42.0350
 1.1110	42.0180
 1.1120	42.0020
 1.1130	41.9860
 1.1140	41.9670
 1.1150	41.9490
 1.1160	41.9290
 1.1170	41.9080
 1.1180	41.8850
 1.1190	41.8610
 1.1200	41.8360
 1.1210	41.8060
 1.1220	41.7710
 1.1230	41.7340
 1.1240	41.6920
 1.1250	41.6470
 1.1260	41.6000
 1.1270	41.5470
 1.1280	41.4910
 1.1290	41.4270
 1.1300	41.3580
 1.1310	41.2830
 1.1320	41.2010
 1.1330	41.1140
 1.1340	41.0220
 1.1350	40.9220
 1.1360	40.8140
 1.1370	40.7010
 1.1380	40.5830
 1.1390	40.4600
 1.1400	40.3350
 1.1410	40.2080
 1.1420	40.0760
 1.1430	39.9420
 1.1440	39.8110
 1.1450	39.6790
 1.1460	39.5500
 1.1470	39.4220
 1.1480	39.2970
 1.1490	39.1710
 1.1500	39.0540
 1.1510	38.9410
 1.1520	38.8340
 1.1530	38.7330
 1.1540	38.6380
 1.1550	38.5480
 1.1560	38.4620
 1.1570	38.3850
 1.1580	38.3150
 1.1590	38.2510
 1.1600	38.1930
 1.1610	38.1370
 1.1620	38.0820
 1.1630	38.0330
 1.1640	37.9870
 1.1650	37.9430
 1.1660	37.9030
 1.1670	37.8640
 1.1680	37.8270
 1.1690	37.7900
 1.1700	37.7570
 1.1710	37.7230
 1.1720	37.6900
 1.1730	37.6550
 1.1740	37.6180
 1.1750	37.5840
 1.1760	37.5500
 1.1770	37.5170
 1.1780	37.4830
 1.1790	37.4480
 1.1800	37.4120
 1.1810	37.3750
 1.1820	37.3400
 1.1830	37.3080
 1.1840	37.2760
 1.1850	37.2440
 1.1860	37.2150
 1.1870	37.1840
 1.1880	37.1570
 1.1890	37.1310
 1.1900	37.1100
 1.1910	37.0930
 1.1920	37.0780
 1.1930	37.0670
 1.1940	37.0580
 1.1950	37.0510
 1.1960	37.0460
 1.1970	37.0450
 1.1980	37.0470
 1.1990	37.0500
 1.2000	37.0550
 1.2010	37.0610
 1.2020	37.0710
 1.2030	37.0840
 1.2040	37.1000
 1.2050	37.1150
 1.2060	37.1330
 1.2070	37.1530
 1.2080	37.1730
 1.2090	37.1950
 1.2100	37.2190
 1.2110	37.2440
 1.2120	37.2690
 1.2130	37.2970
 1.2140	37.3260
 1.2150	37.3560
 1.2160	37.3880
 1.2170	37.4200
 1.2180	37.4530
 1.2190	37.4880
 1.2200	37.5250
 1.2210	37.5620
 1.2220	37.6000
 1.2230	37.6380
 1.2240	37.6710
 1.2250	37.7040
 1.2260	37.7370
 1.2270	37.7680
 1.2280	37.7970
 1.2290	37.8280
 1.2300	37.8570
 1.2310	37.8860
 1.2320	37.9150
 1.2330	37.9400
 1.2340	37.9640
 1.2350	37.9850
 1.2360	38.0070
 1.2370	38.0280
 1.2380	38.0490
 1.2390	38.0690
 1.2400	38.0900
 1.2410	38.1070
 1.2420	38.1250
 1.2430	38.1470
 1.2440	38.1660
 1.2450	38.1840
 1.2460	38.2020
 1.2470	38.2160
 1.2480	38.2290
 1.2490	38.2430
 1.2500	38.2560
 1.2510	38.2680
 1.2520	38.2800
 1.2530	38.2890
 1.2540	38.2980
 1.2550	38.3060
 1.2560	38.3130
 1.2570	38.3200
 1.2580	38.3240
 1.2590	38.3280
 1.2600	38.3300
 1.2610	38.3330
 1.2620	38.3370
 1.2630	38.3400
 1.2640	38.3430
 1.2650	38.3430
 1.2660	38.3430
 1.2670	38.3410
 1.2680	38.3400
 1.2690	38.3360
 1.2700	38.3320
 1.2710	38.3280
 1.2720	38.3220
 1.2730	38.3170
 1.2740	38.3130
 1.2750	38.3070
 1.2760	38.2980
 1.2770	38.2900
 1.2780	38.2780
 1.2790	38.2640
 1.2800	38.2510
 1.2810	38.2360
 1.2820	38.2180
 1.2830	38.1980
 1.2840	38.1770
 1.2850	38.1550
 1.2860	38.1310
 1.2870	38.1060
 1.2880	38.0790
 1.2890	38.0490
 1.2900	38.0170
 1.2910	37.9840
 1.2920	37.9490
 1.2930	37.9120
 1.2940	37.8700
 1.2950	37.8240
 1.2960	37.7760
 1.2970	37.7270
 1.2980	37.6770
 1.2990	37.6270
 1.3000	37.5730
 1.3010	37.5160
 1.3020	37.4560
 1.3030	37.3930
 1.3040	37.3280
 1.3050	37.2630
 1.3060	37.1960
 1.3070	37.1260
 1.3080	37.0540
 1.3090	36.9780
 1.3100	36.9000
 1.3110	36.8200
 1.3120	36.7370
 1.3130	36.6530
 1.3140	36.5650
 1.3150	36.4740
 1.3160	36.3810
 1.3170	36.2870
 1.3180	36.1890
 1.3190	36.0890
 1.3200	35.9870
 1.3210	35.8820
 1.3220	35.7770
 1.3230	35.6680
 1.3240	35.5580
 1.3250	35.4470
 1.3260	35.3320
 1.3270	35.2140
 1.3280	35.0960
 1.3290	34.9740
 1.3300	34.8500
 1.3310	34.7260
 1.3320	34.6000
 1.3330	34.4710
 1.3340	34.3430
 1.3350	34.2140
 1.3360	34.0830
 1.3370	33.9520
 1.3380	33.8220
 1.3390	33.6930
 1.3400	33.5640
 1.3410	33.4360
 1.3420	33.3100
 1.3430	33.1820
 1.3440	33.0560
 1.3450	32.9290
 1.3460	32.8010
 1.3470	32.6750
 1.3480	32.5500
 1.3490	32.4270
 1.3500	32.3070
 1.3510	32.1870
 1.3520	32.0660
 1.3530	31.9440
 1.3540	31.8210
 1.3550	31.6990
 1.3560	31.5790
 1.3570	31.4580
 1.3580	31.3370
 1.3590	31.2130
 1.3600	31.0860
 1.3610	30.9570
 1.3620	30.8240
 1.3630	30.6870
 1.3640	30.5440
 1.3650	30.3960
 1.3660	30.2430
 1.3670	30.0810
 1.3680	29.9100
 1.3690	29.7310
 1.3700	29.5380
 1.3710	29.3350
 1.3720	29.1210
 1.3730	28.8890
 1.3740	28.6450
 1.3750	28.3840
 1.3760	28.1030
 1.3770	27.8030
 1.3780	27.4830
 1.3790	27.1450
 1.3800	26.7870
 1.3810	26.4050
 1.3820	26.0080
 1.3830	25.5920
 1.3840	25.1590
 1.3850	24.7070
 1.3860	24.2450
 1.3870	23.7620
 1.3880	23.2770
 1.3890	22.7810
 1.3900	22.2780
 1.3910	21.7770
 1.3920	21.2720
 1.3930	20.7650
 1.3940	20.2630
 1.3950	19.7600
 1.3960	19.2640
 1.3970	18.7800
 1.3980	18.3050
 1.3990	17.8500
 1.4000	17.4080
 1.4010	16.9790
 1.4020	16.5700
 1.4030	16.1760
 1.4040	15.8010
 1.4050	15.4460
 1.4060	15.1070
 1.4070	14.7900
 1.4080	14.4910
 1.4090	14.2070
 1.4100	13.9440
 1.4110	13.6950
 1.4120	13.4630
 1.4130	13.2470
 1.4140	13.0460
 1.4150	12.8600
 1.4160	12.6870
 1.4170	12.5250
 1.4180	12.3770
 1.4190	12.2380
 1.4200	12.1100
 1.4210	11.9910
 1.4220	11.8800
 1.4230	11.7790
 1.4240	11.6870
 1.4250	11.6010
 1.4260	11.5230
 1.4270	11.4490
 1.4280	11.3820
 1.4290	11.3210
 1.4300	11.2650
 1.4310	11.2140
 1.4320	11.1690
 1.4330	11.1270
 1.4340	11.0910
 1.4350	11.0580
 1.4360	11.0290
 1.4370	11.0040
 1.4380	10.9820
 1.4390	10.9620
 1.4400	10.9450
 1.4410	10.9320
 1.4420	10.9210
 1.4430	10.9130
 1.4440	10.9070
 1.4450	10.9020
 1.4460	10.9000
 1.4470	10.8990
 1.4480	10.9000
 1.4490	10.9030
 1.4500	10.9070
 1.4510	10.9110
 1.4520	10.9170
 1.4530	10.9250
 1.4540	10.9340
 1.4550	10.9460
 1.4560	10.9600
 1.4570	10.9760
 1.4580	10.9940
 1.4590	11.0130
 1.4600	11.0360
 1.4610	11.0620
 1.4620	11.0900
 1.4630	11.1220
 1.4640	11.1570
 1.4650	11.1940
 1.4660	11.2360
 1.4670	11.2810
 1.4680	11.3300
 1.4690	11.3820
 1.4700	11.4370
 1.4710	11.4970
 1.4720	11.5590
 1.4730	11.6240
 1.4740	11.6920
 1.4750	11.7630
 1.4760	11.8360
