Name: Caesalpina cacalaco
Type: vegetation
Class: Tree
Genus: Caesalpina
Species: cacalaco
Sample No.: JPL138
Owner: JPL
Wavelength Range: VSWIR
Origin: 34.1263; -118.11396; WGS84
Collection Date: 9/14/2016
Description: Samples were collected at the Huntington Garden in San Marino California as part of a JPL Subcontract studying HyTES imagery. Samples were taken to JPL and processed within 48 hours of collection. The same leaves were processed in the Nicolet and then measured using the ASD.
Measurement: Bidirectional reflectance
First Column: X
Second Column: Y
X Units: Wavelength (micrometer)
Y Units: Reflectance (percentage)
First X Value: 0.35
Last X Value: 2.5
Number of X Values: 2151
Additional Information: vegetation.tree.caesalpina.cacalaco.vswir.jpl138.jpl.asd.ancillary.txt

 0.3500	 4.8700
 0.3510	 4.7760
 0.3520	 4.7430
 0.3530	 4.7710
 0.3540	 4.8090
 0.3550	 4.7540
 0.3560	 4.6710
 0.3570	 4.6050
 0.3580	 4.5810
 0.3590	 4.5250
 0.3600	 4.4970
 0.3610	 4.5100
 0.3620	 4.4980
 0.3630	 4.4560
 0.3640	 4.4160
 0.3650	 4.4120
 0.3660	 4.4520
 0.3670	 4.4630
 0.3680	 4.4390
 0.3690	 4.4180
 0.3700	 4.3340
 0.3710	 4.3190
 0.3720	 4.3980
 0.3730	 4.3700
 0.3740	 4.2850
 0.3750	 4.2470
 0.3760	 4.3270
 0.3770	 4.3800
 0.3780	 4.3290
 0.3790	 4.2390
 0.3800	 4.2780
 0.3810	 4.3120
 0.3820	 4.2910
 0.3830	 4.2250
 0.3840	 4.2130
 0.3850	 4.2360
 0.3860	 4.2460
 0.3870	 4.2050
 0.3880	 4.1890
 0.3890	 4.1860
 0.3900	 4.1860
 0.3910	 4.1910
 0.3920	 4.1740
 0.3930	 4.1570
 0.3940	 4.1630
 0.3950	 4.1850
 0.3960	 4.1890
 0.3970	 4.1690
 0.3980	 4.1400
 0.3990	 4.1590
 0.4000	 4.1450
 0.4010	 4.0940
 0.4020	 4.1150
 0.4030	 4.1250
 0.4040	 4.1150
 0.4050	 4.1040
 0.4060	 4.1380
 0.4070	 4.1570
 0.4080	 4.1500
 0.4090	 4.1440
 0.4100	 4.1500
 0.4110	 4.1630
 0.4120	 4.1810
 0.4130	 4.2090
 0.4140	 4.2400
 0.4150	 4.2800
 0.4160	 4.3330
 0.4170	 4.3650
 0.4180	 4.4020
 0.4190	 4.4480
 0.4200	 4.4890
 0.4210	 4.5310
 0.4220	 4.5770
 0.4230	 4.6250
 0.4240	 4.6800
 0.4250	 4.7420
 0.4260	 4.8030
 0.4270	 4.8550
 0.4280	 4.9110
 0.4290	 4.9660
 0.4300	 5.0160
 0.4310	 5.0620
 0.4320	 5.1100
 0.4330	 5.1570
 0.4340	 5.1980
 0.4350	 5.2320
 0.4360	 5.2680
 0.4370	 5.3040
 0.4380	 5.3340
 0.4390	 5.3600
 0.4400	 5.3860
 0.4410	 5.4140
 0.4420	 5.4360
 0.4430	 5.4540
 0.4440	 5.4760
 0.4450	 5.5090
 0.4460	 5.5330
 0.4470	 5.5500
 0.4480	 5.5640
 0.4490	 5.5830
 0.4500	 5.6000
 0.4510	 5.6120
 0.4520	 5.6230
 0.4530	 5.6410
 0.4540	 5.6650
 0.4550	 5.6880
 0.4560	 5.7040
 0.4570	 5.7090
 0.4580	 5.7110
 0.4590	 5.7150
 0.4600	 5.7230
 0.4610	 5.7300
 0.4620	 5.7340
 0.4630	 5.7370
 0.4640	 5.7430
 0.4650	 5.7480
 0.4660	 5.7510
 0.4670	 5.7510
 0.4680	 5.7550
 0.4690	 5.7550
 0.4700	 5.7470
 0.4710	 5.7360
 0.4720	 5.7340
 0.4730	 5.7360
 0.4740	 5.7310
 0.4750	 5.7300
 0.4760	 5.7320
 0.4770	 5.7310
 0.4780	 5.7190
 0.4790	 5.7180
 0.4800	 5.7220
 0.4810	 5.7250
 0.4820	 5.7300
 0.4830	 5.7330
 0.4840	 5.7330
 0.4850	 5.7390
 0.4860	 5.7510
 0.4870	 5.7670
 0.4880	 5.7850
 0.4890	 5.8050
 0.4900	 5.8250
 0.4910	 5.8470
 0.4920	 5.8730
 0.4930	 5.8980
 0.4940	 5.9290
 0.4950	 5.9690
 0.4960	 6.0080
 0.4970	 6.0550
 0.4980	 6.1100
 0.4990	 6.1690
 0.5000	 6.2330
 0.5010	 6.3080
 0.5020	 6.3910
 0.5030	 6.4790
 0.5040	 6.5850
 0.5050	 6.7040
 0.5060	 6.8320
 0.5070	 6.9760
 0.5080	 7.1330
 0.5090	 7.3040
 0.5100	 7.4890
 0.5110	 7.6860
 0.5120	 7.9010
 0.5130	 8.1360
 0.5140	 8.3940
 0.5150	 8.6690
 0.5160	 8.9570
 0.5170	 9.2600
 0.5180	 9.5710
 0.5190	 9.8990
 0.5200	10.2410
 0.5210	10.5840
 0.5220	10.9310
 0.5230	11.2760
 0.5240	11.6150
 0.5250	11.9420
 0.5260	12.2600
 0.5270	12.5670
 0.5280	12.8540
 0.5290	13.1180
 0.5300	13.3650
 0.5310	13.5960
 0.5320	13.8060
 0.5330	13.9940
 0.5340	14.1660
 0.5350	14.3240
 0.5360	14.4620
 0.5370	14.5860
 0.5380	14.6990
 0.5390	14.8020
 0.5400	14.9140
 0.5410	15.0330
 0.5420	15.1490
 0.5430	15.2420
 0.5440	15.3110
 0.5450	15.3570
 0.5460	15.3810
 0.5470	15.3920
 0.5480	15.4010
 0.5490	15.4170
 0.5500	15.4410
 0.5510	15.4570
 0.5520	15.4560
 0.5530	15.4370
 0.5540	15.3980
 0.5550	15.3380
 0.5560	15.2580
 0.5570	15.1650
 0.5580	15.0540
 0.5590	14.9310
 0.5600	14.8010
 0.5610	14.6630
 0.5620	14.5200
 0.5630	14.3730
 0.5640	14.2170
 0.5650	14.0530
 0.5660	13.8830
 0.5670	13.7080
 0.5680	13.5210
 0.5690	13.3280
 0.5700	13.1280
 0.5710	12.9210
 0.5720	12.7240
 0.5730	12.5340
 0.5740	12.3510
 0.5750	12.1760
 0.5760	12.0090
 0.5770	11.8510
 0.5780	11.7050
 0.5790	11.5730
 0.5800	11.4530
 0.5810	11.3420
 0.5820	11.2360
 0.5830	11.1320
 0.5840	11.0290
 0.5850	10.9320
 0.5860	10.8460
 0.5870	10.7730
 0.5880	10.7060
 0.5890	10.6390
 0.5900	10.5770
 0.5910	10.5160
 0.5920	10.4600
 0.5930	10.4150
 0.5940	10.3760
 0.5950	10.3400
 0.5960	10.3080
 0.5970	10.2800
 0.5980	10.2500
 0.5990	10.2170
 0.6000	10.1790
 0.6010	10.1300
 0.6020	10.0720
 0.6030	10.0070
 0.6040	 9.9330
 0.6050	 9.8460
 0.6060	 9.7510
 0.6070	 9.6490
 0.6080	 9.5390
 0.6090	 9.4330
 0.6100	 9.3370
 0.6110	 9.2480
 0.6120	 9.1320
 0.6130	 8.9960
 0.6140	 8.8550
 0.6150	 8.7370
 0.6160	 8.6250
 0.6170	 8.5210
 0.6180	 8.4280
 0.6190	 8.3470
 0.6200	 8.2760
 0.6210	 8.2110
 0.6220	 8.1530
 0.6230	 8.1020
 0.6240	 8.0580
 0.6250	 8.0210
 0.6260	 7.9910
 0.6270	 7.9660
 0.6280	 7.9470
 0.6290	 7.9320
 0.6300	 7.9230
 0.6310	 7.9160
 0.6320	 7.9030
 0.6330	 7.8810
 0.6340	 7.8520
 0.6350	 7.8140
 0.6360	 7.7690
 0.6370	 7.7120
 0.6380	 7.6440
 0.6390	 7.5670
 0.6400	 7.4830
 0.6410	 7.3930
 0.6420	 7.3000
 0.6430	 7.2070
 0.6440	 7.1090
 0.6450	 7.0110
 0.6460	 6.9150
 0.6470	 6.8240
 0.6480	 6.7370
 0.6490	 6.6600
 0.6500	 6.5950
 0.6510	 6.5350
 0.6520	 6.4770
 0.6530	 6.4230
 0.6540	 6.3680
 0.6550	 6.3070
 0.6560	 6.2380
 0.6570	 6.1640
 0.6580	 6.0860
 0.6590	 6.0040
 0.6600	 5.9210
 0.6610	 5.8400
 0.6620	 5.7630
 0.6630	 5.6880
 0.6640	 5.6230
 0.6650	 5.5680
 0.6660	 5.5200
 0.6670	 5.4830
 0.6680	 5.4550
 0.6690	 5.4340
 0.6700	 5.4260
 0.6710	 5.4240
 0.6720	 5.4260
 0.6730	 5.4320
 0.6740	 5.4480
 0.6750	 5.4700
 0.6760	 5.4950
 0.6770	 5.5300
 0.6780	 5.5690
 0.6790	 5.6120
 0.6800	 5.6630
 0.6810	 5.7220
 0.6820	 5.7930
 0.6830	 5.8750
 0.6840	 5.9690
 0.6850	 6.0830
 0.6860	 6.2210
 0.6870	 6.3870
 0.6880	 6.5960
 0.6890	 6.8570
 0.6900	 7.1820
 0.6910	 7.5830
 0.6920	 8.0690
 0.6930	 8.6420
 0.6940	 9.3010
 0.6950	10.0470
 0.6960	10.8770
 0.6970	11.7810
 0.6980	12.7520
 0.6990	13.7800
 0.7000	14.8540
 0.7010	15.9630
 0.7020	17.0960
 0.7030	18.2460
 0.7040	19.4050
 0.7050	20.5670
 0.7060	21.7250
 0.7070	22.8770
 0.7080	24.0210
 0.7090	25.1600
 0.7100	26.2900
 0.7110	27.4160
 0.7120	28.5360
 0.7130	29.6430
 0.7140	30.7350
 0.7150	31.8160
 0.7160	32.8880
 0.7170	33.9470
 0.7180	34.9870
 0.7190	36.0070
 0.7200	37.0030
 0.7210	37.9790
 0.7220	38.9280
 0.7230	39.8450
 0.7240	40.7340
 0.7250	41.5860
 0.7260	42.4030
 0.7270	43.1880
 0.7280	43.9350
 0.7290	44.6430
 0.7300	45.3160
 0.7310	45.9550
 0.7320	46.5560
 0.7330	47.1220
 0.7340	47.6560
 0.7350	48.1580
 0.7360	48.6250
 0.7370	49.0600
 0.7380	49.4650
 0.7390	49.8460
 0.7400	50.1990
 0.7410	50.5240
 0.7420	50.8250
 0.7430	51.1010
 0.7440	51.3530
 0.7450	51.5840
 0.7460	51.7970
 0.7470	51.9900
 0.7480	52.1630
 0.7490	52.3210
 0.7500	52.4650
 0.7510	52.5960
 0.7520	52.7130
 0.7530	52.8200
 0.7540	52.9160
 0.7550	53.0030
 0.7560	53.0820
 0.7570	53.1540
 0.7580	53.2180
 0.7590	53.2770
 0.7600	53.3350
 0.7610	53.3840
 0.7620	53.4270
 0.7630	53.4670
 0.7640	53.5030
 0.7650	53.5340
 0.7660	53.5600
 0.7670	53.5850
 0.7680	53.6090
 0.7690	53.6310
 0.7700	53.6510
 0.7710	53.6690
 0.7720	53.6810
 0.7730	53.6960
 0.7740	53.7120
 0.7750	53.7260
 0.7760	53.7400
 0.7770	53.7490
 0.7780	53.7560
 0.7790	53.7650
 0.7800	53.7760
 0.7810	53.7870
 0.7820	53.7960
 0.7830	53.8000
 0.7840	53.8050
 0.7850	53.8100
 0.7860	53.8140
 0.7870	53.8180
 0.7880	53.8190
 0.7890	53.8180
 0.7900	53.8160
 0.7910	53.8190
 0.7920	53.8210
 0.7930	53.8170
 0.7940	53.8100
 0.7950	53.8050
 0.7960	53.8010
 0.7970	53.7930
 0.7980	53.7840
 0.7990	53.7740
 0.8000	53.7640
 0.8010	53.7530
 0.8020	53.7390
 0.8030	53.7280
 0.8040	53.7170
 0.8050	53.7010
 0.8060	53.6870
 0.8070	53.6690
 0.8080	53.6500
 0.8090	53.6370
 0.8100	53.6160
 0.8110	53.5970
 0.8120	53.5820
 0.8130	53.5600
 0.8140	53.5380
 0.8150	53.5170
 0.8160	53.4960
 0.8170	53.4750
 0.8180	53.4520
 0.8190	53.4290
 0.8200	53.4090
 0.8210	53.3890
 0.8220	53.3650
 0.8230	53.3400
 0.8240	53.3210
 0.8250	53.2970
 0.8260	53.2720
 0.8270	53.2500
 0.8280	53.2250
 0.8290	53.2000
 0.8300	53.1740
 0.8310	53.1490
 0.8320	53.1250
 0.8330	53.1020
 0.8340	53.0820
 0.8350	53.0630
 0.8360	53.0460
 0.8370	53.0310
 0.8380	53.0170
 0.8390	53.0020
 0.8400	52.9890
 0.8410	52.9740
 0.8420	52.9590
 0.8430	52.9480
 0.8440	52.9380
 0.8450	52.9310
 0.8460	52.9250
 0.8470	52.9160
 0.8480	52.9080
 0.8490	52.9020
 0.8500	52.8940
 0.8510	52.8920
 0.8520	52.8910
 0.8530	52.8890
 0.8540	52.8840
 0.8550	52.8810
 0.8560	52.8790
 0.8570	52.8800
 0.8580	52.8840
 0.8590	52.8840
 0.8600	52.8860
 0.8610	52.8930
 0.8620	52.8950
 0.8630	52.9000
 0.8640	52.9060
 0.8650	52.9130
 0.8660	52.9200
 0.8670	52.9260
 0.8680	52.9320
 0.8690	52.9410
 0.8700	52.9540
 0.8710	52.9650
 0.8720	52.9740
 0.8730	52.9810
 0.8740	52.9920
 0.8750	53.0040
 0.8760	53.0180
 0.8770	53.0320
 0.8780	53.0440
 0.8790	53.0540
 0.8800	53.0640
 0.8810	53.0760
 0.8820	53.0830
 0.8830	53.0960
 0.8840	53.1190
 0.8850	53.1280
 0.8860	53.1400
 0.8870	53.1540
 0.8880	53.1660
 0.8890	53.1760
 0.8900	53.1910
 0.8910	53.2070
 0.8920	53.2160
 0.8930	53.2300
 0.8940	53.2460
 0.8950	53.2590
 0.8960	53.2690
 0.8970	53.2810
 0.8980	53.2900
 0.8990	53.2970
 0.9000	53.3040
 0.9010	53.3170
 0.9020	53.3300
 0.9030	53.3410
 0.9040	53.3500
 0.9050	53.3580
 0.9060	53.3650
 0.9070	53.3710
 0.9080	53.3790
 0.9090	53.3890
 0.9100	53.3940
 0.9110	53.3910
 0.9120	53.3950
 0.9130	53.4030
 0.9140	53.4050
 0.9150	53.3970
 0.9160	53.4020
 0.9170	53.4010
 0.9180	53.3960
 0.9190	53.3920
 0.9200	53.3820
 0.9210	53.3750
 0.9220	53.3680
 0.9230	53.3560
 0.9240	53.3460
 0.9250	53.3280
 0.9260	53.3070
 0.9270	53.2930
 0.9280	53.2670
 0.9290	53.2380
 0.9300	53.2130
 0.9310	53.1880
 0.9320	53.1490
 0.9330	53.1090
 0.9340	53.0760
 0.9350	53.0410
 0.9360	53.0040
 0.9370	52.9630
 0.9380	52.9200
 0.9390	52.8810
 0.9400	52.8390
 0.9410	52.7870
 0.9420	52.7280
 0.9430	52.6800
 0.9440	52.6290
 0.9450	52.5680
 0.9460	52.4970
 0.9470	52.4280
 0.9480	52.3640
 0.9490	52.2890
 0.9500	52.1950
 0.9510	52.1070
 0.9520	52.0170
 0.9530	51.9230
 0.9540	51.8280
 0.9550	51.7360
 0.9560	51.6420
 0.9570	51.5520
 0.9580	51.4720
 0.9590	51.3990
 0.9600	51.3360
 0.9610	51.2760
 0.9620	51.2130
 0.9630	51.1560
 0.9640	51.1060
 0.9650	51.0630
 0.9660	51.0250
 0.9670	50.9950
 0.9680	50.9670
 0.9690	50.9390
 0.9700	50.9130
 0.9710	50.8940
 0.9720	50.8710
 0.9730	50.8470
 0.9740	50.8310
 0.9750	50.8200
 0.9760	50.7990
 0.9770	50.7810
 0.9780	50.7820
 0.9790	50.7780
 0.9800	50.7820
 0.9810	50.7800
 0.9820	50.7570
 0.9830	50.7580
 0.9840	50.7860
 0.9850	50.8040
 0.9860	50.7840
 0.9870	50.7950
 0.9880	50.8080
 0.9890	50.8170
 0.9900	50.8290
 0.9910	50.8480
 0.9920	50.8570
 0.9930	50.8700
 0.9940	50.9040
 0.9950	50.9170
 0.9960	50.9320
 0.9970	50.9530
 0.9980	50.9770
 0.9990	51.0090
 1.0000	51.0330
 1.0010	51.1060
 1.0020	51.1310
 1.0030	51.1550
 1.0040	51.1760
 1.0050	51.2020
 1.0060	51.2310
 1.0070	51.2550
 1.0080	51.2790
 1.0090	51.3000
 1.0100	51.3240
 1.0110	51.3460
 1.0120	51.3700
 1.0130	51.3950
 1.0140	51.4200
 1.0150	51.4440
 1.0160	51.4710
 1.0170	51.4980
 1.0180	51.5220
 1.0190	51.5430
 1.0200	51.5640
 1.0210	51.5890
 1.0220	51.6120
 1.0230	51.6360
 1.0240	51.6640
 1.0250	51.6870
 1.0260	51.7030
 1.0270	51.7270
 1.0280	51.7550
 1.0290	51.7760
 1.0300	51.7990
 1.0310	51.8200
 1.0320	51.8350
 1.0330	51.8540
 1.0340	51.8790
 1.0350	51.8980
 1.0360	51.9170
 1.0370	51.9360
 1.0380	51.9530
 1.0390	51.9680
 1.0400	51.9830
 1.0410	51.9970
 1.0420	52.0100
 1.0430	52.0210
 1.0440	52.0340
 1.0450	52.0490
 1.0460	52.0640
 1.0470	52.0790
 1.0480	52.0940
 1.0490	52.1110
 1.0500	52.1250
 1.0510	52.1380
 1.0520	52.1510
 1.0530	52.1620
 1.0540	52.1680
 1.0550	52.1770
 1.0560	52.1840
 1.0570	52.1960
 1.0580	52.2110
 1.0590	52.2220
 1.0600	52.2330
 1.0610	52.2410
 1.0620	52.2420
 1.0630	52.2490
 1.0640	52.2610
 1.0650	52.2690
 1.0660	52.2780
 1.0670	52.2850
 1.0680	52.2900
 1.0690	52.2910
 1.0700	52.2940
 1.0710	52.2950
 1.0720	52.3000
 1.0730	52.3100
 1.0740	52.3140
 1.0750	52.3200
 1.0760	52.3220
 1.0770	52.3180
 1.0780	52.3160
 1.0790	52.3160
 1.0800	52.3150
 1.0810	52.3150
 1.0820	52.3130
 1.0830	52.3080
 1.0840	52.3040
 1.0850	52.3010
 1.0860	52.2950
 1.0870	52.2900
 1.0880	52.2880
 1.0890	52.2820
 1.0900	52.2730
 1.0910	52.2650
 1.0920	52.2560
 1.0930	52.2470
 1.0940	52.2390
 1.0950	52.2280
 1.0960	52.2160
 1.0970	52.2020
 1.0980	52.1810
 1.0990	52.1660
 1.1000	52.1530
 1.1010	52.1390
 1.1020	52.1270
 1.1030	52.1180
 1.1040	52.1030
 1.1050	52.0840
 1.1060	52.0650
 1.1070	52.0420
 1.1080	52.0220
 1.1090	52.0030
 1.1100	51.9830
 1.1110	51.9620
 1.1120	51.9400
 1.1130	51.9180
 1.1140	51.8920
 1.1150	51.8650
 1.1160	51.8360
 1.1170	51.8040
 1.1180	51.7700
 1.1190	51.7360
 1.1200	51.6980
 1.1210	51.6560
 1.1220	51.6100
 1.1230	51.5590
 1.1240	51.5040
 1.1250	51.4440
 1.1260	51.3820
 1.1270	51.3120
 1.1280	51.2390
 1.1290	51.1540
 1.1300	51.0640
 1.1310	50.9610
 1.1320	50.8490
 1.1330	50.7280
 1.1340	50.5970
 1.1350	50.4570
 1.1360	50.3090
 1.1370	50.1510
 1.1380	49.9870
 1.1390	49.8150
 1.1400	49.6370
 1.1410	49.4560
 1.1420	49.2690
 1.1430	49.0790
 1.1440	48.8940
 1.1450	48.7060
 1.1460	48.5240
 1.1470	48.3430
 1.1480	48.1700
 1.1490	47.9960
 1.1500	47.8380
 1.1510	47.6880
 1.1520	47.5470
 1.1530	47.4160
 1.1540	47.2950
 1.1550	47.1830
 1.1560	47.0800
 1.1570	46.9890
 1.1580	46.9080
 1.1590	46.8350
 1.1600	46.7700
 1.1610	46.7120
 1.1620	46.6590
 1.1630	46.6120
 1.1640	46.5720
 1.1650	46.5350
 1.1660	46.5010
 1.1670	46.4710
 1.1680	46.4450
 1.1690	46.4190
 1.1700	46.3980
 1.1710	46.3760
 1.1720	46.3550
 1.1730	46.3330
 1.1740	46.3110
 1.1750	46.2890
 1.1760	46.2700
 1.1770	46.2510
 1.1780	46.2310
 1.1790	46.2130
 1.1800	46.1910
 1.1810	46.1680
 1.1820	46.1450
 1.1830	46.1230
 1.1840	46.1030
 1.1850	46.0810
 1.1860	46.0590
 1.1870	46.0380
 1.1880	46.0180
 1.1890	45.9980
 1.1900	45.9830
 1.1910	45.9710
 1.1920	45.9610
 1.1930	45.9530
 1.1940	45.9460
 1.1950	45.9420
 1.1960	45.9380
 1.1970	45.9350
 1.1980	45.9350
 1.1990	45.9370
 1.2000	45.9400
 1.2010	45.9440
 1.2020	45.9530
 1.2030	45.9630
 1.2040	45.9750
 1.2050	45.9880
 1.2060	46.0010
 1.2070	46.0160
 1.2080	46.0330
 1.2090	46.0510
 1.2100	46.0700
 1.2110	46.0900
 1.2120	46.1100
 1.2130	46.1310
 1.2140	46.1540
 1.2150	46.1770
 1.2160	46.2000
 1.2170	46.2240
 1.2180	46.2490
 1.2190	46.2740
 1.2200	46.3000
 1.2210	46.3270
 1.2220	46.3530
 1.2230	46.3810
 1.2240	46.4060
 1.2250	46.4300
 1.2260	46.4560
 1.2270	46.4790
 1.2280	46.5030
 1.2290	46.5270
 1.2300	46.5510
 1.2310	46.5740
 1.2320	46.5980
 1.2330	46.6190
 1.2340	46.6400
 1.2350	46.6580
 1.2360	46.6770
 1.2370	46.6940
 1.2380	46.7120
 1.2390	46.7290
 1.2400	46.7460
 1.2410	46.7650
 1.2420	46.7820
 1.2430	46.8010
 1.2440	46.8200
 1.2450	46.8360
 1.2460	46.8540
 1.2470	46.8680
 1.2480	46.8790
 1.2490	46.8930
 1.2500	46.9060
 1.2510	46.9170
 1.2520	46.9290
 1.2530	46.9360
 1.2540	46.9410
 1.2550	46.9480
 1.2560	46.9550
 1.2570	46.9600
 1.2580	46.9650
 1.2590	46.9680
 1.2600	46.9680
 1.2610	46.9690
 1.2620	46.9690
 1.2630	46.9690
 1.2640	46.9680
 1.2650	46.9640
 1.2660	46.9590
 1.2670	46.9540
 1.2680	46.9450
 1.2690	46.9350
 1.2700	46.9240
 1.2710	46.9090
 1.2720	46.8940
 1.2730	46.8790
 1.2740	46.8620
 1.2750	46.8450
 1.2760	46.8240
 1.2770	46.8000
 1.2780	46.7740
 1.2790	46.7450
 1.2800	46.7160
 1.2810	46.6870
 1.2820	46.6560
 1.2830	46.6210
 1.2840	46.5860
 1.2850	46.5490
 1.2860	46.5110
 1.2870	46.4700
 1.2880	46.4290
 1.2890	46.3860
 1.2900	46.3380
 1.2910	46.2880
 1.2920	46.2380
 1.2930	46.1860
 1.2940	46.1300
 1.2950	46.0720
 1.2960	46.0110
 1.2970	45.9450
 1.2980	45.8800
 1.2990	45.8140
 1.3000	45.7450
 1.3010	45.6730
 1.3020	45.5970
 1.3030	45.5150
 1.3040	45.4310
 1.3050	45.3470
 1.3060	45.2570
 1.3070	45.1660
 1.3080	45.0690
 1.3090	44.9660
 1.3100	44.8610
 1.3110	44.7550
 1.3120	44.6440
 1.3130	44.5310
 1.3140	44.4130
 1.3150	44.2890
 1.3160	44.1610
 1.3170	44.0300
 1.3180	43.8960
 1.3190	43.7580
 1.3200	43.6170
 1.3210	43.4700
 1.3220	43.3190
 1.3230	43.1660
 1.3240	43.0100
 1.3250	42.8540
 1.3260	42.6940
 1.3270	42.5300
 1.3280	42.3650
 1.3290	42.1950
 1.3300	42.0210
 1.3310	41.8470
 1.3320	41.6710
 1.3330	41.4930
 1.3340	41.3160
 1.3350	41.1390
 1.3360	40.9610
 1.3370	40.7820
 1.3380	40.6050
 1.3390	40.4270
 1.3400	40.2510
 1.3410	40.0780
 1.3420	39.9080
 1.3430	39.7380
 1.3440	39.5710
 1.3450	39.4040
 1.3460	39.2380
 1.3470	39.0750
 1.3480	38.9120
 1.3490	38.7530
 1.3500	38.5990
 1.3510	38.4450
 1.3520	38.2910
 1.3530	38.1380
 1.3540	37.9820
 1.3550	37.8270
 1.3560	37.6740
 1.3570	37.5200
 1.3580	37.3650
 1.3590	37.2080
 1.3600	37.0450
 1.3610	36.8770
 1.3620	36.7020
 1.3630	36.5220
 1.3640	36.3340
 1.3650	36.1360
 1.3660	35.9320
 1.3670	35.7150
 1.3680	35.4860
 1.3690	35.2440
 1.3700	34.9820
 1.3710	34.7060
 1.3720	34.4130
 1.3730	34.0980
 1.3740	33.7650
 1.3750	33.4100
 1.3760	33.0270
 1.3770	32.6200
 1.3780	32.1820
 1.3790	31.7190
 1.3800	31.2310
 1.3810	30.7120
 1.3820	30.1730
 1.3830	29.6120
 1.3840	29.0280
 1.3850	28.4210
 1.3860	27.8010
 1.3870	27.1560
 1.3880	26.5100
 1.3890	25.8530
 1.3900	25.1880
 1.3910	24.5280
 1.3920	23.8670
 1.3930	23.2040
 1.3940	22.5500
 1.3950	21.8980
 1.3960	21.2590
 1.3970	20.6380
 1.3980	20.0340
 1.3990	19.4560
 1.4000	18.8990
 1.4010	18.3620
 1.4020	17.8520
 1.4030	17.3620
 1.4040	16.8980
 1.4050	16.4610
 1.4060	16.0460
 1.4070	15.6620
 1.4080	15.3020
 1.4090	14.9620
 1.4100	14.6490
 1.4110	14.3540
 1.4120	14.0800
 1.4130	13.8280
 1.4140	13.5930
 1.4150	13.3780
 1.4160	13.1790
 1.4170	12.9950
 1.4180	12.8260
 1.4190	12.6700
 1.4200	12.5260
 1.4210	12.3940
 1.4220	12.2720
 1.4230	12.1610
 1.4240	12.0580
 1.4250	11.9630
 1.4260	11.8780
 1.4270	11.7980
 1.4280	11.7250
 1.4290	11.6590
 1.4300	11.6000
 1.4310	11.5450
 1.4320	11.4970
 1.4330	11.4530
 1.4340	11.4140
 1.4350	11.3780
 1.4360	11.3460
 1.4370	11.3190
 1.4380	11.2950
 1.4390	11.2750
 1.4400	11.2590
 1.4410	11.2450
 1.4420	11.2340
 1.4430	11.2260
 1.4440	11.2200
 1.4450	11.2180
 1.4460	11.2170
 1.4470	11.2180
 1.4480	11.2220
 1.4490	11.2260
 1.4500	11.2320
 1.4510	11.2410
 1.4520	11.2510
 1.4530	11.2630
 1.4540	11.2760
 1.4550	11.2920
 1.4560	11.3100
 1.4570	11.3310
 1.4580	11.3550
 1.4590	11.3830
 1.4600	11.4130
 1.4610	11.4480
 1.4620	11.4860
 1.4630	11.5310
 1.4640	11.5800
 1.4650	11.6340
 1.4660	11.6920
 1.4670	11.7530
 1.4680	11.8200
 1.4690	11.8920
 1.4700	11.9670
 1.4710	12.0470
 1.4720	12.1300
 1.4730	12.2160
 1.4740	12.3080
 1.4750	12.4030
 1.4760	12.5030
 1.4770	12.6050
