Name: Calocedrus decrruens 3
Type: vegetation
Class: Tree
Genus: Calocedrus
Species: decurrens
Sample No.: VH156
Owner: UCSB
Wavelength Range: VSWIR
Origin: 37.0443; -119.3026; WGS84
Collection Date: 6/8/2013
Description: Samples were collected as part of the HyspIRI Airborne Campaign. 48 individual plants were sampled in three times in 2013 - spring  summer  and fall. The name of the sample includes a 1  2  or 3 which references a different individual of the species. Samples were taken to JPL and processed within 48 hours of collection. The same leaves were processed in the Nicolet and then measured using the ASD.
Measurement: Bidirectional reflectance
First Column: X
Second Column: Y
X Units: Wavelength (micrometers)
Y Units: Reflectance (percentage)
First X Value: 0.35
Last X Value: 2.5
Number of X Values: 2151
Additional Information: vegetation.tree.calocedrus.decurrens.vswir.vh156.ucsb.asd.ancillary.txt

 0.3500	 4.7670
 0.3510	 4.6830
 0.3520	 4.6250
 0.3530	 4.5840
 0.3540	 4.5820
 0.3550	 4.5720
 0.3560	 4.6180
 0.3570	 4.6770
 0.3580	 4.6670
 0.3590	 4.6040
 0.3600	 4.5680
 0.3610	 4.5630
 0.3620	 4.4950
 0.3630	 4.4810
 0.3640	 4.4470
 0.3650	 4.3500
 0.3660	 4.4870
 0.3670	 4.5430
 0.3680	 4.4890
 0.3690	 4.4830
 0.3700	 4.4860
 0.3710	 4.4700
 0.3720	 4.4490
 0.3730	 4.5470
 0.3740	 4.4710
 0.3750	 4.3710
 0.3760	 4.4440
 0.3770	 4.4240
 0.3780	 4.4040
 0.3790	 4.4180
 0.3800	 4.4340
 0.3810	 4.4550
 0.3820	 4.4470
 0.3830	 4.4060
 0.3840	 4.4210
 0.3850	 4.4380
 0.3860	 4.4500
 0.3870	 4.4590
 0.3880	 4.4630
 0.3890	 4.4730
 0.3900	 4.4990
 0.3910	 4.5510
 0.3920	 4.5380
 0.3930	 4.5050
 0.3940	 4.5090
 0.3950	 4.5530
 0.3960	 4.6010
 0.3970	 4.6460
 0.3980	 4.6840
 0.3990	 4.7030
 0.4000	 4.7000
 0.4010	 4.7040
 0.4020	 4.7890
 0.4030	 4.8360
 0.4040	 4.8660
 0.4050	 4.9170
 0.4060	 4.9220
 0.4070	 4.9590
 0.4080	 5.0260
 0.4090	 5.0800
 0.4100	 5.1390
 0.4110	 5.1910
 0.4120	 5.2330
 0.4130	 5.3010
 0.4140	 5.3370
 0.4150	 5.3630
 0.4160	 5.4110
 0.4170	 5.4370
 0.4180	 5.4690
 0.4190	 5.5060
 0.4200	 5.5290
 0.4210	 5.5660
 0.4220	 5.6100
 0.4230	 5.6440
 0.4240	 5.6770
 0.4250	 5.6930
 0.4260	 5.7110
 0.4270	 5.7520
 0.4280	 5.7680
 0.4290	 5.7720
 0.4300	 5.7770
 0.4310	 5.7970
 0.4320	 5.8230
 0.4330	 5.8420
 0.4340	 5.8460
 0.4350	 5.8610
 0.4360	 5.8800
 0.4370	 5.8980
 0.4380	 5.9120
 0.4390	 5.9250
 0.4400	 5.9330
 0.4410	 5.9380
 0.4420	 5.9500
 0.4430	 5.9660
 0.4440	 5.9870
 0.4450	 6.0090
 0.4460	 6.0230
 0.4470	 6.0410
 0.4480	 6.0670
 0.4490	 6.0900
 0.4500	 6.1110
 0.4510	 6.1270
 0.4520	 6.1360
 0.4530	 6.1530
 0.4540	 6.1630
 0.4550	 6.1700
 0.4560	 6.1900
 0.4570	 6.2040
 0.4580	 6.2180
 0.4590	 6.2250
 0.4600	 6.2250
 0.4610	 6.2230
 0.4620	 6.2230
 0.4630	 6.2280
 0.4640	 6.2330
 0.4650	 6.2400
 0.4660	 6.2440
 0.4670	 6.2430
 0.4680	 6.2440
 0.4690	 6.2440
 0.4700	 6.2390
 0.4710	 6.2450
 0.4720	 6.2440
 0.4730	 6.2440
 0.4740	 6.2610
 0.4750	 6.2670
 0.4760	 6.2710
 0.4770	 6.2740
 0.4780	 6.2660
 0.4790	 6.2690
 0.4800	 6.2780
 0.4810	 6.2880
 0.4820	 6.2860
 0.4830	 6.2860
 0.4840	 6.2920
 0.4850	 6.2950
 0.4860	 6.3100
 0.4870	 6.3250
 0.4880	 6.3380
 0.4890	 6.3520
 0.4900	 6.3720
 0.4910	 6.3940
 0.4920	 6.4140
 0.4930	 6.4400
 0.4940	 6.4780
 0.4950	 6.5210
 0.4960	 6.5630
 0.4970	 6.6080
 0.4980	 6.6540
 0.4990	 6.7050
 0.5000	 6.7800
 0.5010	 6.8620
 0.5020	 6.9450
 0.5030	 7.0390
 0.5040	 7.1480
 0.5050	 7.2690
 0.5060	 7.3970
 0.5070	 7.5330
 0.5080	 7.6820
 0.5090	 7.8440
 0.5100	 8.0220
 0.5110	 8.2190
 0.5120	 8.4290
 0.5130	 8.6480
 0.5140	 8.8800
 0.5150	 9.1240
 0.5160	 9.3760
 0.5170	 9.6280
 0.5180	 9.8950
 0.5190	10.1680
 0.5200	10.4380
 0.5210	10.7110
 0.5220	10.9720
 0.5230	11.2250
 0.5240	11.4740
 0.5250	11.7010
 0.5260	11.9140
 0.5270	12.1140
 0.5280	12.2980
 0.5290	12.4590
 0.5300	12.6090
 0.5310	12.7490
 0.5320	12.8710
 0.5330	12.9770
 0.5340	13.0700
 0.5350	13.1540
 0.5360	13.2190
 0.5370	13.2770
 0.5380	13.3300
 0.5390	13.3740
 0.5400	13.4170
 0.5410	13.4570
 0.5420	13.4930
 0.5430	13.5320
 0.5440	13.5680
 0.5450	13.6030
 0.5460	13.6370
 0.5470	13.6630
 0.5480	13.6820
 0.5490	13.6970
 0.5500	13.7160
 0.5510	13.7290
 0.5520	13.7310
 0.5530	13.7210
 0.5540	13.6920
 0.5550	13.6500
 0.5560	13.5950
 0.5570	13.5270
 0.5580	13.4380
 0.5590	13.3370
 0.5600	13.2320
 0.5610	13.1170
 0.5620	12.9930
 0.5630	12.8580
 0.5640	12.7140
 0.5650	12.5680
 0.5660	12.4140
 0.5670	12.2530
 0.5680	12.0950
 0.5690	11.9270
 0.5700	11.7580
 0.5710	11.5960
 0.5720	11.4380
 0.5730	11.2880
 0.5740	11.1480
 0.5750	11.0160
 0.5760	10.8910
 0.5770	10.7710
 0.5780	10.6570
 0.5790	10.5510
 0.5800	10.4530
 0.5810	10.3620
 0.5820	10.2700
 0.5830	10.1870
 0.5840	10.1070
 0.5850	10.0280
 0.5860	 9.9590
 0.5870	 9.8920
 0.5880	 9.8270
 0.5890	 9.7630
 0.5900	 9.7080
 0.5910	 9.6560
 0.5920	 9.6110
 0.5930	 9.5760
 0.5940	 9.5420
 0.5950	 9.5110
 0.5960	 9.4860
 0.5970	 9.4580
 0.5980	 9.4280
 0.5990	 9.3960
 0.6000	 9.3620
 0.6010	 9.3270
 0.6020	 9.2900
 0.6030	 9.2460
 0.6040	 9.1970
 0.6050	 9.1420
 0.6060	 9.0840
 0.6070	 9.0250
 0.6080	 8.9600
 0.6090	 8.8900
 0.6100	 8.8230
 0.6110	 8.7550
 0.6120	 8.6810
 0.6130	 8.6040
 0.6140	 8.5280
 0.6150	 8.4580
 0.6160	 8.3830
 0.6170	 8.3140
 0.6180	 8.2600
 0.6190	 8.2100
 0.6200	 8.1620
 0.6210	 8.1160
 0.6220	 8.0790
 0.6230	 8.0480
 0.6240	 8.0240
 0.6250	 8.0040
 0.6260	 7.9860
 0.6270	 7.9700
 0.6280	 7.9510
 0.6290	 7.9380
 0.6300	 7.9310
 0.6310	 7.9230
 0.6320	 7.9090
 0.6330	 7.8840
 0.6340	 7.8540
 0.6350	 7.8130
 0.6360	 7.7680
 0.6370	 7.7080
 0.6380	 7.6440
 0.6390	 7.5750
 0.6400	 7.5000
 0.6410	 7.4170
 0.6420	 7.3320
 0.6430	 7.2470
 0.6440	 7.1650
 0.6450	 7.0870
 0.6460	 7.0090
 0.6470	 6.9330
 0.6480	 6.8660
 0.6490	 6.8090
 0.6500	 6.7640
 0.6510	 6.7260
 0.6520	 6.6950
 0.6530	 6.6670
 0.6540	 6.6350
 0.6550	 6.6030
 0.6560	 6.5690
 0.6570	 6.5330
 0.6580	 6.4900
 0.6590	 6.4410
 0.6600	 6.3920
 0.6610	 6.3440
 0.6620	 6.2930
 0.6630	 6.2480
 0.6640	 6.2080
 0.6650	 6.1670
 0.6660	 6.1320
 0.6670	 6.1090
 0.6680	 6.0900
 0.6690	 6.0760
 0.6700	 6.0730
 0.6710	 6.0720
 0.6720	 6.0790
 0.6730	 6.0880
 0.6740	 6.1000
 0.6750	 6.1200
 0.6760	 6.1460
 0.6770	 6.1800
 0.6780	 6.2180
 0.6790	 6.2590
 0.6800	 6.3100
 0.6810	 6.3670
 0.6820	 6.4290
 0.6830	 6.5020
 0.6840	 6.5900
 0.6850	 6.6910
 0.6860	 6.8110
 0.6870	 6.9580
 0.6880	 7.1360
 0.6890	 7.3570
 0.6900	 7.6320
 0.6910	 7.9730
 0.6920	 8.3860
 0.6930	 8.8640
 0.6940	 9.4130
 0.6950	10.0390
 0.6960	10.7310
 0.6970	11.4850
 0.6980	12.2940
 0.6990	13.1510
 0.7000	14.0530
 0.7010	14.9930
 0.7020	15.9600
 0.7030	16.9420
 0.7040	17.9400
 0.7050	18.9520
 0.7060	19.9730
 0.7070	21.0030
 0.7080	22.0400
 0.7090	23.0840
 0.7100	24.1360
 0.7110	25.2000
 0.7120	26.2740
 0.7130	27.3500
 0.7140	28.4330
 0.7150	29.5250
 0.7160	30.6220
 0.7170	31.7270
 0.7180	32.8330
 0.7190	33.9370
 0.7200	35.0390
 0.7210	36.1430
 0.7220	37.2380
 0.7230	38.3220
 0.7240	39.3970
 0.7250	40.4540
 0.7260	41.4910
 0.7270	42.5080
 0.7280	43.5000
 0.7290	44.4660
 0.7300	45.4020
 0.7310	46.3030
 0.7320	47.1780
 0.7330	48.0220
 0.7340	48.8320
 0.7350	49.6060
 0.7360	50.3490
 0.7370	51.0580
 0.7380	51.7290
 0.7390	52.3680
 0.7400	52.9730
 0.7410	53.5440
 0.7420	54.0790
 0.7430	54.5790
 0.7440	55.0450
 0.7450	55.4790
 0.7460	55.8870
 0.7470	56.2620
 0.7480	56.6040
 0.7490	56.9140
 0.7500	57.2040
 0.7510	57.4660
 0.7520	57.7020
 0.7530	57.9200
 0.7540	58.1220
 0.7550	58.3070
 0.7560	58.4750
 0.7570	58.6250
 0.7580	58.7580
 0.7590	58.8800
 0.7600	58.9940
 0.7610	59.1010
 0.7620	59.1920
 0.7630	59.2720
 0.7640	59.3450
 0.7650	59.4140
 0.7660	59.4750
 0.7670	59.5300
 0.7680	59.5770
 0.7690	59.6220
 0.7700	59.6640
 0.7710	59.7000
 0.7720	59.7360
 0.7730	59.7640
 0.7740	59.7900
 0.7750	59.8230
 0.7760	59.8550
 0.7770	59.8860
 0.7780	59.9130
 0.7790	59.9350
 0.7800	59.9590
 0.7810	59.9840
 0.7820	60.0090
 0.7830	60.0320
 0.7840	60.0550
 0.7850	60.0780
 0.7860	60.1010
 0.7870	60.1220
 0.7880	60.1400
 0.7890	60.1570
 0.7900	60.1750
 0.7910	60.1910
 0.7920	60.2080
 0.7930	60.2230
 0.7940	60.2340
 0.7950	60.2510
 0.7960	60.2710
 0.7970	60.2900
 0.7980	60.3000
 0.7990	60.3070
 0.8000	60.3150
 0.8010	60.3260
 0.8020	60.3330
 0.8030	60.3400
 0.8040	60.3490
 0.8050	60.3560
 0.8060	60.3620
 0.8070	60.3670
 0.8080	60.3710
 0.8090	60.3760
 0.8100	60.3820
 0.8110	60.3870
 0.8120	60.3880
 0.8130	60.3910
 0.8140	60.3920
 0.8150	60.3930
 0.8160	60.3980
 0.8170	60.4120
 0.8180	60.4130
 0.8190	60.4060
 0.8200	60.4070
 0.8210	60.4150
 0.8220	60.4170
 0.8230	60.4140
 0.8240	60.4130
 0.8250	60.4180
 0.8260	60.4190
 0.8270	60.4150
 0.8280	60.4150
 0.8290	60.4120
 0.8300	60.4090
 0.8310	60.4080
 0.8320	60.4050
 0.8330	60.4030
 0.8340	60.4040
 0.8350	60.4060
 0.8360	60.4140
 0.8370	60.4150
 0.8380	60.4150
 0.8390	60.4280
 0.8400	60.4400
 0.8410	60.4520
 0.8420	60.4630
 0.8430	60.4680
 0.8440	60.4750
 0.8450	60.4860
 0.8460	60.4990
 0.8470	60.5080
 0.8480	60.5240
 0.8490	60.5380
 0.8500	60.5460
 0.8510	60.5610
 0.8520	60.5750
 0.8530	60.5830
 0.8540	60.5870
 0.8550	60.5990
 0.8560	60.6150
 0.8570	60.6290
 0.8580	60.6410
 0.8590	60.6470
 0.8600	60.6550
 0.8610	60.6670
 0.8620	60.6740
 0.8630	60.6860
 0.8640	60.6980
 0.8650	60.7070
 0.8660	60.7180
 0.8670	60.7240
 0.8680	60.7340
 0.8690	60.7520
 0.8700	60.7620
 0.8710	60.7660
 0.8720	60.7710
 0.8730	60.7830
 0.8740	60.7970
 0.8750	60.8050
 0.8760	60.8090
 0.8770	60.8190
 0.8780	60.8300
 0.8790	60.8410
 0.8800	60.8510
 0.8810	60.8580
 0.8820	60.8610
 0.8830	60.8640
 0.8840	60.8690
 0.8850	60.8680
 0.8860	60.8720
 0.8870	60.8780
 0.8880	60.8810
 0.8890	60.8850
 0.8900	60.8870
 0.8910	60.8860
 0.8920	60.8860
 0.8930	60.8890
 0.8940	60.8880
 0.8950	60.8850
 0.8960	60.8870
 0.8970	60.8910
 0.8980	60.8900
 0.8990	60.8840
 0.9000	60.8820
 0.9010	60.8860
 0.9020	60.8900
 0.9030	60.8890
 0.9040	60.8780
 0.9050	60.8840
 0.9060	60.8910
 0.9070	60.8820
 0.9080	60.8710
 0.9090	60.8650
 0.9100	60.8650
 0.9110	60.8650
 0.9120	60.8560
 0.9130	60.8500
 0.9140	60.8460
 0.9150	60.8400
 0.9160	60.8260
 0.9170	60.8120
 0.9180	60.8060
 0.9190	60.8050
 0.9200	60.7940
 0.9210	60.7790
 0.9220	60.7650
 0.9230	60.7520
 0.9240	60.7310
 0.9250	60.7110
 0.9260	60.6910
 0.9270	60.6640
 0.9280	60.6430
 0.9290	60.6180
 0.9300	60.5880
 0.9310	60.5570
 0.9320	60.5170
 0.9330	60.4730
 0.9340	60.4340
 0.9350	60.4050
 0.9360	60.3680
 0.9370	60.3210
 0.9380	60.2660
 0.9390	60.2050
 0.9400	60.1640
 0.9410	60.1160
 0.9420	60.0480
 0.9430	59.9870
 0.9440	59.9210
 0.9450	59.8510
 0.9460	59.7730
 0.9470	59.6590
 0.9480	59.5560
 0.9490	59.4560
 0.9500	59.3430
 0.9510	59.2210
 0.9520	59.1090
 0.9530	58.9890
 0.9540	58.8450
 0.9550	58.7090
 0.9560	58.5730
 0.9570	58.4420
 0.9580	58.3240
 0.9590	58.2210
 0.9600	58.1090
 0.9610	58.0080
 0.9620	57.9410
 0.9630	57.8640
 0.9640	57.7910
 0.9650	57.7280
 0.9660	57.6800
 0.9670	57.6290
 0.9680	57.5780
 0.9690	57.5350
 0.9700	57.5020
 0.9710	57.4750
 0.9720	57.4530
 0.9730	57.4290
 0.9740	57.3940
 0.9750	57.3670
 0.9760	57.3530
 0.9770	57.3470
 0.9780	57.3390
 0.9790	57.3180
 0.9800	57.3110
 0.9810	57.3140
 0.9820	57.3150
 0.9830	57.3250
 0.9840	57.3430
 0.9850	57.3680
 0.9860	57.3980
 0.9870	57.4160
 0.9880	57.4400
 0.9890	57.4660
 0.9900	57.4800
 0.9910	57.5150
 0.9920	57.5650
 0.9930	57.6100
 0.9940	57.6390
 0.9950	57.6910
 0.9960	57.7390
 0.9970	57.7750
 0.9980	57.8040
 0.9990	57.8600
 1.0000	58.0840
 1.0010	58.4480
 1.0020	58.6800
 1.0030	58.7340
 1.0040	58.7900
 1.0050	58.8480
 1.0060	58.9020
 1.0070	58.9520
 1.0080	59.0060
 1.0090	59.0550
 1.0100	59.1120
 1.0110	59.1810
 1.0120	59.2400
 1.0130	59.2980
 1.0140	59.3550
 1.0150	59.4060
 1.0160	59.4560
 1.0170	59.5160
 1.0180	59.5740
 1.0190	59.6310
 1.0200	59.6870
 1.0210	59.7350
 1.0220	59.7840
 1.0230	59.8390
 1.0240	59.9010
 1.0250	59.9580
 1.0260	60.0190
 1.0270	60.0750
 1.0280	60.1220
 1.0290	60.1730
 1.0300	60.2250
 1.0310	60.2760
 1.0320	60.3250
 1.0330	60.3760
 1.0340	60.4290
 1.0350	60.4790
 1.0360	60.5290
 1.0370	60.5770
 1.0380	60.6210
 1.0390	60.6580
 1.0400	60.7010
 1.0410	60.7450
 1.0420	60.7890
 1.0430	60.8370
 1.0440	60.8810
 1.0450	60.9230
 1.0460	60.9620
 1.0470	60.9970
 1.0480	61.0330
 1.0490	61.0670
 1.0500	61.1010
 1.0510	61.1350
 1.0520	61.1730
 1.0530	61.2040
 1.0540	61.2320
 1.0550	61.2600
 1.0560	61.2840
 1.0570	61.3140
 1.0580	61.3490
 1.0590	61.3760
 1.0600	61.4000
 1.0610	61.4240
 1.0620	61.4430
 1.0630	61.4630
 1.0640	61.4900
 1.0650	61.5080
 1.0660	61.5180
 1.0670	61.5310
 1.0680	61.5420
 1.0690	61.5470
 1.0700	61.5630
 1.0710	61.5850
 1.0720	61.5980
 1.0730	61.6160
 1.0740	61.6230
 1.0750	61.6210
 1.0760	61.6230
 1.0770	61.6230
 1.0780	61.6230
 1.0790	61.6210
 1.0800	61.6210
 1.0810	61.6200
 1.0820	61.6180
 1.0830	61.6160
 1.0840	61.6140
 1.0850	61.6120
 1.0860	61.6080
 1.0870	61.6000
 1.0880	61.5930
 1.0890	61.5800
 1.0900	61.5600
 1.0910	61.5430
 1.0920	61.5250
 1.0930	61.5050
 1.0940	61.4800
 1.0950	61.4600
 1.0960	61.4430
 1.0970	61.4220
 1.0980	61.4050
 1.0990	61.3860
 1.1000	61.3640
 1.1010	61.3410
 1.1020	61.3190
 1.1030	61.2950
 1.1040	61.2710
 1.1050	61.2450
 1.1060	61.2210
 1.1070	61.2000
 1.1080	61.1710
 1.1090	61.1400
 1.1100	61.1040
 1.1110	61.0630
 1.1120	61.0230
 1.1130	60.9810
 1.1140	60.9380
 1.1150	60.8960
 1.1160	60.8490
 1.1170	60.8020
 1.1180	60.7480
 1.1190	60.6910
 1.1200	60.6280
 1.1210	60.5560
 1.1220	60.4780
 1.1230	60.3920
 1.1240	60.2980
 1.1250	60.1920
 1.1260	60.0830
 1.1270	59.9510
 1.1280	59.8050
 1.1290	59.6470
 1.1300	59.4770
 1.1310	59.2900
 1.1320	59.0910
 1.1330	58.8760
 1.1340	58.6420
 1.1350	58.3970
 1.1360	58.1400
 1.1370	57.8690
 1.1380	57.5870
 1.1390	57.2970
 1.1400	56.9990
 1.1410	56.7030
 1.1420	56.4010
 1.1430	56.0960
 1.1440	55.7950
 1.1450	55.4880
 1.1460	55.1940
 1.1470	54.9030
 1.1480	54.6240
 1.1490	54.3510
 1.1500	54.0960
 1.1510	53.8480
 1.1520	53.6200
 1.1530	53.4070
 1.1540	53.2090
 1.1550	53.0260
 1.1560	52.8560
 1.1570	52.7000
 1.1580	52.5560
 1.1590	52.4250
 1.1600	52.3050
 1.1610	52.1950
 1.1620	52.0930
 1.1630	51.9980
 1.1640	51.9120
 1.1650	51.8340
 1.1660	51.7680
 1.1670	51.7010
 1.1680	51.6430
 1.1690	51.5820
 1.1700	51.5220
 1.1710	51.4630
 1.1720	51.4060
 1.1730	51.3490
 1.1740	51.2920
 1.1750	51.2370
 1.1760	51.1880
 1.1770	51.1340
 1.1780	51.0780
 1.1790	51.0210
 1.1800	50.9560
 1.1810	50.8920
 1.1820	50.8300
 1.1830	50.7700
 1.1840	50.7080
 1.1850	50.6470
 1.1860	50.5890
 1.1870	50.5290
 1.1880	50.4730
 1.1890	50.4200
 1.1900	50.3680
 1.1910	50.3160
 1.1920	50.2700
 1.1930	50.2280
 1.1940	50.1900
 1.1950	50.1550
 1.1960	50.1240
 1.1970	50.0960
 1.1980	50.0740
 1.1990	50.0590
 1.2000	50.0480
 1.2010	50.0430
 1.2020	50.0420
 1.2030	50.0490
 1.2040	50.0630
 1.2050	50.0830
 1.2060	50.1100
 1.2070	50.1420
 1.2080	50.1780
 1.2090	50.2200
 1.2100	50.2690
 1.2110	50.3230
 1.2120	50.3830
 1.2130	50.4480
 1.2140	50.5180
 1.2150	50.5930
 1.2160	50.6730
 1.2170	50.7540
 1.2180	50.8380
 1.2190	50.9260
 1.2200	51.0110
 1.2210	51.1000
 1.2220	51.1920
 1.2230	51.2820
 1.2240	51.3750
 1.2250	51.4680
 1.2260	51.5600
 1.2270	51.6510
 1.2280	51.7390
 1.2290	51.8250
 1.2300	51.9060
 1.2310	51.9830
 1.2320	52.0600
 1.2330	52.1330
 1.2340	52.2030
 1.2350	52.2710
 1.2360	52.3370
 1.2370	52.3980
 1.2380	52.4560
 1.2390	52.5160
 1.2400	52.5740
 1.2410	52.6320
 1.2420	52.6880
 1.2430	52.7420
 1.2440	52.7940
 1.2450	52.8420
 1.2460	52.8910
 1.2470	52.9390
 1.2480	52.9850
 1.2490	53.0310
 1.2500	53.0730
 1.2510	53.1140
 1.2520	53.1520
 1.2530	53.1840
 1.2540	53.2160
 1.2550	53.2450
 1.2560	53.2730
 1.2570	53.3010
 1.2580	53.3280
 1.2590	53.3530
 1.2600	53.3780
 1.2610	53.3990
 1.2620	53.4180
 1.2630	53.4330
 1.2640	53.4460
 1.2650	53.4570
 1.2660	53.4680
 1.2670	53.4770
 1.2680	53.4830
 1.2690	53.4890
 1.2700	53.4910
 1.2710	53.4900
 1.2720	53.4890
 1.2730	53.4880
 1.2740	53.4850
 1.2750	53.4800
 1.2760	53.4770
 1.2770	53.4670
 1.2780	53.4510
 1.2790	53.4330
 1.2800	53.4110
 1.2810	53.3880
 1.2820	53.3630
 1.2830	53.3360
 1.2840	53.3080
 1.2850	53.2770
 1.2860	53.2420
 1.2870	53.2030
 1.2880	53.1610
 1.2890	53.1130
 1.2900	53.0610
 1.2910	53.0080
 1.2920	52.9510
 1.2930	52.8910
 1.2940	52.8280
 1.2950	52.7590
 1.2960	52.6830
 1.2970	52.6050
 1.2980	52.5210
 1.2990	52.4320
 1.3000	52.3400
 1.3010	52.2450
 1.3020	52.1440
 1.3030	52.0370
 1.3040	51.9260
 1.3050	51.8100
 1.3060	51.6880
 1.3070	51.5650
 1.3080	51.4360
 1.3090	51.3010
 1.3100	51.1630
 1.3110	51.0180
 1.3120	50.8670
 1.3130	50.7130
 1.3140	50.5540
 1.3150	50.3910
 1.3160	50.2220
 1.3170	50.0490
 1.3180	49.8690
 1.3190	49.6850
 1.3200	49.4950
 1.3210	49.3010
 1.3220	49.1040
 1.3230	48.9000
 1.3240	48.6940
 1.3250	48.4880
 1.3260	48.2770
 1.3270	48.0640
 1.3280	47.8520
 1.3290	47.6320
 1.3300	47.4120
 1.3310	47.1920
 1.3320	46.9690
 1.3330	46.7500
 1.3340	46.5310
 1.3350	46.3080
 1.3360	46.0890
 1.3370	45.8680
 1.3380	45.6470
 1.3390	45.4300
 1.3400	45.2120
 1.3410	44.9990
 1.3420	44.7890
 1.3430	44.5820
 1.3440	44.3790
 1.3450	44.1770
 1.3460	43.9770
 1.3470	43.7830
 1.3480	43.5900
 1.3490	43.4030
 1.3500	43.2230
 1.3510	43.0420
 1.3520	42.8600
 1.3530	42.6820
 1.3540	42.5030
 1.3550	42.3220
 1.3560	42.1440
 1.3570	41.9650
 1.3580	41.7830
 1.3590	41.6010
 1.3600	41.4150
 1.3610	41.2250
 1.3620	41.0300
 1.3630	40.8300
 1.3640	40.6250
 1.3650	40.4110
 1.3660	40.1920
 1.3670	39.9630
 1.3680	39.7230
 1.3690	39.4720
 1.3700	39.2070
 1.3710	38.9290
 1.3720	38.6370
 1.3730	38.3240
 1.3740	37.9970
 1.3750	37.6500
 1.3760	37.2830
 1.3770	36.8970
 1.3780	36.4830
 1.3790	36.0490
 1.3800	35.5920
 1.3810	35.1100
 1.3820	34.6150
 1.3830	34.1040
 1.3840	33.5740
 1.3850	33.0270
 1.3860	32.4710
 1.3870	31.8930
 1.3880	31.3180
 1.3890	30.7360
 1.3900	30.1490
 1.3910	29.5660
 1.3920	28.9820
 1.3930	28.3980
 1.3940	27.8200
 1.3950	27.2430
 1.3960	26.6770
 1.3970	26.1250
 1.3980	25.5830
 1.3990	25.0630
 1.4000	24.5570
 1.4010	24.0640
 1.4020	23.5950
 1.4030	23.1390
 1.4040	22.7040
 1.4050	22.2910
 1.4060	21.8940
 1.4070	21.5210
 1.4080	21.1670
 1.4090	20.8290
 1.4100	20.5130
 1.4110	20.2130
 1.4120	19.9320
 1.4130	19.6690
 1.4140	19.4210
 1.4150	19.1930
 1.4160	18.9790
 1.4170	18.7770
 1.4180	18.5910
 1.4190	18.4130
 1.4200	18.2470
 1.4210	18.0930
 1.4220	17.9490
 1.4230	17.8170
 1.4240	17.6950
 1.4250	17.5820
 1.4260	17.4780
 1.4270	17.3810
 1.4280	17.2920
 1.4290	17.2100
 1.4300	17.1350
 1.4310	17.0650
 1.4320	17.0030
 1.4330	16.9460
 1.4340	16.8960
 1.4350	16.8500
 1.4360	16.8100
 1.4370	16.7750
 1.4380	16.7440
 1.4390	16.7170
 1.4400	16.6960
 1.4410	16.6780
 1.4420	16.6640
 1.4430	16.6530
 1.4440	16.6450
 1.4450	16.6390
 1.4460	16.6370
 1.4470	16.6370
 1.4480	16.6380
 1.4490	16.6430
 1.4500	16.6480
 1.4510	16.6560
 1.4520	16.6660
 1.4530	16.6770
 1.4540	16.6910
 1.4550	16.7070
 1.4560	16.7250
 1.4570	16.7450
 1.4580	16.7690
 1.4590	16.7970
 1.4600	16.8280
 1.4610	16.8620
 1.4620	16.9000
 1.4630	16.9430
 1.4640	16.9880
 1.4650	17.0380
 1.4660	17.0930
 1.4670	17.1510
 1.4680	17.2140
 1.4690	17.2820
