Name: Adenostoma fasciculatum 3
Type: vegetation
Class: Shrub
Genus: Adenostoma
Species: fasciculatum
Sample No.: VH116
Owner: UCSB
Wavelength Range: VSWIR
Origin: 34.5084; -119.7686; WGS84
Collection Date: 6/3/2013
Description: Samples were collected as part of the HyspIRI Airborne Campaign. 48 individual plants were sampled in three times in 2013 - spring  summer  and fall. The name of the sample includes a 1  2  or 3 which references a different individual of the species. Samples were taken to JPL and processed within 48 hours of collection. The same leaves were processed in the Nicolet and then measured using the ASD.
Measurement: Bidirectional reflectance
First Column: X
Second Column: Y
X Units: Wavelength (micrometers)
Y Units: Reflectance (percentage)
First X Value: 0.35
Last X Value: 2.5
Number of X Values: 2151
Additional Information: vegetation.shrub.adenostoma.fasciculatum.vswir.vh116.ucsb.asd.ancillary.txt

 0.3500	 2.2730
 0.3510	 2.0500
 0.3520	 2.0020
 0.3530	 2.0430
 0.3540	 2.0350
 0.3550	 2.0170
 0.3560	 1.9580
 0.3570	 1.8740
 0.3580	 1.8210
 0.3590	 1.9450
 0.3600	 2.0900
 0.3610	 2.1490
 0.3620	 2.1180
 0.3630	 2.0540
 0.3640	 1.9940
 0.3650	 1.9690
 0.3660	 2.0420
 0.3670	 2.0610
 0.3680	 2.0420
 0.3690	 2.1050
 0.3700	 2.0780
 0.3710	 2.0150
 0.3720	 1.9840
 0.3730	 2.0100
 0.3740	 2.0530
 0.3750	 2.0270
 0.3760	 1.8970
 0.3770	 1.8770
 0.3780	 1.9230
 0.3790	 1.9840
 0.3800	 2.0180
 0.3810	 2.0260
 0.3820	 2.0530
 0.3830	 2.1010
 0.3840	 2.0720
 0.3850	 2.0120
 0.3860	 1.9940
 0.3870	 2.0620
 0.3880	 2.0330
 0.3890	 2.0160
 0.3900	 2.0370
 0.3910	 2.0170
 0.3920	 1.9930
 0.3930	 2.0130
 0.3940	 2.0760
 0.3950	 2.0720
 0.3960	 2.0580
 0.3970	 2.0570
 0.3980	 2.0690
 0.3990	 2.0880
 0.4000	 2.0960
 0.4010	 2.0980
 0.4020	 2.1330
 0.4030	 2.1530
 0.4040	 2.1480
 0.4050	 2.1330
 0.4060	 2.1630
 0.4070	 2.1760
 0.4080	 2.1820
 0.4090	 2.2300
 0.4100	 2.2360
 0.4110	 2.2280
 0.4120	 2.2380
 0.4130	 2.2680
 0.4140	 2.2910
 0.4150	 2.3100
 0.4160	 2.3380
 0.4170	 2.3870
 0.4180	 2.4210
 0.4190	 2.4310
 0.4200	 2.4400
 0.4210	 2.4660
 0.4220	 2.4940
 0.4230	 2.5170
 0.4240	 2.5590
 0.4250	 2.5780
 0.4260	 2.5810
 0.4270	 2.5980
 0.4280	 2.6270
 0.4290	 2.6560
 0.4300	 2.6760
 0.4310	 2.6760
 0.4320	 2.7080
 0.4330	 2.7470
 0.4340	 2.7610
 0.4350	 2.7700
 0.4360	 2.7830
 0.4370	 2.8010
 0.4380	 2.8180
 0.4390	 2.8480
 0.4400	 2.8740
 0.4410	 2.8840
 0.4420	 2.9050
 0.4430	 2.9290
 0.4440	 2.9450
 0.4450	 2.9480
 0.4460	 2.9750
 0.4470	 3.0070
 0.4480	 3.0320
 0.4490	 3.0510
 0.4500	 3.0740
 0.4510	 3.0950
 0.4520	 3.1100
 0.4530	 3.1430
 0.4540	 3.1690
 0.4550	 3.1790
 0.4560	 3.1780
 0.4570	 3.2060
 0.4580	 3.2360
 0.4590	 3.2490
 0.4600	 3.2510
 0.4610	 3.2640
 0.4620	 3.2840
 0.4630	 3.2980
 0.4640	 3.3060
 0.4650	 3.3160
 0.4660	 3.3310
 0.4670	 3.3470
 0.4680	 3.3650
 0.4690	 3.3750
 0.4700	 3.3760
 0.4710	 3.3960
 0.4720	 3.4100
 0.4730	 3.4160
 0.4740	 3.4210
 0.4750	 3.4280
 0.4760	 3.4420
 0.4770	 3.4620
 0.4780	 3.4750
 0.4790	 3.4830
 0.4800	 3.4970
 0.4810	 3.5230
 0.4820	 3.5270
 0.4830	 3.5240
 0.4840	 3.5280
 0.4850	 3.5490
 0.4860	 3.5720
 0.4870	 3.5900
 0.4880	 3.6050
 0.4890	 3.6240
 0.4900	 3.6420
 0.4910	 3.6600
 0.4920	 3.6840
 0.4930	 3.7110
 0.4940	 3.7430
 0.4950	 3.7790
 0.4960	 3.8160
 0.4970	 3.8530
 0.4980	 3.8930
 0.4990	 3.9400
 0.5000	 3.9910
 0.5010	 4.0400
 0.5020	 4.0940
 0.5030	 4.1640
 0.5040	 4.2330
 0.5050	 4.3050
 0.5060	 4.3870
 0.5070	 4.4770
 0.5080	 4.5680
 0.5090	 4.6620
 0.5100	 4.7680
 0.5110	 4.8880
 0.5120	 5.0180
 0.5130	 5.1540
 0.5140	 5.3020
 0.5150	 5.4560
 0.5160	 5.6130
 0.5170	 5.7730
 0.5180	 5.9520
 0.5190	 6.1410
 0.5200	 6.3300
 0.5210	 6.5130
 0.5220	 6.7030
 0.5230	 6.8950
 0.5240	 7.0810
 0.5250	 7.2590
 0.5260	 7.4320
 0.5270	 7.6010
 0.5280	 7.7620
 0.5290	 7.9120
 0.5300	 8.0560
 0.5310	 8.1940
 0.5320	 8.3180
 0.5330	 8.4320
 0.5340	 8.5400
 0.5350	 8.6450
 0.5360	 8.7390
 0.5370	 8.8230
 0.5380	 8.9010
 0.5390	 8.9730
 0.5400	 9.0520
 0.5410	 9.1350
 0.5420	 9.2140
 0.5430	 9.2810
 0.5440	 9.3510
 0.5450	 9.4180
 0.5460	 9.4740
 0.5470	 9.5190
 0.5480	 9.5600
 0.5490	 9.6020
 0.5500	 9.6460
 0.5510	 9.6840
 0.5520	 9.7110
 0.5530	 9.7270
 0.5540	 9.7320
 0.5550	 9.7280
 0.5560	 9.7130
 0.5570	 9.6840
 0.5580	 9.6420
 0.5590	 9.5930
 0.5600	 9.5370
 0.5610	 9.4800
 0.5620	 9.4110
 0.5630	 9.3340
 0.5640	 9.2570
 0.5650	 9.1750
 0.5660	 9.0860
 0.5670	 8.9890
 0.5680	 8.8870
 0.5690	 8.7830
 0.5700	 8.6750
 0.5710	 8.5640
 0.5720	 8.4540
 0.5730	 8.3500
 0.5740	 8.2530
 0.5750	 8.1570
 0.5760	 8.0680
 0.5770	 7.9830
 0.5780	 7.9000
 0.5790	 7.8220
 0.5800	 7.7510
 0.5810	 7.6880
 0.5820	 7.6320
 0.5830	 7.5830
 0.5840	 7.5350
 0.5850	 7.4870
 0.5860	 7.4430
 0.5870	 7.4010
 0.5880	 7.3590
 0.5890	 7.3200
 0.5900	 7.2910
 0.5910	 7.2690
 0.5920	 7.2500
 0.5930	 7.2310
 0.5940	 7.2150
 0.5950	 7.2020
 0.5960	 7.1910
 0.5970	 7.1780
 0.5980	 7.1640
 0.5990	 7.1480
 0.6000	 7.1280
 0.6010	 7.1060
 0.6020	 7.0810
 0.6030	 7.0520
 0.6040	 7.0160
 0.6050	 6.9730
 0.6060	 6.9270
 0.6070	 6.8810
 0.6080	 6.8220
 0.6090	 6.7660
 0.6100	 6.7160
 0.6110	 6.6710
 0.6120	 6.6090
 0.6130	 6.5400
 0.6140	 6.4750
 0.6150	 6.4140
 0.6160	 6.3590
 0.6170	 6.3090
 0.6180	 6.2620
 0.6190	 6.2220
 0.6200	 6.1860
 0.6210	 6.1540
 0.6220	 6.1280
 0.6230	 6.1050
 0.6240	 6.0870
 0.6250	 6.0760
 0.6260	 6.0670
 0.6270	 6.0580
 0.6280	 6.0530
 0.6290	 6.0540
 0.6300	 6.0520
 0.6310	 6.0500
 0.6320	 6.0470
 0.6330	 6.0420
 0.6340	 6.0300
 0.6350	 6.0110
 0.6360	 5.9860
 0.6370	 5.9550
 0.6380	 5.9180
 0.6390	 5.8760
 0.6400	 5.8290
 0.6410	 5.7820
 0.6420	 5.7280
 0.6430	 5.6690
 0.6440	 5.6100
 0.6450	 5.5460
 0.6460	 5.4790
 0.6470	 5.4150
 0.6480	 5.3590
 0.6490	 5.3060
 0.6500	 5.2570
 0.6510	 5.2140
 0.6520	 5.1750
 0.6530	 5.1350
 0.6540	 5.0930
 0.6550	 5.0530
 0.6560	 5.0070
 0.6570	 4.9540
 0.6580	 4.8980
 0.6590	 4.8380
 0.6600	 4.7750
 0.6610	 4.7120
 0.6620	 4.6480
 0.6630	 4.5890
 0.6640	 4.5340
 0.6650	 4.4820
 0.6660	 4.4350
 0.6670	 4.3960
 0.6680	 4.3640
 0.6690	 4.3380
 0.6700	 4.3130
 0.6710	 4.2950
 0.6720	 4.2860
 0.6730	 4.2820
 0.6740	 4.2790
 0.6750	 4.2780
 0.6760	 4.2840
 0.6770	 4.2970
 0.6780	 4.3140
 0.6790	 4.3330
 0.6800	 4.3550
 0.6810	 4.3930
 0.6820	 4.4410
 0.6830	 4.4990
 0.6840	 4.5740
 0.6850	 4.6660
 0.6860	 4.7800
 0.6870	 4.9220
 0.6880	 5.0920
 0.6890	 5.2970
 0.6900	 5.5420
 0.6910	 5.8300
 0.6920	 6.1650
 0.6930	 6.5510
 0.6940	 6.9880
 0.6950	 7.4800
 0.6960	 8.0190
 0.6970	 8.6030
 0.6980	 9.2340
 0.6990	 9.9060
 0.7000	10.6170
 0.7010	11.3620
 0.7020	12.1330
 0.7030	12.9220
 0.7040	13.7260
 0.7050	14.5440
 0.7060	15.3760
 0.7070	16.2150
 0.7080	17.0590
 0.7090	17.9080
 0.7100	18.7640
 0.7110	19.6260
 0.7120	20.4950
 0.7130	21.3750
 0.7140	22.2540
 0.7150	23.1330
 0.7160	24.0170
 0.7170	24.9080
 0.7180	25.7980
 0.7190	26.6830
 0.7200	27.5640
 0.7210	28.4450
 0.7220	29.3210
 0.7230	30.1890
 0.7240	31.0400
 0.7250	31.8770
 0.7260	32.6970
 0.7270	33.4960
 0.7280	34.2740
 0.7290	35.0310
 0.7300	35.7640
 0.7310	36.4690
 0.7320	37.1530
 0.7330	37.8120
 0.7340	38.4440
 0.7350	39.0460
 0.7360	39.6240
 0.7370	40.1780
 0.7380	40.7050
 0.7390	41.2090
 0.7400	41.6890
 0.7410	42.1460
 0.7420	42.5800
 0.7430	42.9910
 0.7440	43.3810
 0.7450	43.7490
 0.7460	44.0970
 0.7470	44.4240
 0.7480	44.7320
 0.7490	45.0220
 0.7500	45.2940
 0.7510	45.5510
 0.7520	45.7900
 0.7530	46.0120
 0.7540	46.2220
 0.7550	46.4210
 0.7560	46.6070
 0.7570	46.7760
 0.7580	46.9400
 0.7590	47.0960
 0.7600	47.2390
 0.7610	47.3780
 0.7620	47.5060
 0.7630	47.6260
 0.7640	47.7410
 0.7650	47.8540
 0.7660	47.9610
 0.7670	48.0610
 0.7680	48.1610
 0.7690	48.2560
 0.7700	48.3450
 0.7710	48.4310
 0.7720	48.5140
 0.7730	48.5970
 0.7740	48.6780
 0.7750	48.7550
 0.7760	48.8320
 0.7770	48.9040
 0.7780	48.9730
 0.7790	49.0470
 0.7800	49.1150
 0.7810	49.1830
 0.7820	49.2510
 0.7830	49.3150
 0.7840	49.3750
 0.7850	49.4360
 0.7860	49.5010
 0.7870	49.5670
 0.7880	49.6270
 0.7890	49.6840
 0.7900	49.7420
 0.7910	49.8020
 0.7920	49.8580
 0.7930	49.9100
 0.7940	49.9610
 0.7950	50.0160
 0.7960	50.0720
 0.7970	50.1270
 0.7980	50.1770
 0.7990	50.2250
 0.8000	50.2750
 0.8010	50.3280
 0.8020	50.3710
 0.8030	50.4180
 0.8040	50.4660
 0.8050	50.5110
 0.8060	50.5520
 0.8070	50.5950
 0.8080	50.6390
 0.8090	50.6750
 0.8100	50.7160
 0.8110	50.7600
 0.8120	50.8020
 0.8130	50.8370
 0.8140	50.8750
 0.8150	50.9150
 0.8160	50.9530
 0.8170	50.9920
 0.8180	51.0260
 0.8190	51.0590
 0.8200	51.0950
 0.8210	51.1350
 0.8220	51.1710
 0.8230	51.2030
 0.8240	51.2320
 0.8250	51.2580
 0.8260	51.2870
 0.8270	51.3170
 0.8280	51.3430
 0.8290	51.3680
 0.8300	51.3950
 0.8310	51.4230
 0.8320	51.4480
 0.8330	51.4720
 0.8340	51.4970
 0.8350	51.5250
 0.8360	51.5530
 0.8370	51.5870
 0.8380	51.6230
 0.8390	51.6540
 0.8400	51.6870
 0.8410	51.7240
 0.8420	51.7630
 0.8430	51.8020
 0.8440	51.8380
 0.8450	51.8730
 0.8460	51.9100
 0.8470	51.9500
 0.8480	51.9830
 0.8490	52.0140
 0.8500	52.0520
 0.8510	52.0950
 0.8520	52.1340
 0.8530	52.1690
 0.8540	52.2020
 0.8550	52.2380
 0.8560	52.2730
 0.8570	52.3070
 0.8580	52.3450
 0.8590	52.3750
 0.8600	52.4080
 0.8610	52.4460
 0.8620	52.4760
 0.8630	52.5070
 0.8640	52.5370
 0.8650	52.5680
 0.8660	52.6090
 0.8670	52.6390
 0.8680	52.6650
 0.8690	52.7020
 0.8700	52.7370
 0.8710	52.7720
 0.8720	52.8030
 0.8730	52.8300
 0.8740	52.8600
 0.8750	52.8960
 0.8760	52.9330
 0.8770	52.9630
 0.8780	52.9890
 0.8790	53.0160
 0.8800	53.0440
 0.8810	53.0690
 0.8820	53.0970
 0.8830	53.1230
 0.8840	53.1460
 0.8850	53.1660
 0.8860	53.1930
 0.8870	53.2160
 0.8880	53.2260
 0.8890	53.2450
 0.8900	53.2610
 0.8910	53.2760
 0.8920	53.2980
 0.8930	53.3160
 0.8940	53.3340
 0.8950	53.3490
 0.8960	53.3620
 0.8970	53.3790
 0.8980	53.3990
 0.8990	53.4120
 0.9000	53.4150
 0.9010	53.4320
 0.9020	53.4440
 0.9030	53.4500
 0.9040	53.4720
 0.9050	53.4930
 0.9060	53.5060
 0.9070	53.5130
 0.9080	53.5170
 0.9090	53.5250
 0.9100	53.5340
 0.9110	53.5400
 0.9120	53.5520
 0.9130	53.5590
 0.9140	53.5680
 0.9150	53.5840
 0.9160	53.5830
 0.9170	53.5880
 0.9180	53.6000
 0.9190	53.6040
 0.9200	53.5970
 0.9210	53.5920
 0.9220	53.5900
 0.9230	53.5840
 0.9240	53.5800
 0.9250	53.5650
 0.9260	53.5420
 0.9270	53.5290
 0.9280	53.5080
 0.9290	53.4750
 0.9300	53.4390
 0.9310	53.4140
 0.9320	53.3780
 0.9330	53.3380
 0.9340	53.2970
 0.9350	53.2410
 0.9360	53.2030
 0.9370	53.1680
 0.9380	53.1180
 0.9390	53.0500
 0.9400	52.9960
 0.9410	52.9400
 0.9420	52.8690
 0.9430	52.7920
 0.9440	52.7120
 0.9450	52.6180
 0.9460	52.5100
 0.9470	52.4200
 0.9480	52.3120
 0.9490	52.1830
 0.9500	52.0430
 0.9510	51.8940
 0.9520	51.7420
 0.9530	51.5870
 0.9540	51.4290
 0.9550	51.2750
 0.9560	51.1220
 0.9570	50.9610
 0.9580	50.7940
 0.9590	50.6530
 0.9600	50.5350
 0.9610	50.4260
 0.9620	50.3160
 0.9630	50.2290
 0.9640	50.1440
 0.9650	50.0650
 0.9660	50.0010
 0.9670	49.9430
 0.9680	49.9020
 0.9690	49.8680
 0.9700	49.8250
 0.9710	49.7870
 0.9720	49.7720
 0.9730	49.7540
 0.9740	49.7030
 0.9750	49.6880
 0.9760	49.6870
 0.9770	49.6920
 0.9780	49.6980
 0.9790	49.7080
 0.9800	49.7170
 0.9810	49.7270
 0.9820	49.7460
 0.9830	49.7700
 0.9840	49.8040
 0.9850	49.8390
 0.9860	49.8730
 0.9870	49.9330
 0.9880	49.9750
 0.9890	50.0090
 0.9900	50.0670
 0.9910	50.1170
 0.9920	50.2080
 0.9930	50.3000
 0.9940	50.3920
 0.9950	50.4830
 0.9960	50.5750
 0.9970	50.6670
 0.9980	50.7580
 0.9990	50.8500
 1.0000	50.9410
 1.0010	51.0330
 1.0020	51.1250
 1.0030	51.2160
 1.0040	51.3080
 1.0050	51.3990
 1.0060	51.4910
 1.0070	51.5830
 1.0080	51.6740
 1.0090	51.7660
 1.0100	51.7660
 1.0110	51.8450
 1.0120	51.9260
 1.0130	52.0100
 1.0140	52.0920
 1.0150	52.1750
 1.0160	52.2520
 1.0170	52.3310
 1.0180	52.4080
 1.0190	52.4890
 1.0200	52.5700
 1.0210	52.6440
 1.0220	52.7160
 1.0230	52.7920
 1.0240	52.8680
 1.0250	52.9450
 1.0260	53.0290
 1.0270	53.1050
 1.0280	53.1760
 1.0290	53.2480
 1.0300	53.3180
 1.0310	53.3870
 1.0320	53.4550
 1.0330	53.5200
 1.0340	53.5850
 1.0350	53.6490
 1.0360	53.7110
 1.0370	53.7740
 1.0380	53.8340
 1.0390	53.8930
 1.0400	53.9500
 1.0410	54.0060
 1.0420	54.0610
 1.0430	54.1160
 1.0440	54.1670
 1.0450	54.2170
 1.0460	54.2650
 1.0470	54.3130
 1.0480	54.3580
 1.0490	54.4010
 1.0500	54.4460
 1.0510	54.4950
 1.0520	54.5380
 1.0530	54.5800
 1.0540	54.6220
 1.0550	54.6640
 1.0560	54.7030
 1.0570	54.7410
 1.0580	54.7800
 1.0590	54.8130
 1.0600	54.8400
 1.0610	54.8690
 1.0620	54.8970
 1.0630	54.9250
 1.0640	54.9530
 1.0650	54.9780
 1.0660	55.0010
 1.0670	55.0240
 1.0680	55.0450
 1.0690	55.0650
 1.0700	55.0840
 1.0710	55.1030
 1.0720	55.1200
 1.0730	55.1360
 1.0740	55.1480
 1.0750	55.1600
 1.0760	55.1680
 1.0770	55.1690
 1.0780	55.1750
 1.0790	55.1830
 1.0800	55.1870
 1.0810	55.1910
 1.0820	55.1940
 1.0830	55.1960
 1.0840	55.1930
 1.0850	55.1900
 1.0860	55.1830
 1.0870	55.1740
 1.0880	55.1620
 1.0890	55.1490
 1.0900	55.1370
 1.0910	55.1220
 1.0920	55.1080
 1.0930	55.0890
 1.0940	55.0690
 1.0950	55.0470
 1.0960	55.0190
 1.0970	54.9930
 1.0980	54.9690
 1.0990	54.9420
 1.1000	54.9140
 1.1010	54.8850
 1.1020	54.8510
 1.1030	54.8170
 1.1040	54.7850
 1.1050	54.7510
 1.1060	54.7120
 1.1070	54.6710
 1.1080	54.6280
 1.1090	54.5800
 1.1100	54.5320
 1.1110	54.4830
 1.1120	54.4300
 1.1130	54.3760
 1.1140	54.3120
 1.1150	54.2420
 1.1160	54.1710
 1.1170	54.0990
 1.1180	54.0150
 1.1190	53.9280
 1.1200	53.8320
 1.1210	53.7250
 1.1220	53.6060
 1.1230	53.4790
 1.1240	53.3430
 1.1250	53.1910
 1.1260	53.0270
 1.1270	52.8470
 1.1280	52.6520
 1.1290	52.4430
 1.1300	52.2200
 1.1310	51.9810
 1.1320	51.7310
 1.1330	51.4630
 1.1340	51.1800
 1.1350	50.8820
 1.1360	50.5690
 1.1370	50.2420
 1.1380	49.9060
 1.1390	49.5610
 1.1400	49.2060
 1.1410	48.8490
 1.1420	48.4890
 1.1430	48.1250
 1.1440	47.7650
 1.1450	47.4000
 1.1460	47.0490
 1.1470	46.6960
 1.1480	46.3630
 1.1490	46.0390
 1.1500	45.7350
 1.1510	45.4430
 1.1520	45.1720
 1.1530	44.9150
 1.1540	44.6800
 1.1550	44.4640
 1.1560	44.2660
 1.1570	44.0860
 1.1580	43.9280
 1.1590	43.7850
 1.1600	43.6540
 1.1610	43.5410
 1.1620	43.4380
 1.1630	43.3450
 1.1640	43.2620
 1.1650	43.1870
 1.1660	43.1210
 1.1670	43.0590
 1.1680	43.0060
 1.1690	42.9550
 1.1700	42.9100
 1.1710	42.8650
 1.1720	42.8240
 1.1730	42.7790
 1.1740	42.7330
 1.1750	42.6860
 1.1760	42.6410
 1.1770	42.5940
 1.1780	42.5460
 1.1790	42.4980
 1.1800	42.4470
 1.1810	42.3950
 1.1820	42.3420
 1.1830	42.2910
 1.1840	42.2410
 1.1850	42.1920
 1.1860	42.1460
 1.1870	42.1020
 1.1880	42.0600
 1.1890	42.0190
 1.1900	41.9830
 1.1910	41.9510
 1.1920	41.9240
 1.1930	41.9020
 1.1940	41.8810
 1.1950	41.8640
 1.1960	41.8490
 1.1970	41.8370
 1.1980	41.8310
 1.1990	41.8300
 1.2000	41.8330
 1.2010	41.8420
 1.2020	41.8560
 1.2030	41.8740
 1.2040	41.8980
 1.2050	41.9310
 1.2060	41.9680
 1.2070	42.0120
 1.2080	42.0600
 1.2090	42.1100
 1.2100	42.1640
 1.2110	42.2250
 1.2120	42.2920
 1.2130	42.3630
 1.2140	42.4410
 1.2150	42.5200
 1.2160	42.6020
 1.2170	42.6860
 1.2180	42.7720
 1.2190	42.8630
 1.2200	42.9550
 1.2210	43.0490
 1.2220	43.1420
 1.2230	43.2350
 1.2240	43.3270
 1.2250	43.4170
 1.2260	43.5050
 1.2270	43.5920
 1.2280	43.6770
 1.2290	43.7600
 1.2300	43.8400
 1.2310	43.9180
 1.2320	43.9930
 1.2330	44.0660
 1.2340	44.1370
 1.2350	44.2100
 1.2360	44.2780
 1.2370	44.3440
 1.2380	44.4080
 1.2390	44.4710
 1.2400	44.5290
 1.2410	44.5870
 1.2420	44.6430
 1.2430	44.6980
 1.2440	44.7520
 1.2450	44.8040
 1.2460	44.8560
 1.2470	44.9050
 1.2480	44.9510
 1.2490	44.9960
 1.2500	45.0390
 1.2510	45.0790
 1.2520	45.1190
 1.2530	45.1580
 1.2540	45.1940
 1.2550	45.2270
 1.2560	45.2580
 1.2570	45.2880
 1.2580	45.3130
 1.2590	45.3370
 1.2600	45.3570
 1.2610	45.3770
 1.2620	45.3940
 1.2630	45.4090
 1.2640	45.4220
 1.2650	45.4330
 1.2660	45.4410
 1.2670	45.4480
 1.2680	45.4550
 1.2690	45.4590
 1.2700	45.4560
 1.2710	45.4520
 1.2720	45.4440
 1.2730	45.4330
 1.2740	45.4230
 1.2750	45.4110
 1.2760	45.3950
 1.2770	45.3770
 1.2780	45.3560
 1.2790	45.3310
 1.2800	45.3020
 1.2810	45.2720
 1.2820	45.2400
 1.2830	45.2060
 1.2840	45.1680
 1.2850	45.1240
 1.2860	45.0770
 1.2870	45.0260
 1.2880	44.9690
 1.2890	44.9120
 1.2900	44.8510
 1.2910	44.7840
 1.2920	44.7140
 1.2930	44.6370
 1.2940	44.5560
 1.2950	44.4730
 1.2960	44.3830
 1.2970	44.2930
 1.2980	44.1960
 1.2990	44.0930
 1.3000	43.9890
 1.3010	43.8760
 1.3020	43.7590
 1.3030	43.6400
 1.3040	43.5130
 1.3050	43.3800
 1.3060	43.2440
 1.3070	43.0980
 1.3080	42.9500
 1.3090	42.7970
 1.3100	42.6350
 1.3110	42.4660
 1.3120	42.2920
 1.3130	42.1120
 1.3140	41.9260
 1.3150	41.7350
 1.3160	41.5400
 1.3170	41.3410
 1.3180	41.1370
 1.3190	40.9280
 1.3200	40.7130
 1.3210	40.4890
 1.3220	40.2600
 1.3230	40.0280
 1.3240	39.7920
 1.3250	39.5560
 1.3260	39.3150
 1.3270	39.0670
 1.3280	38.8200
 1.3290	38.5690
 1.3300	38.3160
 1.3310	38.0630
 1.3320	37.8070
 1.3330	37.5520
 1.3340	37.2960
 1.3350	37.0390
 1.3360	36.7840
 1.3370	36.5270
 1.3380	36.2750
 1.3390	36.0250
 1.3400	35.7770
 1.3410	35.5340
 1.3420	35.2940
 1.3430	35.0560
 1.3440	34.8230
 1.3450	34.5920
 1.3460	34.3630
 1.3470	34.1400
 1.3480	33.9190
 1.3490	33.7040
 1.3500	33.4930
 1.3510	33.2840
 1.3520	33.0770
 1.3530	32.8730
 1.3540	32.6690
 1.3550	32.4680
 1.3560	32.2670
 1.3570	32.0670
 1.3580	31.8670
 1.3590	31.6680
 1.3600	31.4670
 1.3610	31.2640
 1.3620	31.0550
 1.3630	30.8420
 1.3640	30.6240
 1.3650	30.4000
 1.3660	30.1730
 1.3670	29.9370
 1.3680	29.6890
 1.3690	29.4300
 1.3700	29.1560
 1.3710	28.8700
 1.3720	28.5730
 1.3730	28.2590
 1.3740	27.9320
 1.3750	27.5870
 1.3760	27.2200
 1.3770	26.8340
 1.3780	26.4240
 1.3790	25.9960
 1.3800	25.5490
 1.3810	25.0810
 1.3820	24.6030
 1.3830	24.1100
 1.3840	23.6070
 1.3850	23.0900
 1.3860	22.5700
 1.3870	22.0370
 1.3880	21.5090
 1.3890	20.9780
 1.3900	20.4460
 1.3910	19.9220
 1.3920	19.4000
 1.3930	18.8820
 1.3940	18.3750
 1.3950	17.8720
 1.3960	17.3830
 1.3970	16.9100
 1.3980	16.4480
 1.3990	16.0100
 1.4000	15.5890
 1.4010	15.1830
 1.4020	14.7990
 1.4030	14.4290
 1.4040	14.0780
 1.4050	13.7470
 1.4060	13.4340
 1.4070	13.1430
 1.4080	12.8690
 1.4090	12.6120
 1.4100	12.3740
 1.4110	12.1490
 1.4120	11.9410
 1.4130	11.7470
 1.4140	11.5660
 1.4150	11.4020
 1.4160	11.2500
 1.4170	11.1100
 1.4180	10.9810
 1.4190	10.8600
 1.4200	10.7480
 1.4210	10.6460
 1.4220	10.5530
 1.4230	10.4690
 1.4240	10.3920
 1.4250	10.3210
 1.4260	10.2580
 1.4270	10.1990
 1.4280	10.1470
 1.4290	10.0980
 1.4300	10.0550
 1.4310	10.0170
 1.4320	 9.9850
 1.4330	 9.9550
 1.4340	 9.9310
 1.4350	 9.9090
 1.4360	 9.8900
 1.4370	 9.8750
 1.4380	 9.8630
 1.4390	 9.8540
 1.4400	 9.8480
 1.4410	 9.8450
 1.4420	 9.8430
 1.4430	 9.8430
 1.4440	 9.8440
 1.4450	 9.8480
 1.4460	 9.8530
 1.4470	 9.8600
 1.4480	 9.8680
 1.4490	 9.8770
 1.4500	 9.8870
 1.4510	 9.8980
 1.4520	 9.9110
 1.4530	 9.9240
 1.4540	 9.9400
 1.4550	 9.9560
 1.4560	 9.9740
 1.4570	 9.9930
 1.4580	10.0140
 1.4590	10.0360
 1.4600	10.0630
 1.4610	10.0900
 1.4620	10.1200
 1.4630	10.1530
 1.4640	10.1880
 1.4650	10.2250
 1.4660	10.2670
 1.4670	10.3120
 1.4680	10.3600
 1.4690	10.4120
