Name: Caesalpinia cacalaco
Type: vegetation
Class: Tree
Genus: Caesalpinia
Species: cacalaco
Sample No.: JPL071
Owner: JPL
Wavelength Range: VSWIR
Origin: 34.12565; - 118.10968; WGS84
Collection Date: 2/2/2016
Description: Samples were collected at the Huntington Garden in San Marino California as part of a JPL Subcontract studying HyTES imagery. Samples were taken to JPL and processed within 48 hours of collection. The same leaves were processed in the Nicolet and then measured using the ASD.
Measurement: Bidirectional reflectance
First Column: X
Second Column: Y
X Units: Wavelength (micrometer)
Y Units: Reflectance (percentage)
First X Value: 0.35
Last X Value: 2.5
Number of X Values: 2151
Additional Information: 

 0.3500	 5.5410
 0.3510	 3.1910
 0.3520	 4.4390
 0.3530	 5.7490
 0.3540	 4.6110
 0.3550	 4.9530
 0.3560	 5.7730
 0.3570	 5.9570
 0.3580	 4.8210
 0.3590	 4.8310
 0.3600	 5.5670
 0.3610	 5.9860
 0.3620	 4.6840
 0.3630	 4.5400
 0.3640	 5.0080
 0.3650	 5.0270
 0.3660	 5.5240
 0.3670	 5.5250
 0.3680	 5.1930
 0.3690	 5.3720
 0.3700	 4.9720
 0.3710	 4.3520
 0.3720	 3.9330
 0.3730	 3.8470
 0.3740	 4.5050
 0.3750	 5.0290
 0.3760	 4.6040
 0.3770	 4.8120
 0.3780	 4.7320
 0.3790	 4.4320
 0.3800	 4.8380
 0.3810	 5.1670
 0.3820	 5.1160
 0.3830	 4.7150
 0.3840	 4.5780
 0.3850	 4.4640
 0.3860	 4.4400
 0.3870	 4.6210
 0.3880	 4.7960
 0.3890	 4.9140
 0.3900	 4.9700
 0.3910	 4.9930
 0.3920	 4.9270
 0.3930	 4.9180
 0.3940	 4.9700
 0.3950	 4.5670
 0.3960	 4.4520
 0.3970	 4.6380
 0.3980	 4.7800
 0.3990	 4.7550
 0.4000	 4.6400
 0.4010	 4.5520
 0.4020	 4.6110
 0.4030	 4.6290
 0.4040	 4.5810
 0.4050	 4.4850
 0.4060	 4.3390
 0.4070	 4.2330
 0.4080	 4.2690
 0.4090	 4.5180
 0.4100	 4.7420
 0.4110	 4.7520
 0.4120	 4.6250
 0.4130	 4.9000
 0.4140	 4.8380
 0.4150	 4.7520
 0.4160	 5.0810
 0.4170	 5.1660
 0.4180	 5.1870
 0.4190	 5.2010
 0.4200	 5.1280
 0.4210	 5.0700
 0.4220	 5.0940
 0.4230	 5.1960
 0.4240	 5.2280
 0.4250	 5.3090
 0.4260	 5.4360
 0.4270	 5.5340
 0.4280	 5.4300
 0.4290	 5.3870
 0.4300	 5.5130
 0.4310	 5.6630
 0.4320	 5.6510
 0.4330	 5.5660
 0.4340	 5.5400
 0.4350	 5.5430
 0.4360	 5.6040
 0.4370	 5.7250
 0.4380	 5.8700
 0.4390	 5.8130
 0.4400	 5.7690
 0.4410	 5.8760
 0.4420	 5.9560
 0.4430	 5.8950
 0.4440	 5.8230
 0.4450	 5.9150
 0.4460	 5.9060
 0.4470	 5.8790
 0.4480	 5.8980
 0.4490	 5.9730
 0.4500	 6.0230
 0.4510	 6.0030
 0.4520	 5.9330
 0.4530	 6.0170
 0.4540	 6.0590
 0.4550	 6.0250
 0.4560	 5.9860
 0.4570	 5.9140
 0.4580	 5.9310
 0.4590	 6.0610
 0.4600	 6.1190
 0.4610	 6.1390
 0.4620	 6.0770
 0.4630	 5.9350
 0.4640	 6.0000
 0.4650	 6.0710
 0.4660	 6.0400
 0.4670	 5.9330
 0.4680	 5.9990
 0.4690	 6.0520
 0.4700	 5.9550
 0.4710	 5.9790
 0.4720	 6.0180
 0.4730	 6.0420
 0.4740	 6.0530
 0.4750	 5.9700
 0.4760	 5.9460
 0.4770	 6.0240
 0.4780	 6.0410
 0.4790	 6.0280
 0.4800	 5.9970
 0.4810	 5.9650
 0.4820	 5.9520
 0.4830	 5.9570
 0.4840	 5.9750
 0.4850	 5.9920
 0.4860	 6.0140
 0.4870	 6.0110
 0.4880	 5.9810
 0.4890	 6.0020
 0.4900	 6.0000
 0.4910	 5.9920
 0.4920	 6.0310
 0.4930	 6.0950
 0.4940	 6.1210
 0.4950	 6.0950
 0.4960	 6.0750
 0.4970	 6.1080
 0.4980	 6.1590
 0.4990	 6.1850
 0.5000	 6.2350
 0.5010	 6.2620
 0.5020	 6.2850
 0.5030	 6.3700
 0.5040	 6.4160
 0.5050	 6.4700
 0.5060	 6.5610
 0.5070	 6.6260
 0.5080	 6.6600
 0.5090	 6.7390
 0.5100	 6.9370
 0.5110	 7.0530
 0.5120	 7.1740
 0.5130	 7.3370
 0.5140	 7.4800
 0.5150	 7.6110
 0.5160	 7.7800
 0.5170	 8.0160
 0.5180	 8.2320
 0.5190	 8.4340
 0.5200	 8.6400
 0.5210	 8.8770
 0.5220	 9.1140
 0.5230	 9.3550
 0.5240	 9.6010
 0.5250	 9.8330
 0.5260	10.0590
 0.5270	10.2890
 0.5280	10.5220
 0.5290	10.7230
 0.5300	10.8980
 0.5310	11.0560
 0.5320	11.2120
 0.5330	11.3550
 0.5340	11.4930
 0.5350	11.6270
 0.5360	11.7130
 0.5370	11.8230
 0.5380	11.9350
 0.5390	11.9700
 0.5400	12.0430
 0.5410	12.1570
 0.5420	12.2790
 0.5430	12.3560
 0.5440	12.4070
 0.5450	12.4310
 0.5460	12.4240
 0.5470	12.4070
 0.5480	12.4040
 0.5490	12.4160
 0.5500	12.4120
 0.5510	12.4040
 0.5520	12.3960
 0.5530	12.3860
 0.5540	12.3700
 0.5550	12.3270
 0.5560	12.2600
 0.5570	12.1850
 0.5580	12.1150
 0.5590	12.0210
 0.5600	11.8910
 0.5610	11.7630
 0.5620	11.6530
 0.5630	11.5390
 0.5640	11.3920
 0.5650	11.2540
 0.5660	11.1160
 0.5670	10.9650
 0.5680	10.7810
 0.5690	10.6380
 0.5700	10.4970
 0.5710	10.3230
 0.5720	10.1790
 0.5730	10.0320
 0.5740	 9.8900
 0.5750	 9.7790
 0.5760	 9.6550
 0.5770	 9.5360
 0.5780	 9.4320
 0.5790	 9.3360
 0.5800	 9.2630
 0.5810	 9.1930
 0.5820	 9.1040
 0.5830	 9.0360
 0.5840	 8.9780
 0.5850	 8.9240
 0.5860	 8.8700
 0.5870	 8.7860
 0.5880	 8.7110
 0.5890	 8.6730
 0.5900	 8.6210
 0.5910	 8.5760
 0.5920	 8.5310
 0.5930	 8.4730
 0.5940	 8.4510
 0.5950	 8.4290
 0.5960	 8.3910
 0.5970	 8.3770
 0.5980	 8.3420
 0.5990	 8.3090
 0.6000	 8.3000
 0.6010	 8.2550
 0.6020	 8.2080
 0.6030	 8.1730
 0.6040	 8.1420
 0.6050	 8.0860
 0.6060	 8.0320
 0.6070	 7.9940
 0.6080	 7.9180
 0.6090	 7.8600
 0.6100	 7.8300
 0.6110	 7.8090
 0.6120	 7.7580
 0.6130	 7.6570
 0.6140	 7.5250
 0.6150	 7.4350
 0.6160	 7.3790
 0.6170	 7.3310
 0.6180	 7.2720
 0.6190	 7.2210
 0.6200	 7.1760
 0.6210	 7.1400
 0.6220	 7.1190
 0.6230	 7.0760
 0.6240	 7.0180
 0.6250	 6.9660
 0.6260	 6.9640
 0.6270	 6.9580
 0.6280	 6.9440
 0.6290	 6.9370
 0.6300	 6.9540
 0.6310	 6.9640
 0.6320	 6.9510
 0.6330	 6.9180
 0.6340	 6.8990
 0.6350	 6.8740
 0.6360	 6.8250
 0.6370	 6.7920
 0.6380	 6.7560
 0.6390	 6.7060
 0.6400	 6.6370
 0.6410	 6.5750
 0.6420	 6.5160
 0.6430	 6.4530
 0.6440	 6.3840
 0.6450	 6.3320
 0.6460	 6.2910
 0.6470	 6.2510
 0.6480	 6.2150
 0.6490	 6.1700
 0.6500	 6.1250
 0.6510	 6.1060
 0.6520	 6.0900
 0.6530	 6.0680
 0.6540	 6.0400
 0.6550	 6.0260
 0.6560	 6.0200
 0.6570	 6.0000
 0.6580	 5.9500
 0.6590	 5.9110
 0.6600	 5.8830
 0.6610	 5.8620
 0.6620	 5.8350
 0.6630	 5.7940
 0.6640	 5.7630
 0.6650	 5.7520
 0.6660	 5.7190
 0.6670	 5.6920
 0.6680	 5.6830
 0.6690	 5.6970
 0.6700	 5.7160
 0.6710	 5.7200
 0.6720	 5.7180
 0.6730	 5.7510
 0.6740	 5.7740
 0.6750	 5.7910
 0.6760	 5.8200
 0.6770	 5.8670
 0.6780	 5.9250
 0.6790	 5.9840
 0.6800	 6.0340
 0.6810	 6.0630
 0.6820	 6.1130
 0.6830	 6.1970
 0.6840	 6.2650
 0.6850	 6.3450
 0.6860	 6.4290
 0.6870	 6.5120
 0.6880	 6.6110
 0.6890	 6.7410
 0.6900	 6.9140
 0.6910	 7.1340
 0.6920	 7.3930
 0.6930	 7.7240
 0.6940	 8.1490
 0.6950	 8.6530
 0.6960	 9.2170
 0.6970	 9.8450
 0.6980	10.5470
 0.6990	11.3520
 0.7000	12.1960
 0.7010	13.0710
 0.7020	14.0170
 0.7030	14.9920
 0.7040	15.9970
 0.7050	17.0290
 0.7060	18.0750
 0.7070	19.1300
 0.7080	20.1940
 0.7090	21.2730
 0.7100	22.3330
 0.7110	23.4200
 0.7120	24.5360
 0.7130	25.6450
 0.7140	26.7520
 0.7150	27.8560
 0.7160	28.9610
 0.7170	30.0820
 0.7180	31.1910
 0.7190	32.2750
 0.7200	33.3360
 0.7210	34.4110
 0.7220	35.4730
 0.7230	36.5030
 0.7240	37.4930
 0.7250	38.4630
 0.7260	39.4050
 0.7270	40.3140
 0.7280	41.2040
 0.7290	42.0490
 0.7300	42.8500
 0.7310	43.6100
 0.7320	44.3220
 0.7330	45.0080
 0.7340	45.6700
 0.7350	46.2880
 0.7360	46.8560
 0.7370	47.3890
 0.7380	47.8980
 0.7390	48.3680
 0.7400	48.7990
 0.7410	49.2010
 0.7420	49.5860
 0.7430	49.9480
 0.7440	50.2640
 0.7450	50.5390
 0.7460	50.8060
 0.7470	51.0440
 0.7480	51.2600
 0.7490	51.4600
 0.7500	51.6310
 0.7510	51.8030
 0.7520	51.9580
 0.7530	52.0730
 0.7540	52.1910
 0.7550	52.2980
 0.7560	52.3910
 0.7570	52.4810
 0.7580	52.5540
 0.7590	52.6290
 0.7600	52.7070
 0.7610	52.7580
 0.7620	52.8030
 0.7630	52.8440
 0.7640	52.8790
 0.7650	52.9180
 0.7660	52.9350
 0.7670	52.9370
 0.7680	52.9530
 0.7690	53.0060
 0.7700	53.0340
 0.7710	53.0230
 0.7720	53.0320
 0.7730	53.0510
 0.7740	53.0710
 0.7750	53.0810
 0.7760	53.0740
 0.7770	53.0790
 0.7780	53.0920
 0.7790	53.0980
 0.7800	53.1040
 0.7810	53.1240
 0.7820	53.1430
 0.7830	53.1200
 0.7840	53.1080
 0.7850	53.1120
 0.7860	53.1240
 0.7870	53.1260
 0.7880	53.1140
 0.7890	53.1020
 0.7900	53.1070
 0.7910	53.1100
 0.7920	53.1010
 0.7930	53.0870
 0.7940	53.0810
 0.7950	53.0900
 0.7960	53.0930
 0.7970	53.0820
 0.7980	53.0740
 0.7990	53.0530
 0.8000	53.0460
 0.8010	53.0630
 0.8020	53.0560
 0.8030	53.0360
 0.8040	53.0130
 0.8050	52.9970
 0.8060	52.9840
 0.8070	52.9710
 0.8080	52.9570
 0.8090	52.9480
 0.8100	52.9490
 0.8110	52.9440
 0.8120	52.9260
 0.8130	52.9000
 0.8140	52.9090
 0.8150	52.9170
 0.8160	52.8900
 0.8170	52.8790
 0.8180	52.8550
 0.8190	52.8300
 0.8200	52.8250
 0.8210	52.8300
 0.8220	52.8160
 0.8230	52.7860
 0.8240	52.7740
 0.8250	52.7720
 0.8260	52.7670
 0.8270	52.7610
 0.8280	52.7780
 0.8290	52.7790
 0.8300	52.7640
 0.8310	52.7460
 0.8320	52.7460
 0.8330	52.7300
 0.8340	52.7060
 0.8350	52.7000
 0.8360	52.7000
 0.8370	52.7170
 0.8380	52.7300
 0.8390	52.7110
 0.8400	52.7250
 0.8410	52.7420
 0.8420	52.7390
 0.8430	52.7240
 0.8440	52.7110
 0.8450	52.7390
 0.8460	52.8070
 0.8470	52.7830
 0.8480	52.7770
 0.8490	52.7940
 0.8500	52.8080
 0.8510	52.7950
 0.8520	52.8010
 0.8530	52.8160
 0.8540	52.8070
 0.8550	52.8080
 0.8560	52.8380
 0.8570	52.8830
 0.8580	52.9010
 0.8590	52.8920
 0.8600	52.8820
 0.8610	52.8910
 0.8620	52.9250
 0.8630	52.9610
 0.8640	53.0030
 0.8650	53.0420
 0.8660	53.0200
 0.8670	53.0050
 0.8680	53.0280
 0.8690	53.0810
 0.8700	53.0800
 0.8710	53.0800
 0.8720	53.0900
 0.8730	53.0900
 0.8740	53.0940
 0.8750	53.1330
 0.8760	53.1790
 0.8770	53.1640
 0.8780	53.1980
 0.8790	53.2440
 0.8800	53.2590
 0.8810	53.2280
 0.8820	53.2480
 0.8830	53.2890
 0.8840	53.3080
 0.8850	53.3030
 0.8860	53.2980
 0.8870	53.3110
 0.8880	53.3420
 0.8890	53.3440
 0.8900	53.3310
 0.8910	53.3290
 0.8920	53.3590
 0.8930	53.3830
 0.8940	53.3880
 0.8950	53.3860
 0.8960	53.4030
 0.8970	53.4400
 0.8980	53.4480
 0.8990	53.4390
 0.9000	53.4720
 0.9010	53.4830
 0.9020	53.4730
 0.9030	53.4640
 0.9040	53.4870
 0.9050	53.4890
 0.9060	53.4940
 0.9070	53.5170
 0.9080	53.5260
 0.9090	53.5220
 0.9100	53.5150
 0.9110	53.5140
 0.9120	53.5340
 0.9130	53.5140
 0.9140	53.4800
 0.9150	53.4780
 0.9160	53.5170
 0.9170	53.5130
 0.9180	53.4800
 0.9190	53.4730
 0.9200	53.5100
 0.9210	53.5090
 0.9220	53.4850
 0.9230	53.5000
 0.9240	53.5040
 0.9250	53.4890
 0.9260	53.4600
 0.9270	53.4330
 0.9280	53.4490
 0.9290	53.4140
 0.9300	53.3410
 0.9310	53.3460
 0.9320	53.3590
 0.9330	53.3480
 0.9340	53.3190
 0.9350	53.3080
 0.9360	53.3060
 0.9370	53.2700
 0.9380	53.2110
 0.9390	53.2190
 0.9400	53.1530
 0.9410	53.0930
 0.9420	53.1000
 0.9430	53.1230
 0.9440	53.0440
 0.9450	52.9700
 0.9460	52.9700
 0.9470	52.9190
 0.9480	52.8620
 0.9490	52.7840
 0.9500	52.7030
 0.9510	52.7480
 0.9520	52.6870
 0.9530	52.5700
 0.9540	52.4980
 0.9550	52.4600
 0.9560	52.4300
 0.9570	52.3590
 0.9580	52.2270
 0.9590	52.1170
 0.9600	52.1000
 0.9610	52.1200
 0.9620	52.0930
 0.9630	52.0570
 0.9640	52.0210
 0.9650	51.9770
 0.9660	51.9180
 0.9670	51.8750
 0.9680	51.8320
 0.9690	51.7920
 0.9700	51.7710
 0.9710	51.8090
 0.9720	51.7750
 0.9730	51.7450
 0.9740	51.8210
 0.9750	51.7690
 0.9760	51.7030
 0.9770	51.6880
 0.9780	51.7350
 0.9790	51.7830
 0.9800	51.7550
 0.9810	51.6550
 0.9820	51.5670
 0.9830	51.7170
 0.9840	51.7550
 0.9850	51.6870
 0.9860	51.6880
 0.9870	51.6910
 0.9880	51.7540
 0.9890	51.8160
 0.9900	51.7850
 0.9910	51.7090
 0.9920	51.7040
 0.9930	51.7330
 0.9940	51.7130
 0.9950	51.7390
 0.9960	51.8090
 0.9970	51.8830
 0.9980	51.9170
 0.9990	51.9560
 1.0000	51.9330
 1.0010	52.3860
 1.0020	52.4310
 1.0030	52.4730
 1.0040	52.5230
 1.0050	52.5840
 1.0060	52.5840
 1.0070	52.5520
 1.0080	52.5630
 1.0090	52.5830
 1.0100	52.5890
 1.0110	52.6090
 1.0120	52.6330
 1.0130	52.6340
 1.0140	52.6420
 1.0150	52.6550
 1.0160	52.7050
 1.0170	52.7170
 1.0180	52.7300
 1.0190	52.7640
 1.0200	52.7840
 1.0210	52.8240
 1.0220	52.8730
 1.0230	52.9180
 1.0240	52.9960
 1.0250	53.0120
 1.0260	52.9840
 1.0270	52.9810
 1.0280	52.9390
 1.0290	52.9350
 1.0300	52.9810
 1.0310	52.9960
 1.0320	53.0020
 1.0330	53.0120
 1.0340	52.9970
 1.0350	53.0050
 1.0360	53.0620
 1.0370	53.1190
 1.0380	53.1530
 1.0390	53.1920
 1.0400	53.2330
 1.0410	53.2720
 1.0420	53.2720
 1.0430	53.2490
 1.0440	53.2570
 1.0450	53.2340
 1.0460	53.2330
 1.0470	53.2840
 1.0480	53.3120
 1.0490	53.3190
 1.0500	53.3300
 1.0510	53.3420
 1.0520	53.3630
 1.0530	53.3770
 1.0540	53.3810
 1.0550	53.3940
 1.0560	53.4200
 1.0570	53.4310
 1.0580	53.4230
 1.0590	53.4420
 1.0600	53.4840
 1.0610	53.4930
 1.0620	53.5120
 1.0630	53.5110
 1.0640	53.4490
 1.0650	53.4350
 1.0660	53.4570
 1.0670	53.4610
 1.0680	53.4670
 1.0690	53.4910
 1.0700	53.4970
 1.0710	53.4750
 1.0720	53.4900
 1.0730	53.5250
 1.0740	53.5450
 1.0750	53.5770
 1.0760	53.5940
 1.0770	53.5990
 1.0780	53.6020
 1.0790	53.6030
 1.0800	53.5970
 1.0810	53.5730
 1.0820	53.5630
 1.0830	53.5660
 1.0840	53.5540
 1.0850	53.5310
 1.0860	53.5220
 1.0870	53.5130
 1.0880	53.5000
 1.0890	53.4870
 1.0900	53.4880
 1.0910	53.4750
 1.0920	53.4370
 1.0930	53.4290
 1.0940	53.4380
 1.0950	53.4360
 1.0960	53.4440
 1.0970	53.4440
 1.0980	53.4360
 1.0990	53.4230
 1.1000	53.4020
 1.1010	53.3870
 1.1020	53.3630
 1.1030	53.3450
 1.1040	53.3580
 1.1050	53.3590
 1.1060	53.3450
 1.1070	53.3270
 1.1080	53.3060
 1.1090	53.2630
 1.1100	53.2400
 1.1110	53.2350
 1.1120	53.2180
 1.1130	53.1910
 1.1140	53.1800
 1.1150	53.1800
 1.1160	53.1710
 1.1170	53.1740
 1.1180	53.1620
 1.1190	53.1360
 1.1200	53.0990
 1.1210	53.0750
 1.1220	53.0460
 1.1230	53.0070
 1.1240	52.9460
 1.1250	52.8900
 1.1260	52.8220
 1.1270	52.7610
 1.1280	52.7060
 1.1290	52.6450
 1.1300	52.5790
 1.1310	52.5100
 1.1320	52.4570
 1.1330	52.3750
 1.1340	52.2730
 1.1350	52.1740
 1.1360	52.0660
 1.1370	51.9420
 1.1380	51.8300
 1.1390	51.7100
 1.1400	51.5610
 1.1410	51.4150
 1.1420	51.2710
 1.1430	51.1360
 1.1440	51.0010
 1.1450	50.8830
 1.1460	50.7450
 1.1470	50.5820
 1.1480	50.4500
 1.1490	50.3240
 1.1500	50.2050
 1.1510	50.1110
 1.1520	50.0030
 1.1530	49.8840
 1.1540	49.7750
 1.1550	49.6610
 1.1560	49.5620
 1.1570	49.4860
 1.1580	49.4180
 1.1590	49.3490
 1.1600	49.2840
 1.1610	49.2240
 1.1620	49.1640
 1.1630	49.1110
 1.1640	49.0700
 1.1650	49.0290
 1.1660	48.9870
 1.1670	48.9480
 1.1680	48.9150
 1.1690	48.8840
 1.1700	48.8520
 1.1710	48.8220
 1.1720	48.7960
 1.1730	48.7740
 1.1740	48.7510
 1.1750	48.7320
 1.1760	48.7280
 1.1770	48.7060
 1.1780	48.6880
 1.1790	48.6820
 1.1800	48.6670
 1.1810	48.6590
 1.1820	48.6510
 1.1830	48.6190
 1.1840	48.5840
 1.1850	48.5570
 1.1860	48.5210
 1.1870	48.4800
 1.1880	48.4480
 1.1890	48.4190
 1.1900	48.3940
 1.1910	48.3690
 1.1920	48.3630
 1.1930	48.3680
 1.1940	48.3670
 1.1950	48.3820
 1.1960	48.3800
 1.1970	48.3580
 1.1980	48.3540
 1.1990	48.3440
 1.2000	48.3470
 1.2010	48.3650
 1.2020	48.3690
 1.2030	48.3750
 1.2040	48.3870
 1.2050	48.3940
 1.2060	48.4070
 1.2070	48.4260
 1.2080	48.4400
 1.2090	48.4500
 1.2100	48.4690
 1.2110	48.4900
 1.2120	48.5140
 1.2130	48.5360
 1.2140	48.5670
 1.2150	48.5900
 1.2160	48.6030
 1.2170	48.6300
 1.2180	48.6550
 1.2190	48.6710
 1.2200	48.6990
 1.2210	48.7170
 1.2220	48.7360
 1.2230	48.7630
 1.2240	48.7800
 1.2250	48.8110
 1.2260	48.8490
 1.2270	48.8870
 1.2280	48.9300
 1.2290	48.9680
 1.2300	48.9980
 1.2310	49.0220
 1.2320	49.0410
 1.2330	49.0560
 1.2340	49.0770
 1.2350	49.1020
 1.2360	49.1250
 1.2370	49.1500
 1.2380	49.1700
 1.2390	49.1880
 1.2400	49.1970
 1.2410	49.2120
 1.2420	49.2340
 1.2430	49.2560
 1.2440	49.2710
 1.2450	49.2840
 1.2460	49.3080
 1.2470	49.3340
 1.2480	49.3490
 1.2490	49.3700
 1.2500	49.3900
 1.2510	49.3870
 1.2520	49.3790
 1.2530	49.3780
 1.2540	49.3780
 1.2550	49.3880
 1.2560	49.4090
 1.2570	49.4170
 1.2580	49.4110
 1.2590	49.4130
 1.2600	49.4160
 1.2610	49.4160
 1.2620	49.4190
 1.2630	49.4190
 1.2640	49.4110
 1.2650	49.4020
 1.2660	49.4050
 1.2670	49.4080
 1.2680	49.4120
 1.2690	49.4140
 1.2700	49.4040
 1.2710	49.4050
 1.2720	49.4090
 1.2730	49.4050
 1.2740	49.4010
 1.2750	49.3950
 1.2760	49.3840
 1.2770	49.3630
 1.2780	49.3380
 1.2790	49.3150
 1.2800	49.2830
 1.2810	49.2470
 1.2820	49.2310
 1.2830	49.2130
 1.2840	49.1990
 1.2850	49.1970
 1.2860	49.1850
 1.2870	49.1640
 1.2880	49.1380
 1.2890	49.0990
 1.2900	49.0630
 1.2910	49.0310
 1.2920	48.9970
 1.2930	48.9610
 1.2940	48.9110
 1.2950	48.8640
 1.2960	48.8070
 1.2970	48.7490
 1.2980	48.6990
 1.2990	48.6280
 1.3000	48.5620
 1.3010	48.5070
 1.3020	48.4550
 1.3030	48.4000
 1.3040	48.3350
 1.3050	48.2760
 1.3060	48.2110
 1.3070	48.1360
 1.3080	48.0700
 1.3090	47.9860
 1.3100	47.8900
 1.3110	47.7980
 1.3120	47.6870
 1.3130	47.5830
 1.3140	47.4850
 1.3150	47.3880
 1.3160	47.2860
 1.3170	47.1930
 1.3180	47.0900
 1.3190	46.9730
 1.3200	46.8640
 1.3210	46.7580
 1.3220	46.6480
 1.3230	46.5360
 1.3240	46.4210
 1.3250	46.2990
 1.3260	46.1760
 1.3270	46.0560
 1.3280	45.9210
 1.3290	45.7710
 1.3300	45.6250
 1.3310	45.4780
 1.3320	45.3260
 1.3330	45.1820
 1.3340	45.0330
 1.3350	44.8790
 1.3360	44.7290
 1.3370	44.5800
 1.3380	44.4330
 1.3390	44.2820
 1.3400	44.1400
 1.3410	44.0050
 1.3420	43.8610
 1.3430	43.7210
 1.3440	43.5790
 1.3450	43.4330
 1.3460	43.2810
 1.3470	43.1390
 1.3480	42.9950
 1.3490	42.8560
 1.3500	42.7220
 1.3510	42.5880
 1.3520	42.4550
 1.3530	42.3200
 1.3540	42.1850
 1.3550	42.0520
 1.3560	41.9210
 1.3570	41.7900
 1.3580	41.6570
 1.3590	41.5180
 1.3600	41.3700
 1.3610	41.2240
 1.3620	41.0790
 1.3630	40.9250
 1.3640	40.7760
 1.3650	40.6160
 1.3660	40.4440
 1.3670	40.2670
 1.3680	40.0690
 1.3690	39.8550
 1.3700	39.6280
 1.3710	39.3840
 1.3720	39.1240
 1.3730	38.8560
 1.3740	38.5770
 1.3750	38.2760
 1.3760	37.9540
 1.3770	37.6030
 1.3780	37.2200
 1.3790	36.8170
 1.3800	36.3890
 1.3810	35.9320
 1.3820	35.4500
 1.3830	34.9420
 1.3840	34.4120
 1.3850	33.8540
 1.3860	33.2820
 1.3870	32.6830
 1.3880	32.0780
 1.3890	31.4570
 1.3900	30.8250
 1.3910	30.1910
 1.3920	29.5470
 1.3930	28.8940
 1.3940	28.2370
 1.3950	27.5750
 1.3960	26.9240
 1.3970	26.2850
 1.3980	25.6630
 1.3990	25.0600
 1.4000	24.4630
 1.4010	23.8820
 1.4020	23.3220
 1.4030	22.7780
 1.4040	22.2600
 1.4050	21.7680
 1.4060	21.2970
 1.4070	20.8520
 1.4080	20.4290
 1.4090	20.0300
 1.4100	19.6480
 1.4110	19.2830
 1.4120	18.9460
 1.4130	18.6270
 1.4140	18.3300
 1.4150	18.0620
 1.4160	17.8070
 1.4170	17.5670
 1.4180	17.3450
 1.4190	17.1360
 1.4200	16.9430
 1.4210	16.7660
 1.4220	16.6040
 1.4230	16.4490
 1.4240	16.3070
 1.4250	16.1760
 1.4260	16.0540
 1.4270	15.9420
 1.4280	15.8460
 1.4290	15.7500
 1.4300	15.6620
 1.4310	15.5820
 1.4320	15.5080
 1.4330	15.4410
 1.4340	15.3860
 1.4350	15.3340
 1.4360	15.2860
 1.4370	15.2430
 1.4380	15.2100
 1.4390	15.1800
 1.4400	15.1550
 1.4410	15.1370
 1.4420	15.1160
 1.4430	15.0970
 1.4440	15.0810
 1.4450	15.0670
 1.4460	15.0600
 1.4470	15.0590
 1.4480	15.0600
 1.4490	15.0640
 1.4500	15.0660
 1.4510	15.0640
 1.4520	15.0650
 1.4530	15.0710
 1.4540	15.0810
 1.4550	15.0990
 1.4560	15.1190
 1.4570	15.1410
 1.4580	15.1700
 1.4590	15.1980
 1.4600	15.2310
 1.4610	15.2700
 1.4620	15.3110
 1.4630	15.3640
 1.4640	15.4240
 1.4650	15.4810
 1.4660	15.5400
 1.4670	15.6020
 1.4680	15.6630
 1.4690	15.7320
 1.4700	15.8110
 1.4710	15.8990
 1.4720	15.9940
 1.4730	16.0920
 1.4740	16.1930
 1.4750	16.2910
 1.4760	16.3950
 1.4770	16.5050
 1.4780	16.6200
 1.4790	16.7380
 1.4800	16.8580
 1.4810	16.9750
