Name: Arctostaphylos glandulosa 2
Type: vegetation
Class: Shrub
Genus: Arctostaphylos
Species: glandulosa
Sample No.: VH037
Owner: UCSB
Wavelength Range: VSWIR
Origin: 34.5084; -119.7682; WGS84
Collection Date: 4/1/2013
Description: Samples were collected as part of the HyspIRI Airborne Campaign. 48 individual plants were sampled in three times in 2013 - spring  summer  and fall. The name of the sample includes a 1  2  or 3 which references a different individual of the species. Samples were taken to JPL and processed within 48 hours of collection. The same leaves were processed in the Nicolet and then measured using the ASD.
Measurement: Bidirectional reflectance
First Column: X
Second Column: Y
X Units: Wavelength (micrometers)
Y Units: Reflectance (percentage)
First X Value: 0.35
Last X Value: 2.5
Number of X Values: 2151
Additional Information: vegetation.shrub.arctostaphylos.glandulosa.vswir.vh037.ucsb.asd.ancillary.txt

 0.3500	 7.5840
 0.3510	 7.4490
 0.3520	 7.3390
 0.3530	 7.2190
 0.3540	 7.0970
 0.3550	 7.1420
 0.3560	 7.2240
 0.3570	 7.2880
 0.3580	 7.3190
 0.3590	 7.2750
 0.3600	 7.2760
 0.3610	 7.3310
 0.3620	 7.2750
 0.3630	 7.2710
 0.3640	 7.2620
 0.3650	 7.1880
 0.3660	 7.1630
 0.3670	 7.2630
 0.3680	 7.3420
 0.3690	 7.1550
 0.3700	 7.0760
 0.3710	 7.1000
 0.3720	 7.1530
 0.3730	 7.1390
 0.3740	 7.1460
 0.3750	 7.1250
 0.3760	 7.0380
 0.3770	 7.1030
 0.3780	 7.1110
 0.3790	 7.0400
 0.3800	 7.0400
 0.3810	 7.0600
 0.3820	 7.0730
 0.3830	 7.0730
 0.3840	 7.0910
 0.3850	 7.1170
 0.3860	 7.0820
 0.3870	 6.9550
 0.3880	 7.0230
 0.3890	 7.0710
 0.3900	 7.0400
 0.3910	 7.0580
 0.3920	 7.0320
 0.3930	 7.0100
 0.3940	 7.0300
 0.3950	 7.0150
 0.3960	 7.0120
 0.3970	 7.0220
 0.3980	 7.0230
 0.3990	 7.0070
 0.4000	 6.9620
 0.4010	 6.9130
 0.4020	 6.9310
 0.4030	 6.9640
 0.4040	 6.9830
 0.4050	 6.9760
 0.4060	 6.9480
 0.4070	 6.9320
 0.4080	 6.9430
 0.4090	 6.9800
 0.4100	 6.9770
 0.4110	 6.9650
 0.4120	 6.9600
 0.4130	 6.9350
 0.4140	 6.9480
 0.4150	 6.9670
 0.4160	 6.9520
 0.4170	 6.9670
 0.4180	 7.0030
 0.4190	 7.0370
 0.4200	 7.0390
 0.4210	 7.0470
 0.4220	 7.0770
 0.4230	 7.1200
 0.4240	 7.1220
 0.4250	 7.1510
 0.4260	 7.2030
 0.4270	 7.2430
 0.4280	 7.2840
 0.4290	 7.3370
 0.4300	 7.3940
 0.4310	 7.4260
 0.4320	 7.4880
 0.4330	 7.5500
 0.4340	 7.5810
 0.4350	 7.6290
 0.4360	 7.6840
 0.4370	 7.7400
 0.4380	 7.7960
 0.4390	 7.8580
 0.4400	 7.9180
 0.4410	 7.9760
 0.4420	 8.0540
 0.4430	 8.0990
 0.4440	 8.1280
 0.4450	 8.1780
 0.4460	 8.2370
 0.4470	 8.2920
 0.4480	 8.3420
 0.4490	 8.4000
 0.4500	 8.4430
 0.4510	 8.4840
 0.4520	 8.5310
 0.4530	 8.5620
 0.4540	 8.6010
 0.4550	 8.6430
 0.4560	 8.6650
 0.4570	 8.6780
 0.4580	 8.7000
 0.4590	 8.7320
 0.4600	 8.7390
 0.4610	 8.7570
 0.4620	 8.7810
 0.4630	 8.7990
 0.4640	 8.8190
 0.4650	 8.8210
 0.4660	 8.8130
 0.4670	 8.8280
 0.4680	 8.8380
 0.4690	 8.8470
 0.4700	 8.8610
 0.4710	 8.8730
 0.4720	 8.8730
 0.4730	 8.8730
 0.4740	 8.8890
 0.4750	 8.8970
 0.4760	 8.9010
 0.4770	 8.9060
 0.4780	 8.9070
 0.4790	 8.9120
 0.4800	 8.9200
 0.4810	 8.9310
 0.4820	 8.9400
 0.4830	 8.9450
 0.4840	 8.9470
 0.4850	 8.9500
 0.4860	 8.9600
 0.4870	 8.9750
 0.4880	 8.9900
 0.4890	 9.0020
 0.4900	 9.0170
 0.4910	 9.0390
 0.4920	 9.0680
 0.4930	 9.0910
 0.4940	 9.1190
 0.4950	 9.1560
 0.4960	 9.1890
 0.4970	 9.2240
 0.4980	 9.2660
 0.4990	 9.3180
 0.5000	 9.3740
 0.5010	 9.4290
 0.5020	 9.4880
 0.5030	 9.5600
 0.5040	 9.6410
 0.5050	 9.7230
 0.5060	 9.8050
 0.5070	 9.8990
 0.5080	10.0090
 0.5090	10.1310
 0.5100	10.2540
 0.5110	10.3910
 0.5120	10.5430
 0.5130	10.7060
 0.5140	10.8740
 0.5150	11.0500
 0.5160	11.2400
 0.5170	11.4510
 0.5180	11.6660
 0.5190	11.8940
 0.5200	12.1300
 0.5210	12.3600
 0.5220	12.5990
 0.5230	12.8420
 0.5240	13.0840
 0.5250	13.3220
 0.5260	13.5550
 0.5270	13.7800
 0.5280	13.9980
 0.5290	14.2010
 0.5300	14.3940
 0.5310	14.5790
 0.5320	14.7500
 0.5330	14.9070
 0.5340	15.0550
 0.5350	15.1920
 0.5360	15.3200
 0.5370	15.4330
 0.5380	15.5360
 0.5390	15.6380
 0.5400	15.7340
 0.5410	15.8240
 0.5420	15.9070
 0.5430	15.9910
 0.5440	16.0750
 0.5450	16.1530
 0.5460	16.2190
 0.5470	16.2800
 0.5480	16.3350
 0.5490	16.3840
 0.5500	16.4270
 0.5510	16.4610
 0.5520	16.4820
 0.5530	16.4880
 0.5540	16.4840
 0.5550	16.4630
 0.5560	16.4230
 0.5570	16.3690
 0.5580	16.3040
 0.5590	16.2280
 0.5600	16.1420
 0.5610	16.0410
 0.5620	15.9320
 0.5630	15.8160
 0.5640	15.6950
 0.5650	15.5670
 0.5660	15.4340
 0.5670	15.2950
 0.5680	15.1480
 0.5690	14.9960
 0.5700	14.8390
 0.5710	14.6820
 0.5720	14.5330
 0.5730	14.3840
 0.5740	14.2380
 0.5750	14.1040
 0.5760	13.9800
 0.5770	13.8660
 0.5780	13.7620
 0.5790	13.6600
 0.5800	13.5590
 0.5810	13.4610
 0.5820	13.3720
 0.5830	13.2970
 0.5840	13.2270
 0.5850	13.1570
 0.5860	13.0900
 0.5870	13.0290
 0.5880	12.9730
 0.5890	12.9220
 0.5900	12.8760
 0.5910	12.8320
 0.5920	12.7910
 0.5930	12.7570
 0.5940	12.7310
 0.5950	12.7080
 0.5960	12.6850
 0.5970	12.6620
 0.5980	12.6370
 0.5990	12.6110
 0.6000	12.5810
 0.6010	12.5440
 0.6020	12.4990
 0.6030	12.4490
 0.6040	12.3930
 0.6050	12.3280
 0.6060	12.2570
 0.6070	12.1810
 0.6080	12.0950
 0.6090	12.0080
 0.6100	11.9240
 0.6110	11.8400
 0.6120	11.7540
 0.6130	11.6680
 0.6140	11.5840
 0.6150	11.5030
 0.6160	11.4230
 0.6170	11.3490
 0.6180	11.2850
 0.6190	11.2240
 0.6200	11.1720
 0.6210	11.1280
 0.6220	11.0880
 0.6230	11.0520
 0.6240	11.0190
 0.6250	10.9910
 0.6260	10.9690
 0.6270	10.9470
 0.6280	10.9280
 0.6290	10.9170
 0.6300	10.9060
 0.6310	10.8950
 0.6320	10.8840
 0.6330	10.8700
 0.6340	10.8520
 0.6350	10.8290
 0.6360	10.8010
 0.6370	10.7690
 0.6380	10.7260
 0.6390	10.6730
 0.6400	10.6160
 0.6410	10.5580
 0.6420	10.4950
 0.6430	10.4230
 0.6440	10.3500
 0.6450	10.2740
 0.6460	10.1970
 0.6470	10.1240
 0.6480	10.0550
 0.6490	 9.9850
 0.6500	 9.9170
 0.6510	 9.8570
 0.6520	 9.8000
 0.6530	 9.7430
 0.6540	 9.6810
 0.6550	 9.6230
 0.6560	 9.5580
 0.6570	 9.4870
 0.6580	 9.4110
 0.6590	 9.3350
 0.6600	 9.2590
 0.6610	 9.1820
 0.6620	 9.1040
 0.6630	 9.0320
 0.6640	 8.9670
 0.6650	 8.9080
 0.6660	 8.8580
 0.6670	 8.8140
 0.6680	 8.7750
 0.6690	 8.7460
 0.6700	 8.7240
 0.6710	 8.7060
 0.6720	 8.6930
 0.6730	 8.6860
 0.6740	 8.6880
 0.6750	 8.6950
 0.6760	 8.7010
 0.6770	 8.7130
 0.6780	 8.7280
 0.6790	 8.7500
 0.6800	 8.7830
 0.6810	 8.8230
 0.6820	 8.8740
 0.6830	 8.9400
 0.6840	 9.0170
 0.6850	 9.1150
 0.6860	 9.2360
 0.6870	 9.3840
 0.6880	 9.5570
 0.6890	 9.7670
 0.6900	10.0190
 0.6910	10.3170
 0.6920	10.6660
 0.6930	11.0690
 0.6940	11.5280
 0.6950	12.0490
 0.6960	12.6320
 0.6970	13.2770
 0.6980	13.9780
 0.6990	14.7360
 0.7000	15.5450
 0.7010	16.3990
 0.7020	17.2910
 0.7030	18.2100
 0.7040	19.1510
 0.7050	20.1070
 0.7060	21.0700
 0.7070	22.0410
 0.7080	23.0090
 0.7090	23.9680
 0.7100	24.9250
 0.7110	25.8750
 0.7120	26.8140
 0.7130	27.7370
 0.7140	28.6390
 0.7150	29.5270
 0.7160	30.4020
 0.7170	31.2500
 0.7180	32.0760
 0.7190	32.8790
 0.7200	33.6550
 0.7210	34.4070
 0.7220	35.1310
 0.7230	35.8270
 0.7240	36.4960
 0.7250	37.1320
 0.7260	37.7380
 0.7270	38.3190
 0.7280	38.8630
 0.7290	39.3790
 0.7300	39.8670
 0.7310	40.3270
 0.7320	40.7590
 0.7330	41.1650
 0.7340	41.5460
 0.7350	41.9040
 0.7360	42.2400
 0.7370	42.5530
 0.7380	42.8430
 0.7390	43.1170
 0.7400	43.3720
 0.7410	43.6100
 0.7420	43.8340
 0.7430	44.0420
 0.7440	44.2350
 0.7450	44.4140
 0.7460	44.5750
 0.7470	44.7250
 0.7480	44.8640
 0.7490	44.9910
 0.7500	45.1100
 0.7510	45.2190
 0.7520	45.3200
 0.7530	45.4140
 0.7540	45.5020
 0.7550	45.5790
 0.7560	45.6470
 0.7570	45.7090
 0.7580	45.7710
 0.7590	45.8280
 0.7600	45.8760
 0.7610	45.9210
 0.7620	45.9660
 0.7630	46.0060
 0.7640	46.0360
 0.7650	46.0750
 0.7660	46.1090
 0.7670	46.1360
 0.7680	46.1620
 0.7690	46.1890
 0.7700	46.2170
 0.7710	46.2420
 0.7720	46.2600
 0.7730	46.2810
 0.7740	46.3030
 0.7750	46.3210
 0.7760	46.3390
 0.7770	46.3580
 0.7780	46.3770
 0.7790	46.3960
 0.7800	46.4090
 0.7810	46.4240
 0.7820	46.4410
 0.7830	46.4560
 0.7840	46.4730
 0.7850	46.4880
 0.7860	46.5000
 0.7870	46.5130
 0.7880	46.5250
 0.7890	46.5370
 0.7900	46.5490
 0.7910	46.5600
 0.7920	46.5700
 0.7930	46.5800
 0.7940	46.5880
 0.7950	46.5900
 0.7960	46.5960
 0.7970	46.6070
 0.7980	46.6140
 0.7990	46.6170
 0.8000	46.6210
 0.8010	46.6290
 0.8020	46.6310
 0.8030	46.6330
 0.8040	46.6340
 0.8050	46.6330
 0.8060	46.6330
 0.8070	46.6310
 0.8080	46.6260
 0.8090	46.6220
 0.8100	46.6200
 0.8110	46.6160
 0.8120	46.6120
 0.8130	46.6100
 0.8140	46.6020
 0.8150	46.5920
 0.8160	46.5820
 0.8170	46.5730
 0.8180	46.5630
 0.8190	46.5550
 0.8200	46.5510
 0.8210	46.5420
 0.8220	46.5270
 0.8230	46.5130
 0.8240	46.5030
 0.8250	46.5000
 0.8260	46.4900
 0.8270	46.4700
 0.8280	46.4540
 0.8290	46.4400
 0.8300	46.4260
 0.8310	46.4120
 0.8320	46.3990
 0.8330	46.3840
 0.8340	46.3690
 0.8350	46.3570
 0.8360	46.3460
 0.8370	46.3350
 0.8380	46.3220
 0.8390	46.3080
 0.8400	46.3080
 0.8410	46.3020
 0.8420	46.2850
 0.8430	46.2820
 0.8440	46.2730
 0.8450	46.2650
 0.8460	46.2640
 0.8470	46.2620
 0.8480	46.2580
 0.8490	46.2530
 0.8500	46.2510
 0.8510	46.2500
 0.8520	46.2450
 0.8530	46.2390
 0.8540	46.2360
 0.8550	46.2300
 0.8560	46.2260
 0.8570	46.2240
 0.8580	46.2180
 0.8590	46.2160
 0.8600	46.2170
 0.8610	46.2180
 0.8620	46.2180
 0.8630	46.2170
 0.8640	46.2150
 0.8650	46.2140
 0.8660	46.2140
 0.8670	46.2090
 0.8680	46.2120
 0.8690	46.2300
 0.8700	46.2370
 0.8710	46.2310
 0.8720	46.2260
 0.8730	46.2350
 0.8740	46.2340
 0.8750	46.2320
 0.8760	46.2360
 0.8770	46.2480
 0.8780	46.2560
 0.8790	46.2580
 0.8800	46.2550
 0.8810	46.2570
 0.8820	46.2680
 0.8830	46.2750
 0.8840	46.2720
 0.8850	46.2750
 0.8860	46.2740
 0.8870	46.2750
 0.8880	46.2810
 0.8890	46.2840
 0.8900	46.2830
 0.8910	46.2790
 0.8920	46.2770
 0.8930	46.2850
 0.8940	46.2900
 0.8950	46.2890
 0.8960	46.2870
 0.8970	46.2890
 0.8980	46.2900
 0.8990	46.2910
 0.9000	46.2980
 0.9010	46.2990
 0.9020	46.2970
 0.9030	46.3000
 0.9040	46.3100
 0.9050	46.3110
 0.9060	46.3120
 0.9070	46.3160
 0.9080	46.3050
 0.9090	46.3060
 0.9100	46.3140
 0.9110	46.3180
 0.9120	46.3050
 0.9130	46.3030
 0.9140	46.3090
 0.9150	46.3160
 0.9160	46.3200
 0.9170	46.3150
 0.9180	46.3010
 0.9190	46.2870
 0.9200	46.2820
 0.9210	46.2760
 0.9220	46.2720
 0.9230	46.2740
 0.9240	46.2550
 0.9250	46.2430
 0.9260	46.2390
 0.9270	46.2270
 0.9280	46.2130
 0.9290	46.1930
 0.9300	46.1680
 0.9310	46.1490
 0.9320	46.1300
 0.9330	46.1100
 0.9340	46.0910
 0.9350	46.0750
 0.9360	46.0450
 0.9370	46.0200
 0.9380	46.0030
 0.9390	45.9700
 0.9400	45.9450
 0.9410	45.9160
 0.9420	45.8720
 0.9430	45.8310
 0.9440	45.7970
 0.9450	45.7620
 0.9460	45.7220
 0.9470	45.6780
 0.9480	45.6300
 0.9490	45.5690
 0.9500	45.4950
 0.9510	45.4260
 0.9520	45.3530
 0.9530	45.2760
 0.9540	45.1980
 0.9550	45.1060
 0.9560	45.0250
 0.9570	44.9500
 0.9580	44.8750
 0.9590	44.8140
 0.9600	44.7450
 0.9610	44.6800
 0.9620	44.6330
 0.9630	44.5790
 0.9640	44.5380
 0.9650	44.5050
 0.9660	44.4650
 0.9670	44.4130
 0.9680	44.3920
 0.9690	44.3880
 0.9700	44.3670
 0.9710	44.3440
 0.9720	44.3160
 0.9730	44.2960
 0.9740	44.2950
 0.9750	44.2850
 0.9760	44.2790
 0.9770	44.2870
 0.9780	44.3030
 0.9790	44.2760
 0.9800	44.2710
 0.9810	44.2780
 0.9820	44.2620
 0.9830	44.2740
 0.9840	44.2920
 0.9850	44.3030
 0.9860	44.3070
 0.9870	44.3290
 0.9880	44.3520
 0.9890	44.3700
 0.9900	44.3820
 0.9910	44.4120
 0.9920	44.4750
 0.9930	44.5380
 0.9940	44.6010
 0.9950	44.6640
 0.9960	44.7270
 0.9970	44.7900
 0.9980	44.8530
 0.9990	44.9160
 1.0000	44.9790
 1.0010	45.0420
 1.0020	45.1050
 1.0030	45.1680
 1.0040	45.2310
 1.0050	45.2950
 1.0060	45.3580
 1.0070	45.4210
 1.0080	45.4840
 1.0090	45.5470
 1.0100	45.5470
 1.0110	45.5750
 1.0120	45.6020
 1.0130	45.6320
 1.0140	45.6570
 1.0150	45.6790
 1.0160	45.7000
 1.0170	45.7220
 1.0180	45.7480
 1.0190	45.7720
 1.0200	45.7990
 1.0210	45.8270
 1.0220	45.8480
 1.0230	45.8700
 1.0240	45.8930
 1.0250	45.9150
 1.0260	45.9320
 1.0270	45.9540
 1.0280	45.9790
 1.0290	46.0030
 1.0300	46.0300
 1.0310	46.0520
 1.0320	46.0710
 1.0330	46.0900
 1.0340	46.1050
 1.0350	46.1210
 1.0360	46.1410
 1.0370	46.1610
 1.0380	46.1790
 1.0390	46.1990
 1.0400	46.2160
 1.0410	46.2300
 1.0420	46.2430
 1.0430	46.2540
 1.0440	46.2660
 1.0450	46.2760
 1.0460	46.2900
 1.0470	46.3100
 1.0480	46.3240
 1.0490	46.3360
 1.0500	46.3480
 1.0510	46.3570
 1.0520	46.3650
 1.0530	46.3740
 1.0540	46.3850
 1.0550	46.3940
 1.0560	46.4020
 1.0570	46.4110
 1.0580	46.4190
 1.0590	46.4280
 1.0600	46.4360
 1.0610	46.4450
 1.0620	46.4540
 1.0630	46.4630
 1.0640	46.4750
 1.0650	46.4830
 1.0660	46.4880
 1.0670	46.4930
 1.0680	46.4950
 1.0690	46.4950
 1.0700	46.4960
 1.0710	46.4960
 1.0720	46.4980
 1.0730	46.5010
 1.0740	46.5040
 1.0750	46.5080
 1.0760	46.5100
 1.0770	46.5130
 1.0780	46.5130
 1.0790	46.5110
 1.0800	46.5080
 1.0810	46.5010
 1.0820	46.4960
 1.0830	46.4910
 1.0840	46.4880
 1.0850	46.4850
 1.0860	46.4820
 1.0870	46.4790
 1.0880	46.4760
 1.0890	46.4710
 1.0900	46.4660
 1.0910	46.4580
 1.0920	46.4490
 1.0930	46.4390
 1.0940	46.4280
 1.0950	46.4160
 1.0960	46.4050
 1.0970	46.3930
 1.0980	46.3810
 1.0990	46.3680
 1.1000	46.3570
 1.1010	46.3430
 1.1020	46.3250
 1.1030	46.3100
 1.1040	46.2950
 1.1050	46.2750
 1.1060	46.2560
 1.1070	46.2390
 1.1080	46.2200
 1.1090	46.1990
 1.1100	46.1780
 1.1110	46.1560
 1.1120	46.1330
 1.1130	46.1120
 1.1140	46.0850
 1.1150	46.0550
 1.1160	46.0230
 1.1170	45.9880
 1.1180	45.9500
 1.1190	45.9100
 1.1200	45.8680
 1.1210	45.8220
 1.1220	45.7700
 1.1230	45.7150
 1.1240	45.6590
 1.1250	45.5970
 1.1260	45.5320
 1.1270	45.4590
 1.1280	45.3820
 1.1290	45.2970
 1.1300	45.2040
 1.1310	45.1080
 1.1320	45.0060
 1.1330	44.8960
 1.1340	44.7830
 1.1350	44.6600
 1.1360	44.5290
 1.1370	44.3900
 1.1380	44.2460
 1.1390	44.0940
 1.1400	43.9360
 1.1410	43.7740
 1.1420	43.6070
 1.1430	43.4390
 1.1440	43.2690
 1.1450	43.0950
 1.1460	42.9250
 1.1470	42.7500
 1.1480	42.5850
 1.1490	42.4220
 1.1500	42.2710
 1.1510	42.1280
 1.1520	41.9920
 1.1530	41.8640
 1.1540	41.7460
 1.1550	41.6340
 1.1560	41.5350
 1.1570	41.4470
 1.1580	41.3670
 1.1590	41.2980
 1.1600	41.2360
 1.1610	41.1810
 1.1620	41.1340
 1.1630	41.0920
 1.1640	41.0570
 1.1650	41.0250
 1.1660	40.9980
 1.1670	40.9730
 1.1680	40.9520
 1.1690	40.9320
 1.1700	40.9130
 1.1710	40.8950
 1.1720	40.8820
 1.1730	40.8660
 1.1740	40.8490
 1.1750	40.8320
 1.1760	40.8120
 1.1770	40.7880
 1.1780	40.7660
 1.1790	40.7420
 1.1800	40.7170
 1.1810	40.6920
 1.1820	40.6640
 1.1830	40.6370
 1.1840	40.6110
 1.1850	40.5870
 1.1860	40.5630
 1.1870	40.5390
 1.1880	40.5170
 1.1890	40.4950
 1.1900	40.4740
 1.1910	40.4540
 1.1920	40.4360
 1.1930	40.4180
 1.1940	40.4030
 1.1950	40.3910
 1.1960	40.3810
 1.1970	40.3720
 1.1980	40.3650
 1.1990	40.3620
 1.2000	40.3620
 1.2010	40.3640
 1.2020	40.3670
 1.2030	40.3690
 1.2040	40.3730
 1.2050	40.3860
 1.2060	40.4010
 1.2070	40.4200
 1.2080	40.4430
 1.2090	40.4670
 1.2100	40.4940
 1.2110	40.5240
 1.2120	40.5590
 1.2130	40.5950
 1.2140	40.6330
 1.2150	40.6750
 1.2160	40.7200
 1.2170	40.7680
 1.2180	40.8180
 1.2190	40.8720
 1.2200	40.9280
 1.2210	40.9820
 1.2220	41.0360
 1.2230	41.0890
 1.2240	41.1420
 1.2250	41.1940
 1.2260	41.2450
 1.2270	41.2960
 1.2280	41.3460
 1.2290	41.3930
 1.2300	41.4410
 1.2310	41.4840
 1.2320	41.5240
 1.2330	41.5660
 1.2340	41.6040
 1.2350	41.6390
 1.2360	41.6740
 1.2370	41.7080
 1.2380	41.7380
 1.2390	41.7660
 1.2400	41.7950
 1.2410	41.8240
 1.2420	41.8520
 1.2430	41.8810
 1.2440	41.9090
 1.2450	41.9310
 1.2460	41.9550
 1.2470	41.9770
 1.2480	41.9980
 1.2490	42.0190
 1.2500	42.0370
 1.2510	42.0540
 1.2520	42.0710
 1.2530	42.0880
 1.2540	42.1030
 1.2550	42.1170
 1.2560	42.1300
 1.2570	42.1420
 1.2580	42.1530
 1.2590	42.1630
 1.2600	42.1710
 1.2610	42.1780
 1.2620	42.1820
 1.2630	42.1860
 1.2640	42.1860
 1.2650	42.1890
 1.2660	42.1900
 1.2670	42.1910
 1.2680	42.1930
 1.2690	42.1900
 1.2700	42.1850
 1.2710	42.1820
 1.2720	42.1760
 1.2730	42.1690
 1.2740	42.1620
 1.2750	42.1500
 1.2760	42.1370
 1.2770	42.1250
 1.2780	42.1100
 1.2790	42.0950
 1.2800	42.0790
 1.2810	42.0590
 1.2820	42.0380
 1.2830	42.0170
 1.2840	41.9950
 1.2850	41.9700
 1.2860	41.9440
 1.2870	41.9160
 1.2880	41.8850
 1.2890	41.8520
 1.2900	41.8150
 1.2910	41.7770
 1.2920	41.7360
 1.2930	41.6920
 1.2940	41.6470
 1.2950	41.6010
 1.2960	41.5500
 1.2970	41.4980
 1.2980	41.4420
 1.2990	41.3830
 1.3000	41.3200
 1.3010	41.2560
 1.3020	41.1880
 1.3030	41.1150
 1.3040	41.0390
 1.3050	40.9610
 1.3060	40.8800
 1.3070	40.7980
 1.3080	40.7130
 1.3090	40.6220
 1.3100	40.5280
 1.3110	40.4300
 1.3120	40.3280
 1.3130	40.2240
 1.3140	40.1150
 1.3150	40.0020
 1.3160	39.8860
 1.3170	39.7670
 1.3180	39.6430
 1.3190	39.5160
 1.3200	39.3860
 1.3210	39.2500
 1.3220	39.1110
 1.3230	38.9680
 1.3240	38.8210
 1.3250	38.6730
 1.3260	38.5210
 1.3270	38.3660
 1.3280	38.2100
 1.3290	38.0480
 1.3300	37.8860
 1.3310	37.7220
 1.3320	37.5540
 1.3330	37.3870
 1.3340	37.2180
 1.3350	37.0480
 1.3360	36.8760
 1.3370	36.7030
 1.3380	36.5300
 1.3390	36.3570
 1.3400	36.1870
 1.3410	36.0200
 1.3420	35.8520
 1.3430	35.6850
 1.3440	35.5200
 1.3450	35.3560
 1.3460	35.1900
 1.3470	35.0280
 1.3480	34.8670
 1.3490	34.7090
 1.3500	34.5540
 1.3510	34.4000
 1.3520	34.2460
 1.3530	34.0930
 1.3540	33.9370
 1.3550	33.7810
 1.3560	33.6270
 1.3570	33.4700
 1.3580	33.3140
 1.3590	33.1560
 1.3600	32.9930
 1.3610	32.8290
 1.3620	32.6580
 1.3630	32.4840
 1.3640	32.3040
 1.3650	32.1150
 1.3660	31.9230
 1.3670	31.7220
 1.3680	31.5090
 1.3690	31.2860
 1.3700	31.0480
 1.3710	30.7970
 1.3720	30.5340
 1.3730	30.2530
 1.3740	29.9590
 1.3750	29.6490
 1.3760	29.3180
 1.3770	28.9670
 1.3780	28.5920
 1.3790	28.1970
 1.3800	27.7840
 1.3810	27.3480
 1.3820	26.9000
 1.3830	26.4360
 1.3840	25.9570
 1.3850	25.4630
 1.3860	24.9620
 1.3870	24.4430
 1.3880	23.9250
 1.3890	23.4000
 1.3900	22.8700
 1.3910	22.3470
 1.3920	21.8220
 1.3930	21.3000
 1.3940	20.7870
 1.3950	20.2750
 1.3960	19.7760
 1.3970	19.2910
 1.3980	18.8190
 1.3990	18.3690
 1.4000	17.9360
 1.4010	17.5180
 1.4020	17.1220
 1.4030	16.7430
 1.4040	16.3840
 1.4050	16.0470
 1.4060	15.7280
 1.4070	15.4340
 1.4080	15.1590
 1.4090	14.9020
 1.4100	14.6640
 1.4110	14.4450
 1.4120	14.2430
 1.4130	14.0580
 1.4140	13.8880
 1.4150	13.7340
 1.4160	13.5930
 1.4170	13.4660
 1.4180	13.3520
 1.4190	13.2490
 1.4200	13.1560
 1.4210	13.0730
 1.4220	12.9970
 1.4230	12.9300
 1.4240	12.8700
 1.4250	12.8170
 1.4260	12.7710
 1.4270	12.7290
 1.4280	12.6940
 1.4290	12.6630
 1.4300	12.6370
 1.4310	12.6160
 1.4320	12.6000
 1.4330	12.5870
 1.4340	12.5780
 1.4350	12.5710
 1.4360	12.5670
 1.4370	12.5650
 1.4380	12.5650
 1.4390	12.5680
 1.4400	12.5740
 1.4410	12.5830
 1.4420	12.5920
 1.4430	12.6020
 1.4440	12.6140
 1.4450	12.6260
 1.4460	12.6410
 1.4470	12.6560
 1.4480	12.6730
 1.4490	12.6900
 1.4500	12.7080
 1.4510	12.7260
 1.4520	12.7460
 1.4530	12.7650
 1.4540	12.7850
 1.4550	12.8070
 1.4560	12.8290
 1.4570	12.8530
 1.4580	12.8790
 1.4590	12.9070
 1.4600	12.9370
 1.4610	12.9690
 1.4620	13.0040
 1.4630	13.0420
 1.4640	13.0830
 1.4650	13.1280
 1.4660	13.1760
 1.4670	13.2270
 1.4680	13.2820
