Name: Brachychiton rupestris
Type: vegetation
Class: Tree
Genus: Brachychiton
Species: rupestris
Sample No.: JPL086
Owner: JPL
Wavelength Range: VSWIR
Origin: 34.12507; - 118.11463; WGS84
Collection Date: 2/2/2016
Description: Samples were collected at the Huntington Garden in San Marino California as part of a JPL Subcontract studying HyTES imagery. Samples were taken to JPL and processed within 48 hours of collection. The same leaves were processed in the Nicolet and then measured using the ASD.
Measurement: Bidirectional reflectance
First Column: X
Second Column: Y
X Units: Wavelength (micrometer)
Y Units: Reflectance (percentage)
First X Value: 0.35
Last X Value: 2.5
Number of X Values: 2151
Additional Information: 

 0.3500	 7.8320
 0.3510	 6.6720
 0.3520	 6.7490
 0.3530	 6.4900
 0.3540	 4.8850
 0.3550	 5.1060
 0.3560	 6.5350
 0.3570	 7.6010
 0.3580	 6.8000
 0.3590	 6.2830
 0.3600	 5.6580
 0.3610	 5.1570
 0.3620	 6.3710
 0.3630	 7.2450
 0.3640	 7.5930
 0.3650	 7.6280
 0.3660	 7.4740
 0.3670	 7.1140
 0.3680	 6.7960
 0.3690	 6.9230
 0.3700	 6.8590
 0.3710	 7.1110
 0.3720	 7.6810
 0.3730	 7.4730
 0.3740	 6.5250
 0.3750	 5.9690
 0.3760	 6.7720
 0.3770	 7.0770
 0.3780	 7.3410
 0.3790	 7.6120
 0.3800	 7.5340
 0.3810	 6.9540
 0.3820	 6.5180
 0.3830	 6.6400
 0.3840	 7.0060
 0.3850	 7.0620
 0.3860	 6.6960
 0.3870	 6.1410
 0.3880	 6.4750
 0.3890	 6.8490
 0.3900	 6.9620
 0.3910	 7.1480
 0.3920	 6.9150
 0.3930	 6.6740
 0.3940	 6.7270
 0.3950	 6.6140
 0.3960	 6.5050
 0.3970	 6.5490
 0.3980	 6.7890
 0.3990	 6.5400
 0.4000	 6.5890
 0.4010	 7.1140
 0.4020	 7.3870
 0.4030	 6.8930
 0.4040	 6.4640
 0.4050	 6.7870
 0.4060	 6.8510
 0.4070	 6.8600
 0.4080	 6.9350
 0.4090	 7.0940
 0.4100	 6.8910
 0.4110	 6.8070
 0.4120	 7.0420
 0.4130	 7.1020
 0.4140	 7.0920
 0.4150	 6.9840
 0.4160	 6.7930
 0.4170	 6.9060
 0.4180	 6.9490
 0.4190	 6.8850
 0.4200	 7.0090
 0.4210	 7.2020
 0.4220	 7.2350
 0.4230	 7.0760
 0.4240	 7.2510
 0.4250	 7.2130
 0.4260	 7.0500
 0.4270	 7.0980
 0.4280	 7.1410
 0.4290	 7.1610
 0.4300	 7.1860
 0.4310	 7.2910
 0.4320	 7.2580
 0.4330	 7.1910
 0.4340	 7.2200
 0.4350	 7.2450
 0.4360	 7.2200
 0.4370	 7.1880
 0.4380	 7.2410
 0.4390	 7.2440
 0.4400	 7.2430
 0.4410	 7.2870
 0.4420	 7.3800
 0.4430	 7.3710
 0.4440	 7.3460
 0.4450	 7.4320
 0.4460	 7.3810
 0.4470	 7.3350
 0.4480	 7.3740
 0.4490	 7.4640
 0.4500	 7.4630
 0.4510	 7.4020
 0.4520	 7.3810
 0.4530	 7.5810
 0.4540	 7.5990
 0.4550	 7.4690
 0.4560	 7.4840
 0.4570	 7.4540
 0.4580	 7.4540
 0.4590	 7.5150
 0.4600	 7.5250
 0.4610	 7.5900
 0.4620	 7.6140
 0.4630	 7.5060
 0.4640	 7.5680
 0.4650	 7.5920
 0.4660	 7.4980
 0.4670	 7.3660
 0.4680	 7.4420
 0.4690	 7.5630
 0.4700	 7.5550
 0.4710	 7.4630
 0.4720	 7.4440
 0.4730	 7.4930
 0.4740	 7.5150
 0.4750	 7.4920
 0.4760	 7.4740
 0.4770	 7.4920
 0.4780	 7.5440
 0.4790	 7.5050
 0.4800	 7.4320
 0.4810	 7.4280
 0.4820	 7.5520
 0.4830	 7.5520
 0.4840	 7.4610
 0.4850	 7.5510
 0.4860	 7.5340
 0.4870	 7.4700
 0.4880	 7.4570
 0.4890	 7.5310
 0.4900	 7.5560
 0.4910	 7.5310
 0.4920	 7.5270
 0.4930	 7.5650
 0.4940	 7.6200
 0.4950	 7.6500
 0.4960	 7.5890
 0.4970	 7.6150
 0.4980	 7.6870
 0.4990	 7.7110
 0.5000	 7.6640
 0.5010	 7.6530
 0.5020	 7.6920
 0.5030	 7.7150
 0.5040	 7.7660
 0.5050	 7.7980
 0.5060	 7.7980
 0.5070	 7.8860
 0.5080	 7.9360
 0.5090	 7.9540
 0.5100	 7.9980
 0.5110	 8.0430
 0.5120	 8.1220
 0.5130	 8.2190
 0.5140	 8.2410
 0.5150	 8.3700
 0.5160	 8.5260
 0.5170	 8.6020
 0.5180	 8.6530
 0.5190	 8.7380
 0.5200	 8.8740
 0.5210	 9.0370
 0.5220	 9.1420
 0.5230	 9.2310
 0.5240	 9.3570
 0.5250	 9.5740
 0.5260	 9.7310
 0.5270	 9.8280
 0.5280	 9.9280
 0.5290	10.0630
 0.5300	10.1950
 0.5310	10.3010
 0.5320	10.3890
 0.5330	10.4790
 0.5340	10.5800
 0.5350	10.6830
 0.5360	10.7410
 0.5370	10.7850
 0.5380	10.8280
 0.5390	10.8700
 0.5400	10.9180
 0.5410	10.9700
 0.5420	11.0190
 0.5430	11.0290
 0.5440	11.0780
 0.5450	11.1430
 0.5460	11.1690
 0.5470	11.2050
 0.5480	11.2420
 0.5490	11.2620
 0.5500	11.2450
 0.5510	11.2580
 0.5520	11.2840
 0.5530	11.2900
 0.5540	11.2560
 0.5550	11.2140
 0.5560	11.1750
 0.5570	11.1330
 0.5580	11.0640
 0.5590	11.0010
 0.5600	10.9570
 0.5610	10.8820
 0.5620	10.8170
 0.5630	10.7460
 0.5640	10.6460
 0.5650	10.5600
 0.5660	10.4810
 0.5670	10.3950
 0.5680	10.2780
 0.5690	10.1870
 0.5700	10.0920
 0.5710	 9.9630
 0.5720	 9.8580
 0.5730	 9.7900
 0.5740	 9.7260
 0.5750	 9.6090
 0.5760	 9.5600
 0.5770	 9.5100
 0.5780	 9.4250
 0.5790	 9.3970
 0.5800	 9.3290
 0.5810	 9.2520
 0.5820	 9.2220
 0.5830	 9.1630
 0.5840	 9.1260
 0.5850	 9.1130
 0.5860	 9.0720
 0.5870	 9.0250
 0.5880	 8.9870
 0.5890	 8.9640
 0.5900	 8.9550
 0.5910	 8.9250
 0.5920	 8.8960
 0.5930	 8.9140
 0.5940	 8.9100
 0.5950	 8.8880
 0.5960	 8.8590
 0.5970	 8.8360
 0.5980	 8.8280
 0.5990	 8.8200
 0.6000	 8.7930
 0.6010	 8.7690
 0.6020	 8.7520
 0.6030	 8.7390
 0.6040	 8.7170
 0.6050	 8.6950
 0.6060	 8.6620
 0.6070	 8.6130
 0.6080	 8.5600
 0.6090	 8.5240
 0.6100	 8.4920
 0.6110	 8.4430
 0.6120	 8.4230
 0.6130	 8.3980
 0.6140	 8.3530
 0.6150	 8.3100
 0.6160	 8.2680
 0.6170	 8.2390
 0.6180	 8.2300
 0.6190	 8.2150
 0.6200	 8.1750
 0.6210	 8.1280
 0.6220	 8.1190
 0.6230	 8.0910
 0.6240	 8.0980
 0.6250	 8.1440
 0.6260	 8.0990
 0.6270	 8.0650
 0.6280	 8.0540
 0.6290	 8.0480
 0.6300	 8.0440
 0.6310	 8.0470
 0.6320	 8.0500
 0.6330	 8.0280
 0.6340	 8.0100
 0.6350	 7.9960
 0.6360	 7.9880
 0.6370	 8.0220
 0.6380	 7.9900
 0.6390	 7.9280
 0.6400	 7.9420
 0.6410	 7.9270
 0.6420	 7.8940
 0.6430	 7.8630
 0.6440	 7.8440
 0.6450	 7.8260
 0.6460	 7.8040
 0.6470	 7.7710
 0.6480	 7.7230
 0.6490	 7.7020
 0.6500	 7.7010
 0.6510	 7.6810
 0.6520	 7.6950
 0.6530	 7.6940
 0.6540	 7.6550
 0.6550	 7.6510
 0.6560	 7.6530
 0.6570	 7.6380
 0.6580	 7.5990
 0.6590	 7.5720
 0.6600	 7.5550
 0.6610	 7.5450
 0.6620	 7.5420
 0.6630	 7.5080
 0.6640	 7.4780
 0.6650	 7.4770
 0.6660	 7.4590
 0.6670	 7.4520
 0.6680	 7.4530
 0.6690	 7.4450
 0.6700	 7.4370
 0.6710	 7.4370
 0.6720	 7.4440
 0.6730	 7.4470
 0.6740	 7.4510
 0.6750	 7.4610
 0.6760	 7.4780
 0.6770	 7.4880
 0.6780	 7.5140
 0.6790	 7.5460
 0.6800	 7.5540
 0.6810	 7.5650
 0.6820	 7.5940
 0.6830	 7.6400
 0.6840	 7.6640
 0.6850	 7.7080
 0.6860	 7.7670
 0.6870	 7.8250
 0.6880	 7.8680
 0.6890	 7.9320
 0.6900	 8.0210
 0.6910	 8.1140
 0.6920	 8.2670
 0.6930	 8.4350
 0.6940	 8.6080
 0.6950	 8.8730
 0.6960	 9.1630
 0.6970	 9.4980
 0.6980	 9.9110
 0.6990	10.3610
 0.7000	10.8590
 0.7010	11.4210
 0.7020	12.0610
 0.7030	12.7330
 0.7040	13.4320
 0.7050	14.1680
 0.7060	14.9580
 0.7070	15.7610
 0.7080	16.5770
 0.7090	17.4240
 0.7100	18.3000
 0.7110	19.2010
 0.7120	20.1240
 0.7130	21.0670
 0.7140	22.0490
 0.7150	23.0290
 0.7160	23.9930
 0.7170	25.0120
 0.7180	26.0280
 0.7190	27.0390
 0.7200	28.0640
 0.7210	29.0910
 0.7220	30.1030
 0.7230	31.1040
 0.7240	32.1150
 0.7250	33.1070
 0.7260	34.0790
 0.7270	35.0240
 0.7280	35.9070
 0.7290	36.7790
 0.7300	37.6410
 0.7310	38.4700
 0.7320	39.2530
 0.7330	40.0160
 0.7340	40.7540
 0.7350	41.4300
 0.7360	42.0850
 0.7370	42.7070
 0.7380	43.2820
 0.7390	43.8270
 0.7400	44.3420
 0.7410	44.8300
 0.7420	45.2890
 0.7430	45.7130
 0.7440	46.1190
 0.7450	46.4990
 0.7460	46.8190
 0.7470	47.1290
 0.7480	47.4210
 0.7490	47.6870
 0.7500	47.9230
 0.7510	48.1490
 0.7520	48.3510
 0.7530	48.5190
 0.7540	48.7160
 0.7550	48.8910
 0.7560	49.0240
 0.7570	49.1350
 0.7580	49.2590
 0.7590	49.3690
 0.7600	49.4490
 0.7610	49.5260
 0.7620	49.6050
 0.7630	49.6740
 0.7640	49.7260
 0.7650	49.7810
 0.7660	49.8340
 0.7670	49.8880
 0.7680	49.9410
 0.7690	49.9630
 0.7700	49.9870
 0.7710	50.0230
 0.7720	50.0390
 0.7730	50.0500
 0.7740	50.0690
 0.7750	50.0990
 0.7760	50.1080
 0.7770	50.1140
 0.7780	50.1270
 0.7790	50.1470
 0.7800	50.1580
 0.7810	50.1760
 0.7820	50.1900
 0.7830	50.1710
 0.7840	50.1800
 0.7850	50.1990
 0.7860	50.2050
 0.7870	50.1840
 0.7880	50.1910
 0.7890	50.2040
 0.7900	50.1910
 0.7910	50.1930
 0.7920	50.1800
 0.7930	50.1670
 0.7940	50.1850
 0.7950	50.2000
 0.7960	50.1850
 0.7970	50.1460
 0.7980	50.1260
 0.7990	50.1370
 0.8000	50.1420
 0.8010	50.1240
 0.8020	50.1370
 0.8030	50.1250
 0.8040	50.0980
 0.8050	50.0900
 0.8060	50.0840
 0.8070	50.0790
 0.8080	50.0780
 0.8090	50.0880
 0.8100	50.0700
 0.8110	50.0350
 0.8120	50.0050
 0.8130	50.0130
 0.8140	49.9920
 0.8150	49.9710
 0.8160	49.9770
 0.8170	49.9530
 0.8180	49.9380
 0.8190	49.9410
 0.8200	49.9530
 0.8210	49.9420
 0.8220	49.9300
 0.8230	49.9250
 0.8240	49.9110
 0.8250	49.8870
 0.8260	49.8780
 0.8270	49.8900
 0.8280	49.8940
 0.8290	49.8600
 0.8300	49.8320
 0.8310	49.8440
 0.8320	49.8460
 0.8330	49.8470
 0.8340	49.8340
 0.8350	49.8010
 0.8360	49.8120
 0.8370	49.8280
 0.8380	49.8330
 0.8390	49.8280
 0.8400	49.8350
 0.8410	49.8340
 0.8420	49.8200
 0.8430	49.8140
 0.8440	49.8230
 0.8450	49.8420
 0.8460	49.8590
 0.8470	49.8580
 0.8480	49.8470
 0.8490	49.8410
 0.8500	49.8530
 0.8510	49.8860
 0.8520	49.8820
 0.8530	49.8550
 0.8540	49.8560
 0.8550	49.8670
 0.8560	49.8700
 0.8570	49.8760
 0.8580	49.9190
 0.8590	49.9430
 0.8600	49.9530
 0.8610	49.9580
 0.8620	49.9610
 0.8630	49.9490
 0.8640	49.9460
 0.8650	49.9660
 0.8660	49.9730
 0.8670	49.9770
 0.8680	49.9770
 0.8690	49.9810
 0.8700	50.0400
 0.8710	50.0500
 0.8720	50.0280
 0.8730	50.0530
 0.8740	50.0830
 0.8750	50.0730
 0.8760	50.0410
 0.8770	50.0540
 0.8780	50.0890
 0.8790	50.0990
 0.8800	50.0830
 0.8810	50.1070
 0.8820	50.1150
 0.8830	50.1080
 0.8840	50.1020
 0.8850	50.1100
 0.8860	50.1370
 0.8870	50.1630
 0.8880	50.1730
 0.8890	50.2130
 0.8900	50.1950
 0.8910	50.1640
 0.8920	50.1960
 0.8930	50.2010
 0.8940	50.1980
 0.8950	50.2070
 0.8960	50.2280
 0.8970	50.2140
 0.8980	50.1930
 0.8990	50.1900
 0.9000	50.2080
 0.9010	50.2440
 0.9020	50.2410
 0.9030	50.2020
 0.9040	50.2090
 0.9050	50.2430
 0.9060	50.2720
 0.9070	50.2710
 0.9080	50.2390
 0.9090	50.1840
 0.9100	50.1920
 0.9110	50.2850
 0.9120	50.2800
 0.9130	50.2440
 0.9140	50.2150
 0.9150	50.2160
 0.9160	50.2280
 0.9170	50.2440
 0.9180	50.2260
 0.9190	50.1530
 0.9200	50.1280
 0.9210	50.1660
 0.9220	50.2010
 0.9230	50.1580
 0.9240	50.1520
 0.9250	50.1460
 0.9260	50.1270
 0.9270	50.1060
 0.9280	50.1050
 0.9290	50.0900
 0.9300	50.0740
 0.9310	50.1030
 0.9320	50.0860
 0.9330	50.0650
 0.9340	50.0450
 0.9350	49.9750
 0.9360	49.9700
 0.9370	49.9810
 0.9380	49.9590
 0.9390	49.9040
 0.9400	49.8780
 0.9410	49.8740
 0.9420	49.8680
 0.9430	49.8340
 0.9440	49.8340
 0.9450	49.7910
 0.9460	49.6830
 0.9470	49.6620
 0.9480	49.6710
 0.9490	49.6700
 0.9500	49.6320
 0.9510	49.5430
 0.9520	49.4890
 0.9530	49.4550
 0.9540	49.4020
 0.9550	49.3320
 0.9560	49.2750
 0.9570	49.2160
 0.9580	49.1460
 0.9590	49.1300
 0.9600	49.0200
 0.9610	48.9570
 0.9620	49.0750
 0.9630	49.0730
 0.9640	48.9770
 0.9650	48.8790
 0.9660	48.8660
 0.9670	48.8890
 0.9680	48.9110
 0.9690	48.8860
 0.9700	48.7990
 0.9710	48.7280
 0.9720	48.7410
 0.9730	48.7980
 0.9740	48.8100
 0.9750	48.7310
 0.9760	48.6990
 0.9770	48.7490
 0.9780	48.8220
 0.9790	48.7420
 0.9800	48.7810
 0.9810	48.8680
 0.9820	48.8200
 0.9830	48.8910
 0.9840	48.8330
 0.9850	48.7060
 0.9860	48.7000
 0.9870	48.8060
 0.9880	48.8080
 0.9890	48.7310
 0.9900	48.7130
 0.9910	48.7550
 0.9920	48.8220
 0.9930	48.8260
 0.9940	48.7340
 0.9950	48.8090
 0.9960	48.8740
 0.9970	48.9450
 0.9980	49.0580
 0.9990	48.9040
 1.0000	48.7930
 1.0010	48.6000
 1.0020	48.6050
 1.0030	48.6210
 1.0040	48.6320
 1.0050	48.6850
 1.0060	48.7330
 1.0070	48.7580
 1.0080	48.7890
 1.0090	48.8270
 1.0100	48.8440
 1.0110	48.8550
 1.0120	48.8590
 1.0130	48.8290
 1.0140	48.8310
 1.0150	48.8500
 1.0160	48.8620
 1.0170	48.8540
 1.0180	48.8740
 1.0190	48.8870
 1.0200	48.8740
 1.0210	48.9350
 1.0220	49.0030
 1.0230	49.0330
 1.0240	49.0580
 1.0250	49.0840
 1.0260	49.0860
 1.0270	49.0860
 1.0280	49.0770
 1.0290	49.0970
 1.0300	49.1310
 1.0310	49.1390
 1.0320	49.1630
 1.0330	49.1840
 1.0340	49.1600
 1.0350	49.1210
 1.0360	49.1290
 1.0370	49.1550
 1.0380	49.1730
 1.0390	49.2160
 1.0400	49.2180
 1.0410	49.1850
 1.0420	49.1870
 1.0430	49.1730
 1.0440	49.1870
 1.0450	49.2500
 1.0460	49.2770
 1.0470	49.2990
 1.0480	49.3120
 1.0490	49.3050
 1.0500	49.3010
 1.0510	49.2890
 1.0520	49.2840
 1.0530	49.2810
 1.0540	49.2800
 1.0550	49.2840
 1.0560	49.2930
 1.0570	49.3070
 1.0580	49.3340
 1.0590	49.3440
 1.0600	49.3530
 1.0610	49.3540
 1.0620	49.3390
 1.0630	49.3280
 1.0640	49.3070
 1.0650	49.3040
 1.0660	49.2990
 1.0670	49.3080
 1.0680	49.3290
 1.0690	49.3760
 1.0700	49.3920
 1.0710	49.4120
 1.0720	49.4130
 1.0730	49.3890
 1.0740	49.3810
 1.0750	49.3650
 1.0760	49.3660
 1.0770	49.3760
 1.0780	49.3870
 1.0790	49.4120
 1.0800	49.4250
 1.0810	49.4380
 1.0820	49.4440
 1.0830	49.4380
 1.0840	49.4350
 1.0850	49.4460
 1.0860	49.4270
 1.0870	49.4130
 1.0880	49.3870
 1.0890	49.3820
 1.0900	49.3780
 1.0910	49.3760
 1.0920	49.3940
 1.0930	49.3980
 1.0940	49.3930
 1.0950	49.3870
 1.0960	49.3760
 1.0970	49.3710
 1.0980	49.3710
 1.0990	49.3610
 1.1000	49.3480
 1.1010	49.3370
 1.1020	49.3170
 1.1030	49.2970
 1.1040	49.2830
 1.1050	49.2750
 1.1060	49.2700
 1.1070	49.2670
 1.1080	49.2610
 1.1090	49.2630
 1.1100	49.2530
 1.1110	49.2370
 1.1120	49.2190
 1.1130	49.1900
 1.1140	49.1710
 1.1150	49.1550
 1.1160	49.1340
 1.1170	49.1150
 1.1180	49.0930
 1.1190	49.0640
 1.1200	49.0380
 1.1210	49.0260
 1.1220	49.0060
 1.1230	48.9810
 1.1240	48.9510
 1.1250	48.9140
 1.1260	48.8650
 1.1270	48.8170
 1.1280	48.7720
 1.1290	48.7110
 1.1300	48.6360
 1.1310	48.5640
 1.1320	48.4770
 1.1330	48.4030
 1.1340	48.3480
 1.1350	48.2700
 1.1360	48.1760
 1.1370	48.1050
 1.1380	48.0140
 1.1390	47.9050
 1.1400	47.8030
 1.1410	47.6870
 1.1420	47.5630
 1.1430	47.4460
 1.1440	47.3290
 1.1450	47.2140
 1.1460	47.1010
 1.1470	46.9870
 1.1480	46.8800
 1.1490	46.7750
 1.1500	46.6810
 1.1510	46.5980
 1.1520	46.5140
 1.1530	46.4370
 1.1540	46.3620
 1.1550	46.2890
 1.1560	46.2110
 1.1570	46.1370
 1.1580	46.0760
 1.1590	46.0200
 1.1600	45.9650
 1.1610	45.9260
 1.1620	45.8980
 1.1630	45.8760
 1.1640	45.8540
 1.1650	45.8270
 1.1660	45.7990
 1.1670	45.7720
 1.1680	45.7370
 1.1690	45.7160
 1.1700	45.7040
 1.1710	45.6820
 1.1720	45.6640
 1.1730	45.6460
 1.1740	45.6230
 1.1750	45.5990
 1.1760	45.5830
 1.1770	45.5570
 1.1780	45.5350
 1.1790	45.5220
 1.1800	45.5110
 1.1810	45.4980
 1.1820	45.4890
 1.1830	45.4870
 1.1840	45.4800
 1.1850	45.4660
 1.1860	45.4480
 1.1870	45.4130
 1.1880	45.3910
 1.1890	45.3670
 1.1900	45.3580
 1.1910	45.3690
 1.1920	45.3630
 1.1930	45.3560
 1.1940	45.3440
 1.1950	45.3220
 1.1960	45.2910
 1.1970	45.2850
 1.1980	45.2780
 1.1990	45.2670
 1.2000	45.2670
 1.2010	45.2610
 1.2020	45.2590
 1.2030	45.2670
 1.2040	45.2690
 1.2050	45.2720
 1.2060	45.2820
 1.2070	45.2910
 1.2080	45.3020
 1.2090	45.3140
 1.2100	45.3240
 1.2110	45.3430
 1.2120	45.3740
 1.2130	45.3960
 1.2140	45.4160
 1.2150	45.4370
 1.2160	45.4550
 1.2170	45.4600
 1.2180	45.4820
 1.2190	45.5090
 1.2200	45.5250
 1.2210	45.5570
 1.2220	45.5900
 1.2230	45.6170
 1.2240	45.6510
 1.2250	45.6860
 1.2260	45.7160
 1.2270	45.7440
 1.2280	45.7710
 1.2290	45.8150
 1.2300	45.8540
 1.2310	45.8760
 1.2320	45.9030
 1.2330	45.9190
 1.2340	45.9390
 1.2350	45.9630
 1.2360	45.9800
 1.2370	45.9960
 1.2380	46.0030
 1.2390	46.0020
 1.2400	46.0180
 1.2410	46.0380
 1.2420	46.0620
 1.2430	46.0880
 1.2440	46.0980
 1.2450	46.1060
 1.2460	46.1130
 1.2470	46.1140
 1.2480	46.1220
 1.2490	46.1340
 1.2500	46.1450
 1.2510	46.1610
 1.2520	46.1790
 1.2530	46.1950
 1.2540	46.2090
 1.2550	46.2310
 1.2560	46.2490
 1.2570	46.2560
 1.2580	46.2630
 1.2590	46.2610
 1.2600	46.2460
 1.2610	46.2360
 1.2620	46.2260
 1.2630	46.2060
 1.2640	46.1950
 1.2650	46.1860
 1.2660	46.1810
 1.2670	46.1830
 1.2680	46.1810
 1.2690	46.1810
 1.2700	46.1750
 1.2710	46.1780
 1.2720	46.1880
 1.2730	46.1780
 1.2740	46.1690
 1.2750	46.1520
 1.2760	46.1210
 1.2770	46.1060
 1.2780	46.0820
 1.2790	46.0710
 1.2800	46.0690
 1.2810	46.0500
 1.2820	46.0340
 1.2830	46.0120
 1.2840	45.9840
 1.2850	45.9540
 1.2860	45.9360
 1.2870	45.9210
 1.2880	45.9100
 1.2890	45.8860
 1.2900	45.8660
 1.2910	45.8360
 1.2920	45.7950
 1.2930	45.7640
 1.2940	45.7360
 1.2950	45.7120
 1.2960	45.6910
 1.2970	45.6610
 1.2980	45.6330
 1.2990	45.6130
 1.3000	45.5840
 1.3010	45.5610
 1.3020	45.5320
 1.3030	45.4820
 1.3040	45.4300
 1.3050	45.3660
 1.3060	45.2940
 1.3070	45.2210
 1.3080	45.1500
 1.3090	45.0790
 1.3100	45.0120
 1.3110	44.9590
 1.3120	44.8950
 1.3130	44.8160
 1.3140	44.7380
 1.3150	44.6510
 1.3160	44.5680
 1.3170	44.4840
 1.3180	44.4150
 1.3190	44.3320
 1.3200	44.2460
 1.3210	44.1610
 1.3220	44.0610
 1.3230	43.9660
 1.3240	43.8730
 1.3250	43.7740
 1.3260	43.6710
 1.3270	43.5610
 1.3280	43.4540
 1.3290	43.3410
 1.3300	43.2190
 1.3310	43.0960
 1.3320	42.9650
 1.3330	42.8340
 1.3340	42.7130
 1.3350	42.5890
 1.3360	42.4640
 1.3370	42.3460
 1.3380	42.2260
 1.3390	42.1120
 1.3400	41.9990
 1.3410	41.8780
 1.3420	41.7560
 1.3430	41.6290
 1.3440	41.5080
 1.3450	41.3910
 1.3460	41.2730
 1.3470	41.1610
 1.3480	41.0580
 1.3490	40.9480
 1.3500	40.8350
 1.3510	40.7310
 1.3520	40.6230
 1.3530	40.5070
 1.3540	40.4010
 1.3550	40.2870
 1.3560	40.1710
 1.3570	40.0600
 1.3580	39.9460
 1.3590	39.8300
 1.3600	39.7100
 1.3610	39.5800
 1.3620	39.4420
 1.3630	39.3070
 1.3640	39.1680
 1.3650	39.0250
 1.3660	38.8740
 1.3670	38.7100
 1.3680	38.5310
 1.3690	38.3390
 1.3700	38.1470
 1.3710	37.9390
 1.3720	37.7120
 1.3730	37.4780
 1.3740	37.2230
 1.3750	36.9490
 1.3760	36.6610
 1.3770	36.3490
 1.3780	36.0090
 1.3790	35.6560
 1.3800	35.2790
 1.3810	34.8790
 1.3820	34.4590
 1.3830	34.0210
 1.3840	33.5550
 1.3850	33.0640
 1.3860	32.5540
 1.3870	32.0120
 1.3880	31.4720
 1.3890	30.9160
 1.3900	30.3560
 1.3910	29.7930
 1.3920	29.2260
 1.3930	28.6500
 1.3940	28.0710
 1.3950	27.4980
 1.3960	26.9340
 1.3970	26.3780
 1.3980	25.8320
 1.3990	25.3040
 1.4000	24.7850
 1.4010	24.2820
 1.4020	23.7990
 1.4030	23.3310
 1.4040	22.8840
 1.4050	22.4570
 1.4060	22.0560
 1.4070	21.6830
 1.4080	21.3230
 1.4090	20.9890
 1.4100	20.6730
 1.4110	20.3660
 1.4120	20.0810
 1.4130	19.8110
 1.4140	19.5590
 1.4150	19.3300
 1.4160	19.1190
 1.4170	18.9290
 1.4180	18.7490
 1.4190	18.5810
 1.4200	18.4270
 1.4210	18.2820
 1.4220	18.1550
 1.4230	18.0420
 1.4240	17.9350
 1.4250	17.8340
 1.4260	17.7400
 1.4270	17.6530
 1.4280	17.5740
 1.4290	17.5020
 1.4300	17.4380
 1.4310	17.3830
 1.4320	17.3330
 1.4330	17.2930
 1.4340	17.2670
 1.4350	17.2360
 1.4360	17.2090
 1.4370	17.1890
 1.4380	17.1640
 1.4390	17.1460
 1.4400	17.1320
 1.4410	17.1200
 1.4420	17.1110
 1.4430	17.1050
 1.4440	17.1080
 1.4450	17.1080
 1.4460	17.1110
 1.4470	17.1220
 1.4480	17.1290
 1.4490	17.1430
 1.4500	17.1550
 1.4510	17.1650
 1.4520	17.1810
 1.4530	17.1950
 1.4540	17.2150
 1.4550	17.2400
 1.4560	17.2660
 1.4570	17.2970
 1.4580	17.3260
 1.4590	17.3530
 1.4600	17.3850
 1.4610	17.4220
 1.4620	17.4670
 1.4630	17.5200
 1.4640	17.5790
 1.4650	17.6410
 1.4660	17.7030
 1.4670	17.7660
 1.4680	17.8340
 1.4690	17.9090
 1.4700	17.9920
 1.4710	18.0860
 1.4720	18.1850
 1.4730	18.2860
 1.4740	18.3850
 1.4750	18.4810
 1.4760	18.5790
 1.4770	18.6800
 1.4780	18.7850
 1.4790	18.8950
 1.4800	19.0060
 1.4810	19.1170
