Name: Jacaranda mimosifolia
Type: vegetation
Class: Tree
Genus: Jacaranda
Species: mimosifolia
Sample No.: JPL203
Owner: JPL
Wavelength Range: VSWIR
Origin: 34.12557; -118.11283; WGS84
Collection Date: 10/3/2016
Description: Samples were collected at the Huntington Garden in San Marino California as part of a JPL Subcontract studying HyTES imagery. Samples were taken to JPL and processed within 48 hours of collection. The same leaves were processed in the Nicolet and then measured using the ASD.
Measurement: Bidirectional reflectance
First Column: X
Second Column: Y
X Units: Wavelength (micrometer)
Y Units: Reflectance (percentage)
First X Value: 0.35
Last X Value: 2.5
Number of X Values: 2151
Additional Information: vegetation.tree.jacaranda.mimosifolia.vswir.jpl203.jpl.asd.ancillary.txt

 0.3500	 3.1990
 0.3510	 3.0050
 0.3520	 2.9300
 0.3530	 2.9100
 0.3540	 2.8580
 0.3550	 2.9120
 0.3560	 2.8830
 0.3570	 2.8250
 0.3580	 2.8840
 0.3590	 2.8670
 0.3600	 2.8510
 0.3610	 2.8850
 0.3620	 2.9470
 0.3630	 2.9510
 0.3640	 2.8920
 0.3650	 2.8140
 0.3660	 2.8290
 0.3670	 2.8450
 0.3680	 2.8330
 0.3690	 2.8160
 0.3700	 2.7950
 0.3710	 2.7860
 0.3720	 2.7920
 0.3730	 2.8020
 0.3740	 2.8380
 0.3750	 2.8720
 0.3760	 2.8710
 0.3770	 2.8490
 0.3780	 2.8560
 0.3790	 2.8730
 0.3800	 2.8300
 0.3810	 2.8120
 0.3820	 2.8030
 0.3830	 2.7840
 0.3840	 2.7600
 0.3850	 2.7620
 0.3860	 2.7670
 0.3870	 2.7430
 0.3880	 2.7560
 0.3890	 2.7810
 0.3900	 2.7920
 0.3910	 2.7740
 0.3920	 2.7840
 0.3930	 2.8030
 0.3940	 2.8080
 0.3950	 2.8060
 0.3960	 2.7810
 0.3970	 2.7580
 0.3980	 2.7740
 0.3990	 2.7750
 0.4000	 2.7700
 0.4010	 2.7710
 0.4020	 2.7830
 0.4030	 2.7860
 0.4040	 2.7940
 0.4050	 2.8160
 0.4060	 2.7980
 0.4070	 2.8000
 0.4080	 2.8220
 0.4090	 2.8230
 0.4100	 2.8250
 0.4110	 2.8340
 0.4120	 2.8470
 0.4130	 2.8550
 0.4140	 2.8660
 0.4150	 2.8730
 0.4160	 2.8740
 0.4170	 2.9100
 0.4180	 2.9400
 0.4190	 2.9500
 0.4200	 2.9570
 0.4210	 2.9800
 0.4220	 3.0020
 0.4230	 3.0090
 0.4240	 3.0270
 0.4250	 3.0410
 0.4260	 3.0550
 0.4270	 3.0780
 0.4280	 3.1040
 0.4290	 3.1210
 0.4300	 3.1270
 0.4310	 3.1340
 0.4320	 3.1590
 0.4330	 3.1790
 0.4340	 3.1740
 0.4350	 3.1840
 0.4360	 3.1950
 0.4370	 3.2030
 0.4380	 3.2170
 0.4390	 3.2270
 0.4400	 3.2340
 0.4410	 3.2400
 0.4420	 3.2530
 0.4430	 3.2630
 0.4440	 3.2720
 0.4450	 3.2820
 0.4460	 3.2930
 0.4470	 3.3070
 0.4480	 3.3180
 0.4490	 3.3210
 0.4500	 3.3300
 0.4510	 3.3420
 0.4520	 3.3520
 0.4530	 3.3590
 0.4540	 3.3670
 0.4550	 3.3750
 0.4560	 3.3760
 0.4570	 3.3760
 0.4580	 3.3820
 0.4590	 3.3910
 0.4600	 3.3860
 0.4610	 3.3900
 0.4620	 3.4020
 0.4630	 3.4150
 0.4640	 3.4150
 0.4650	 3.4050
 0.4660	 3.3940
 0.4670	 3.3970
 0.4680	 3.4040
 0.4690	 3.4140
 0.4700	 3.4230
 0.4710	 3.4210
 0.4720	 3.4190
 0.4730	 3.4160
 0.4740	 3.4090
 0.4750	 3.4130
 0.4760	 3.4220
 0.4770	 3.4280
 0.4780	 3.4240
 0.4790	 3.4230
 0.4800	 3.4260
 0.4810	 3.4310
 0.4820	 3.4360
 0.4830	 3.4440
 0.4840	 3.4530
 0.4850	 3.4550
 0.4860	 3.4600
 0.4870	 3.4630
 0.4880	 3.4650
 0.4890	 3.4730
 0.4900	 3.4850
 0.4910	 3.4950
 0.4920	 3.4980
 0.4930	 3.5100
 0.4940	 3.5250
 0.4950	 3.5390
 0.4960	 3.5530
 0.4970	 3.5670
 0.4980	 3.5840
 0.4990	 3.6090
 0.5000	 3.6300
 0.5010	 3.6560
 0.5020	 3.6880
 0.5030	 3.7220
 0.5040	 3.7560
 0.5050	 3.7940
 0.5060	 3.8380
 0.5070	 3.8870
 0.5080	 3.9440
 0.5090	 4.0070
 0.5100	 4.0720
 0.5110	 4.1460
 0.5120	 4.2310
 0.5130	 4.3240
 0.5140	 4.4230
 0.5150	 4.5300
 0.5160	 4.6460
 0.5170	 4.7700
 0.5180	 4.9010
 0.5190	 5.0370
 0.5200	 5.1800
 0.5210	 5.3360
 0.5220	 5.4890
 0.5230	 5.6440
 0.5240	 5.8020
 0.5250	 5.9520
 0.5260	 6.0990
 0.5270	 6.2400
 0.5280	 6.3760
 0.5290	 6.5020
 0.5300	 6.6190
 0.5310	 6.7270
 0.5320	 6.8250
 0.5330	 6.9180
 0.5340	 7.0020
 0.5350	 7.0740
 0.5360	 7.1370
 0.5370	 7.1920
 0.5380	 7.2420
 0.5390	 7.2910
 0.5400	 7.3400
 0.5410	 7.3890
 0.5420	 7.4360
 0.5430	 7.4760
 0.5440	 7.5070
 0.5450	 7.5290
 0.5460	 7.5400
 0.5470	 7.5480
 0.5480	 7.5580
 0.5490	 7.5690
 0.5500	 7.5760
 0.5510	 7.5820
 0.5520	 7.5830
 0.5530	 7.5750
 0.5540	 7.5550
 0.5550	 7.5250
 0.5560	 7.4870
 0.5570	 7.4430
 0.5580	 7.3900
 0.5590	 7.3270
 0.5600	 7.2560
 0.5610	 7.1770
 0.5620	 7.0970
 0.5630	 7.0160
 0.5640	 6.9290
 0.5650	 6.8360
 0.5660	 6.7400
 0.5670	 6.6410
 0.5680	 6.5390
 0.5690	 6.4380
 0.5700	 6.3400
 0.5710	 6.2430
 0.5720	 6.1440
 0.5730	 6.0480
 0.5740	 5.9580
 0.5750	 5.8800
 0.5760	 5.8070
 0.5770	 5.7370
 0.5780	 5.6700
 0.5790	 5.6090
 0.5800	 5.5500
 0.5810	 5.4950
 0.5820	 5.4440
 0.5830	 5.3990
 0.5840	 5.3570
 0.5850	 5.3170
 0.5860	 5.2810
 0.5870	 5.2440
 0.5880	 5.2060
 0.5890	 5.1680
 0.5900	 5.1400
 0.5910	 5.1180
 0.5920	 5.0970
 0.5930	 5.0770
 0.5940	 5.0560
 0.5950	 5.0380
 0.5960	 5.0270
 0.5970	 5.0140
 0.5980	 4.9990
 0.5990	 4.9830
 0.6000	 4.9680
 0.6010	 4.9510
 0.6020	 4.9320
 0.6030	 4.9090
 0.6040	 4.8830
 0.6050	 4.8540
 0.6060	 4.8240
 0.6070	 4.7930
 0.6080	 4.7580
 0.6090	 4.7250
 0.6100	 4.6940
 0.6110	 4.6630
 0.6120	 4.6250
 0.6130	 4.5820
 0.6140	 4.5400
 0.6150	 4.5030
 0.6160	 4.4650
 0.6170	 4.4300
 0.6180	 4.4010
 0.6190	 4.3740
 0.6200	 4.3480
 0.6210	 4.3270
 0.6220	 4.3090
 0.6230	 4.2920
 0.6240	 4.2780
 0.6250	 4.2680
 0.6260	 4.2580
 0.6270	 4.2500
 0.6280	 4.2430
 0.6290	 4.2360
 0.6300	 4.2320
 0.6310	 4.2280
 0.6320	 4.2220
 0.6330	 4.2050
 0.6340	 4.1930
 0.6350	 4.1810
 0.6360	 4.1630
 0.6370	 4.1360
 0.6380	 4.1090
 0.6390	 4.0820
 0.6400	 4.0520
 0.6410	 4.0180
 0.6420	 3.9860
 0.6430	 3.9560
 0.6440	 3.9280
 0.6450	 3.8980
 0.6460	 3.8690
 0.6470	 3.8440
 0.6480	 3.8210
 0.6490	 3.8010
 0.6500	 3.7860
 0.6510	 3.7730
 0.6520	 3.7630
 0.6530	 3.7520
 0.6540	 3.7380
 0.6550	 3.7310
 0.6560	 3.7210
 0.6570	 3.7080
 0.6580	 3.6950
 0.6590	 3.6800
 0.6600	 3.6640
 0.6610	 3.6490
 0.6620	 3.6380
 0.6630	 3.6260
 0.6640	 3.6150
 0.6650	 3.6050
 0.6660	 3.6000
 0.6670	 3.5970
 0.6680	 3.5970
 0.6690	 3.5990
 0.6700	 3.6050
 0.6710	 3.6140
 0.6720	 3.6250
 0.6730	 3.6380
 0.6740	 3.6550
 0.6750	 3.6760
 0.6760	 3.6970
 0.6770	 3.7180
 0.6780	 3.7430
 0.6790	 3.7730
 0.6800	 3.8030
 0.6810	 3.8340
 0.6820	 3.8690
 0.6830	 3.9070
 0.6840	 3.9450
 0.6850	 3.9870
 0.6860	 4.0340
 0.6870	 4.0870
 0.6880	 4.1500
 0.6890	 4.2250
 0.6900	 4.3200
 0.6910	 4.4460
 0.6920	 4.6030
 0.6930	 4.7960
 0.6940	 5.0310
 0.6950	 5.3180
 0.6960	 5.6540
 0.6970	 6.0410
 0.6980	 6.4760
 0.6990	 6.9550
 0.7000	 7.4730
 0.7010	 8.0260
 0.7020	 8.6100
 0.7030	 9.2150
 0.7040	 9.8380
 0.7050	10.4760
 0.7060	11.1200
 0.7070	11.7710
 0.7080	12.4280
 0.7090	13.0910
 0.7100	13.7550
 0.7110	14.4220
 0.7120	15.0920
 0.7130	15.7630
 0.7140	16.4290
 0.7150	17.0940
 0.7160	17.7590
 0.7170	18.4210
 0.7180	19.0740
 0.7190	19.7180
 0.7200	20.3520
 0.7210	20.9730
 0.7220	21.5830
 0.7230	22.1790
 0.7240	22.7560
 0.7250	23.3130
 0.7260	23.8500
 0.7270	24.3680
 0.7280	24.8650
 0.7290	25.3400
 0.7300	25.7920
 0.7310	26.2210
 0.7320	26.6260
 0.7330	27.0110
 0.7340	27.3750
 0.7350	27.7160
 0.7360	28.0370
 0.7370	28.3380
 0.7380	28.6200
 0.7390	28.8830
 0.7400	29.1250
 0.7410	29.3500
 0.7420	29.5600
 0.7430	29.7540
 0.7440	29.9290
 0.7450	30.0890
 0.7460	30.2370
 0.7470	30.3700
 0.7480	30.4910
 0.7490	30.6020
 0.7500	30.6990
 0.7510	30.7910
 0.7520	30.8740
 0.7530	30.9450
 0.7540	31.0120
 0.7550	31.0730
 0.7560	31.1270
 0.7570	31.1750
 0.7580	31.2200
 0.7590	31.2600
 0.7600	31.2960
 0.7610	31.3270
 0.7620	31.3520
 0.7630	31.3750
 0.7640	31.3980
 0.7650	31.4210
 0.7660	31.4410
 0.7670	31.4560
 0.7680	31.4680
 0.7690	31.4780
 0.7700	31.4890
 0.7710	31.5010
 0.7720	31.5110
 0.7730	31.5180
 0.7740	31.5240
 0.7750	31.5320
 0.7760	31.5390
 0.7770	31.5460
 0.7780	31.5530
 0.7790	31.5590
 0.7800	31.5650
 0.7810	31.5720
 0.7820	31.5770
 0.7830	31.5830
 0.7840	31.5870
 0.7850	31.5910
 0.7860	31.5950
 0.7870	31.5980
 0.7880	31.6000
 0.7890	31.6030
 0.7900	31.6070
 0.7910	31.6060
 0.7920	31.6050
 0.7930	31.6070
 0.7940	31.6090
 0.7950	31.6060
 0.7960	31.6020
 0.7970	31.5990
 0.7980	31.5950
 0.7990	31.5920
 0.8000	31.5900
 0.8010	31.5880
 0.8020	31.5810
 0.8030	31.5770
 0.8040	31.5750
 0.8050	31.5670
 0.8060	31.5580
 0.8070	31.5490
 0.8080	31.5410
 0.8090	31.5380
 0.8100	31.5320
 0.8110	31.5220
 0.8120	31.5120
 0.8130	31.5010
 0.8140	31.4890
 0.8150	31.4800
 0.8160	31.4730
 0.8170	31.4640
 0.8180	31.4540
 0.8190	31.4440
 0.8200	31.4340
 0.8210	31.4230
 0.8220	31.4130
 0.8230	31.4060
 0.8240	31.3960
 0.8250	31.3870
 0.8260	31.3780
 0.8270	31.3680
 0.8280	31.3580
 0.8290	31.3510
 0.8300	31.3440
 0.8310	31.3320
 0.8320	31.3240
 0.8330	31.3140
 0.8340	31.3050
 0.8350	31.3030
 0.8360	31.2990
 0.8370	31.2900
 0.8380	31.2820
 0.8390	31.2780
 0.8400	31.2780
 0.8410	31.2740
 0.8420	31.2660
 0.8430	31.2630
 0.8440	31.2610
 0.8450	31.2590
 0.8460	31.2570
 0.8470	31.2560
 0.8480	31.2540
 0.8490	31.2520
 0.8500	31.2490
 0.8510	31.2460
 0.8520	31.2470
 0.8530	31.2510
 0.8540	31.2530
 0.8550	31.2520
 0.8560	31.2540
 0.8570	31.2580
 0.8580	31.2560
 0.8590	31.2590
 0.8600	31.2640
 0.8610	31.2680
 0.8620	31.2690
 0.8630	31.2690
 0.8640	31.2710
 0.8650	31.2770
 0.8660	31.2840
 0.8670	31.2900
 0.8680	31.2950
 0.8690	31.2950
 0.8700	31.2990
 0.8710	31.3060
 0.8720	31.3130
 0.8730	31.3180
 0.8740	31.3240
 0.8750	31.3310
 0.8760	31.3360
 0.8770	31.3400
 0.8780	31.3520
 0.8790	31.3630
 0.8800	31.3670
 0.8810	31.3720
 0.8820	31.3780
 0.8830	31.3840
 0.8840	31.3900
 0.8850	31.4010
 0.8860	31.4080
 0.8870	31.4110
 0.8880	31.4180
 0.8890	31.4240
 0.8900	31.4300
 0.8910	31.4370
 0.8920	31.4460
 0.8930	31.4550
 0.8940	31.4620
 0.8950	31.4680
 0.8960	31.4770
 0.8970	31.4810
 0.8980	31.4870
 0.8990	31.4940
 0.9000	31.4990
 0.9010	31.5040
 0.9020	31.5120
 0.9030	31.5200
 0.9040	31.5250
 0.9050	31.5260
 0.9060	31.5280
 0.9070	31.5350
 0.9080	31.5470
 0.9090	31.5490
 0.9100	31.5470
 0.9110	31.5500
 0.9120	31.5590
 0.9130	31.5640
 0.9140	31.5640
 0.9150	31.5620
 0.9160	31.5750
 0.9170	31.5790
 0.9180	31.5760
 0.9190	31.5780
 0.9200	31.5800
 0.9210	31.5840
 0.9220	31.5860
 0.9230	31.5820
 0.9240	31.5840
 0.9250	31.5820
 0.9260	31.5770
 0.9270	31.5800
 0.9280	31.5730
 0.9290	31.5650
 0.9300	31.5620
 0.9310	31.5590
 0.9320	31.5510
 0.9330	31.5390
 0.9340	31.5290
 0.9350	31.5270
 0.9360	31.5250
 0.9370	31.5170
 0.9380	31.5040
 0.9390	31.4930
 0.9400	31.4860
 0.9410	31.4770
 0.9420	31.4620
 0.9430	31.4530
 0.9440	31.4390
 0.9450	31.4220
 0.9460	31.4060
 0.9470	31.3930
 0.9480	31.3800
 0.9490	31.3610
 0.9500	31.3350
 0.9510	31.3190
 0.9520	31.2960
 0.9530	31.2680
 0.9540	31.2420
 0.9550	31.2110
 0.9560	31.1960
 0.9570	31.1860
 0.9580	31.1620
 0.9590	31.1340
 0.9600	31.1140
 0.9610	31.0990
 0.9620	31.0840
 0.9630	31.0650
 0.9640	31.0430
 0.9650	31.0280
 0.9660	31.0250
 0.9670	31.0150
 0.9680	31.0000
 0.9690	30.9920
 0.9700	30.9950
 0.9710	30.9710
 0.9720	30.9660
 0.9730	30.9710
 0.9740	30.9560
 0.9750	30.9390
 0.9760	30.9290
 0.9770	30.9210
 0.9780	30.9110
 0.9790	30.9120
 0.9800	30.9130
 0.9810	30.9160
 0.9820	30.9240
 0.9830	30.9140
 0.9840	30.9070
 0.9850	30.9050
 0.9860	30.8970
 0.9870	30.9010
 0.9880	30.9120
 0.9890	30.9190
 0.9900	30.9180
 0.9910	30.9170
 0.9920	30.9200
 0.9930	30.9260
 0.9940	30.9300
 0.9950	30.9380
 0.9960	30.9380
 0.9970	30.9370
 0.9980	30.9430
 0.9990	30.9550
 1.0000	30.9410
 1.0010	31.2810
 1.0020	31.2870
 1.0030	31.2910
 1.0040	31.2930
 1.0050	31.2980
 1.0060	31.3040
 1.0070	31.3040
 1.0080	31.3070
 1.0090	31.3110
 1.0100	31.3140
 1.0110	31.3180
 1.0120	31.3210
 1.0130	31.3240
 1.0140	31.3280
 1.0150	31.3340
 1.0160	31.3400
 1.0170	31.3480
 1.0180	31.3560
 1.0190	31.3620
 1.0200	31.3660
 1.0210	31.3690
 1.0220	31.3720
 1.0230	31.3770
 1.0240	31.3830
 1.0250	31.3890
 1.0260	31.3970
 1.0270	31.4040
 1.0280	31.4090
 1.0290	31.4150
 1.0300	31.4200
 1.0310	31.4260
 1.0320	31.4320
 1.0330	31.4370
 1.0340	31.4410
 1.0350	31.4450
 1.0360	31.4490
 1.0370	31.4520
 1.0380	31.4570
 1.0390	31.4670
 1.0400	31.4710
 1.0410	31.4720
 1.0420	31.4770
 1.0430	31.4800
 1.0440	31.4840
 1.0450	31.4910
 1.0460	31.4960
 1.0470	31.4980
 1.0480	31.5020
 1.0490	31.5090
 1.0500	31.5140
 1.0510	31.5200
 1.0520	31.5220
 1.0530	31.5260
 1.0540	31.5280
 1.0550	31.5310
 1.0560	31.5350
 1.0570	31.5380
 1.0580	31.5410
 1.0590	31.5420
 1.0600	31.5390
 1.0610	31.5400
 1.0620	31.5400
 1.0630	31.5420
 1.0640	31.5480
 1.0650	31.5510
 1.0660	31.5530
 1.0670	31.5540
 1.0680	31.5550
 1.0690	31.5540
 1.0700	31.5550
 1.0710	31.5540
 1.0720	31.5540
 1.0730	31.5540
 1.0740	31.5550
 1.0750	31.5570
 1.0760	31.5570
 1.0770	31.5570
 1.0780	31.5570
 1.0790	31.5560
 1.0800	31.5550
 1.0810	31.5550
 1.0820	31.5540
 1.0830	31.5530
 1.0840	31.5530
 1.0850	31.5530
 1.0860	31.5530
 1.0870	31.5520
 1.0880	31.5510
 1.0890	31.5500
 1.0900	31.5500
 1.0910	31.5490
 1.0920	31.5470
 1.0930	31.5440
 1.0940	31.5390
 1.0950	31.5360
 1.0960	31.5340
 1.0970	31.5320
 1.0980	31.5330
 1.0990	31.5300
 1.1000	31.5240
 1.1010	31.5200
 1.1020	31.5170
 1.1030	31.5150
 1.1040	31.5120
 1.1050	31.5090
 1.1060	31.5070
 1.1070	31.5030
 1.1080	31.5010
 1.1090	31.5000
 1.1100	31.4970
 1.1110	31.4930
 1.1120	31.4890
 1.1130	31.4850
 1.1140	31.4800
 1.1150	31.4740
 1.1160	31.4670
 1.1170	31.4590
 1.1180	31.4510
 1.1190	31.4430
 1.1200	31.4360
 1.1210	31.4260
 1.1220	31.4150
 1.1230	31.4020
 1.1240	31.3870
 1.1250	31.3710
 1.1260	31.3560
 1.1270	31.3360
 1.1280	31.3140
 1.1290	31.2890
 1.1300	31.2610
 1.1310	31.2310
 1.1320	31.1990
 1.1330	31.1650
 1.1340	31.1280
 1.1350	31.0890
 1.1360	31.0470
 1.1370	31.0030
 1.1380	30.9580
 1.1390	30.9110
 1.1400	30.8620
 1.1410	30.8120
 1.1420	30.7600
 1.1430	30.7070
 1.1440	30.6560
 1.1450	30.6040
 1.1460	30.5530
 1.1470	30.5030
 1.1480	30.4560
 1.1490	30.4080
 1.1500	30.3650
 1.1510	30.3230
 1.1520	30.2830
 1.1530	30.2450
 1.1540	30.2100
 1.1550	30.1750
 1.1560	30.1440
 1.1570	30.1160
 1.1580	30.0890
 1.1590	30.0640
 1.1600	30.0410
 1.1610	30.0200
 1.1620	30.0010
 1.1630	29.9870
 1.1640	29.9720
 1.1650	29.9580
 1.1660	29.9450
 1.1670	29.9320
 1.1680	29.9190
 1.1690	29.9070
 1.1700	29.8950
 1.1710	29.8840
 1.1720	29.8740
 1.1730	29.8640
 1.1740	29.8550
 1.1750	29.8460
 1.1760	29.8370
 1.1770	29.8280
 1.1780	29.8180
 1.1790	29.8080
 1.1800	29.7980
 1.1810	29.7880
 1.1820	29.7790
 1.1830	29.7700
 1.1840	29.7610
 1.1850	29.7520
 1.1860	29.7420
 1.1870	29.7320
 1.1880	29.7230
 1.1890	29.7120
 1.1900	29.7040
 1.1910	29.6970
 1.1920	29.6910
 1.1930	29.6860
 1.1940	29.6810
 1.1950	29.6770
 1.1960	29.6720
 1.1970	29.6680
 1.1980	29.6650
 1.1990	29.6630
 1.2000	29.6630
 1.2010	29.6640
 1.2020	29.6650
 1.2030	29.6660
 1.2040	29.6690
 1.2050	29.6730
 1.2060	29.6790
 1.2070	29.6860
 1.2080	29.6920
 1.2090	29.6990
 1.2100	29.7080
 1.2110	29.7170
 1.2120	29.7270
 1.2130	29.7380
 1.2140	29.7500
 1.2150	29.7620
 1.2160	29.7750
 1.2170	29.7880
 1.2180	29.7990
 1.2190	29.8130
 1.2200	29.8260
 1.2210	29.8400
 1.2220	29.8540
 1.2230	29.8670
 1.2240	29.8800
 1.2250	29.8920
 1.2260	29.9030
 1.2270	29.9150
 1.2280	29.9270
 1.2290	29.9390
 1.2300	29.9490
 1.2310	29.9610
 1.2320	29.9710
 1.2330	29.9820
 1.2340	29.9910
 1.2350	29.9990
 1.2360	30.0080
 1.2370	30.0150
 1.2380	30.0230
 1.2390	30.0300
 1.2400	30.0380
 1.2410	30.0450
 1.2420	30.0510
 1.2430	30.0560
 1.2440	30.0620
 1.2450	30.0680
 1.2460	30.0750
 1.2470	30.0800
 1.2480	30.0850
 1.2490	30.0870
 1.2500	30.0900
 1.2510	30.0920
 1.2520	30.0950
 1.2530	30.1000
 1.2540	30.1050
 1.2550	30.1080
 1.2560	30.1100
 1.2570	30.1100
 1.2580	30.1100
 1.2590	30.1100
 1.2600	30.1110
 1.2610	30.1120
 1.2620	30.1110
 1.2630	30.1110
 1.2640	30.1100
 1.2650	30.1080
 1.2660	30.1070
 1.2670	30.1050
 1.2680	30.1050
 1.2690	30.1040
 1.2700	30.1020
 1.2710	30.0980
 1.2720	30.0930
 1.2730	30.0890
 1.2740	30.0860
 1.2750	30.0830
 1.2760	30.0800
 1.2770	30.0750
 1.2780	30.0690
 1.2790	30.0620
 1.2800	30.0560
 1.2810	30.0480
 1.2820	30.0390
 1.2830	30.0310
 1.2840	30.0220
 1.2850	30.0100
 1.2860	30.0000
 1.2870	29.9890
 1.2880	29.9780
 1.2890	29.9650
 1.2900	29.9520
 1.2910	29.9380
 1.2920	29.9200
 1.2930	29.9020
 1.2940	29.8850
 1.2950	29.8670
 1.2960	29.8480
 1.2970	29.8300
 1.2980	29.8120
 1.2990	29.7900
 1.3000	29.7670
 1.3010	29.7430
 1.3020	29.7170
 1.3030	29.6900
 1.3040	29.6630
 1.3050	29.6350
 1.3060	29.6060
 1.3070	29.5770
 1.3080	29.5460
 1.3090	29.5130
 1.3100	29.4810
 1.3110	29.4470
 1.3120	29.4120
 1.3130	29.3770
 1.3140	29.3400
 1.3150	29.3030
 1.3160	29.2640
 1.3170	29.2230
 1.3180	29.1820
 1.3190	29.1390
 1.3200	29.0950
 1.3210	29.0500
 1.3220	29.0040
 1.3230	28.9560
 1.3240	28.9070
 1.3250	28.8580
 1.3260	28.8070
 1.3270	28.7550
 1.3280	28.7020
 1.3290	28.6460
 1.3300	28.5910
 1.3310	28.5370
 1.3320	28.4800
 1.3330	28.4210
 1.3340	28.3610
 1.3350	28.3010
 1.3360	28.2420
 1.3370	28.1840
 1.3380	28.1260
 1.3390	28.0670
 1.3400	28.0070
 1.3410	27.9480
 1.3420	27.8890
 1.3430	27.8300
 1.3440	27.7720
 1.3450	27.7140
 1.3460	27.6550
 1.3470	27.5970
 1.3480	27.5380
 1.3490	27.4800
 1.3500	27.4220
 1.3510	27.3660
 1.3520	27.3080
 1.3530	27.2500
 1.3540	27.1910
 1.3550	27.1320
 1.3560	27.0720
 1.3570	27.0130
 1.3580	26.9530
 1.3590	26.8910
 1.3600	26.8280
 1.3610	26.7630
 1.3620	26.6970
 1.3630	26.6300
 1.3640	26.5600
 1.3650	26.4870
 1.3660	26.4100
 1.3670	26.3280
 1.3680	26.2410
 1.3690	26.1480
 1.3700	26.0470
 1.3710	25.9400
 1.3720	25.8250
 1.3730	25.7000
 1.3740	25.5680
 1.3750	25.4260
 1.3760	25.2720
 1.3770	25.1050
 1.3780	24.9230
 1.3790	24.7290
 1.3800	24.5200
 1.3810	24.2970
 1.3820	24.0620
 1.3830	23.8150
 1.3840	23.5530
 1.3850	23.2800
 1.3860	22.9940
 1.3870	22.6930
 1.3880	22.3840
 1.3890	22.0650
 1.3900	21.7350
 1.3910	21.4000
 1.3920	21.0570
 1.3930	20.7070
 1.3940	20.3570
 1.3950	20.0000
 1.3960	19.6450
 1.3970	19.2920
 1.3980	18.9400
 1.3990	18.5980
 1.4000	18.2620
 1.4010	17.9310
 1.4020	17.6120
 1.4030	17.2990
 1.4040	16.9980
 1.4050	16.7090
 1.4060	16.4300
 1.4070	16.1670
 1.4080	15.9160
 1.4090	15.6770
 1.4100	15.4520
 1.4110	15.2380
 1.4120	15.0370
 1.4130	14.8500
 1.4140	14.6750
 1.4150	14.5130
 1.4160	14.3620
 1.4170	14.2210
 1.4180	14.0910
 1.4190	13.9690
 1.4200	13.8560
 1.4210	13.7520
 1.4220	13.6550
 1.4230	13.5670
 1.4240	13.4860
 1.4250	13.4110
 1.4260	13.3440
 1.4270	13.2810
 1.4280	13.2250
 1.4290	13.1730
 1.4300	13.1270
 1.4310	13.0860
 1.4320	13.0510
 1.4330	13.0190
 1.4340	12.9920
 1.4350	12.9680
 1.4360	12.9470
 1.4370	12.9310
 1.4380	12.9190
 1.4390	12.9100
 1.4400	12.9040
 1.4410	12.9010
 1.4420	12.9000
 1.4430	12.9010
 1.4440	12.9040
 1.4450	12.9080
 1.4460	12.9140
 1.4470	12.9220
 1.4480	12.9310
 1.4490	12.9420
 1.4500	12.9530
 1.4510	12.9660
 1.4520	12.9800
 1.4530	12.9950
 1.4540	13.0110
 1.4550	13.0300
 1.4560	13.0500
 1.4570	13.0720
 1.4580	13.0960
 1.4590	13.1230
 1.4600	13.1520
 1.4610	13.1840
 1.4620	13.2180
 1.4630	13.2570
 1.4640	13.2990
 1.4650	13.3450
 1.4660	13.3950
 1.4670	13.4470
 1.4680	13.5030
 1.4690	13.5620
 1.4700	13.6230
 1.4710	13.6890
 1.4720	13.7580
 1.4730	13.8300
 1.4740	13.9040
 1.4750	13.9810
 1.4760	14.0600
 1.4770	14.1410
