Name: Arctostaphylos glandulosa 2
Type: vegetation
Class: Shrub
Genus: Arctostaphylos
Species: glandulosa
Sample No.: VH248
Owner: UCSB
Wavelength Range: TIR
Origin: 37.0441; -119.3033; WGS84
Collection Date: 11/2/2013
Description: Samples were collected as part of the HyspIRI Airborne Campaign. 48 individual plants were sampled in three times in 2013 - spring  summer  and fall. The name of the sample includes a 1  2  or 3 which references a different individual of the species. Samples were taken to JPL and processed within 48 hours of collection. The same leaves were processed in the Nicolet and then measured using the ASD.
Measurement: Hemispherical reflectance
First Column: X
Second Column: Y
X Units: Wavelength (micrometers)
Y Units: Reflectance (percentage)
First X Value: 2.501
Last X Value: 15.387
Number of X Values: 1737
Additional Information: vegetation.shrub.arctostaphylos.glandulosa.tir.vh248.ucsb.nicolet.ancillary.txt

 2.5010	10.5830
 2.5030	10.7070
 2.5040	10.5560
 2.5050	10.4310
 2.5060	10.5400
 2.5070	10.4200
 2.5090	10.3870
 2.5100	10.3640
 2.5110	10.3100
 2.5120	10.2170
 2.5140	10.3060
 2.5150	10.4400
 2.5160	10.3940
 2.5170	10.2550
 2.5180	10.4240
 2.5200	10.4560
 2.5210	10.5310
 2.5220	10.4340
 2.5230	10.3110
 2.5250	10.3110
 2.5260	10.3230
 2.5270	10.2420
 2.5280	10.2980
 2.5290	10.4060
 2.5310	10.4480
 2.5320	10.4940
 2.5330	10.4970
 2.5340	10.2820
 2.5360	10.3180
 2.5370	10.4170
 2.5380	10.4480
 2.5390	10.2900
 2.5410	10.4000
 2.5420	10.4160
 2.5430	10.3760
 2.5440	10.1790
 2.5460	10.2580
 2.5470	10.4050
 2.5480	10.5390
 2.5490	10.5610
 2.5510	10.5500
 2.5520	10.6050
 2.5530	10.6850
 2.5540	10.4890
 2.5560	10.4820
 2.5570	10.4270
 2.5580	10.4090
 2.5590	10.4670
 2.5610	10.6300
 2.5620	10.7230
 2.5630	10.6830
 2.5640	10.5630
 2.5660	10.6310
 2.5670	10.5570
 2.5680	10.5630
 2.5700	10.5870
 2.5710	10.5900
 2.5720	10.4110
 2.5730	10.4250
 2.5750	10.4390
 2.5760	10.5460
 2.5770	10.6100
 2.5790	10.5810
 2.5800	10.4370
 2.5810	10.4730
 2.5820	10.5340
 2.5840	10.6030
 2.5850	10.5590
 2.5860	10.6140
 2.5880	10.6260
 2.5890	10.6100
 2.5900	10.4760
 2.5910	10.5120
 2.5930	10.4780
 2.5940	10.5900
 2.5950	10.6580
 2.5970	10.6150
 2.5980	10.5060
 2.5990	10.4710
 2.6000	10.3940
 2.6020	10.3300
 2.6030	10.2400
 2.6040	10.3410
 2.6060	10.3840
 2.6070	10.3510
 2.6080	10.1220
 2.6100	10.0700
 2.6110	10.0250
 2.6120	 9.9620
 2.6140	10.0050
 2.6150	10.0120
 2.6160	10.1200
 2.6180	10.1050
 2.6190	10.0460
 2.6200	10.0810
 2.6220	 9.9750
 2.6230	 9.8570
 2.6240	 9.7040
 2.6260	 9.6260
 2.6270	 9.5590
 2.6280	 9.5690
 2.6300	 9.6670
 2.6310	 9.7580
 2.6320	 9.4970
 2.6340	 9.3370
 2.6350	 9.2010
 2.6360	 9.1590
 2.6380	 9.2290
 2.6390	 9.4520
 2.6400	 9.4100
 2.6420	 9.2590
 2.6430	 9.0820
 2.6440	 9.0000
 2.6460	 9.0170
 2.6470	 8.9640
 2.6480	 8.8220
 2.6500	 8.8470
 2.6510	 8.8410
 2.6520	 8.8980
 2.6540	 8.7250
 2.6550	 8.5680
 2.6560	 8.5050
 2.6580	 8.6350
 2.6590	 8.6250
 2.6610	 8.5530
 2.6620	 8.4970
 2.6630	 8.3610
 2.6650	 8.1820
 2.6660	 8.2010
 2.6670	 8.1940
 2.6690	 8.2560
 2.6700	 8.2970
 2.6720	 8.1910
 2.6730	 8.0770
 2.6740	 8.2120
 2.6760	 8.0820
 2.6770	 8.0030
 2.6780	 7.9090
 2.6800	 7.7740
 2.6810	 7.6710
 2.6830	 7.7710
 2.6840	 7.6050
 2.6850	 7.5320
 2.6870	 7.6310
 2.6880	 7.6820
 2.6900	 7.6620
 2.6910	 7.4810
 2.6920	 7.3110
 2.6940	 7.4330
 2.6950	 7.4400
 2.6970	 7.5670
 2.6980	 7.3960
 2.6990	 7.1630
 2.7010	 7.1140
 2.7020	 7.2510
 2.7040	 7.2770
 2.7050	 7.2470
 2.7060	 7.0820
 2.7080	 7.0750
 2.7090	 7.0150
 2.7110	 6.9310
 2.7120	 6.8460
 2.7130	 6.9430
 2.7150	 6.9290
 2.7160	 6.6910
 2.7180	 6.5790
 2.7190	 6.6020
 2.7210	 6.7660
 2.7220	 6.8230
 2.7230	 6.9150
 2.7250	 7.2970
 2.7260	 7.1050
 2.7280	 6.8430
 2.7290	 6.7820
 2.7310	 6.7740
 2.7320	 6.5030
 2.7330	 6.6240
 2.7350	 6.8030
 2.7360	 6.7880
 2.7380	 6.5130
 2.7390	 6.5870
 2.7410	 6.9140
 2.7420	 6.9200
 2.7440	 6.6860
 2.7450	 6.5580
 2.7470	 6.5870
 2.7480	 6.4440
 2.7490	 6.4200
 2.7510	 6.7220
 2.7520	 6.6300
 2.7540	 6.4180
 2.7550	 6.3980
 2.7570	 6.8650
 2.7580	 6.8850
 2.7600	 6.5010
 2.7610	 6.4560
 2.7630	 6.7160
 2.7640	 6.8460
 2.7660	 6.8490
 2.7670	 6.8430
 2.7680	 6.8810
 2.7700	 6.9380
 2.7710	 6.9420
 2.7730	 6.5740
 2.7740	 6.3600
 2.7760	 6.2950
 2.7770	 6.5200
 2.7790	 6.7510
 2.7800	 6.6570
 2.7820	 6.3850
 2.7830	 6.6060
 2.7850	 6.6710
 2.7860	 6.6330
 2.7880	 6.5600
 2.7890	 6.7820
 2.7910	 6.7220
 2.7920	 6.7360
 2.7940	 6.7130
 2.7950	 6.6640
 2.7970	 6.6600
 2.7980	 6.8310
 2.8000	 6.6390
 2.8010	 6.5020
 2.8030	 6.4850
 2.8040	 6.5050
 2.8060	 6.4400
 2.8070	 6.5950
 2.8090	 6.6610
 2.8110	 6.7490
 2.8120	 6.5320
 2.8140	 6.4680
 2.8150	 6.4720
 2.8170	 6.5620
 2.8180	 6.4750
 2.8200	 6.5260
 2.8210	 6.5980
 2.8230	 6.6250
 2.8240	 6.5570
 2.8260	 6.5740
 2.8270	 6.6600
 2.8290	 6.6690
 2.8300	 6.7750
 2.8320	 6.8730
 2.8340	 6.6640
 2.8350	 6.5670
 2.8370	 6.5200
 2.8380	 6.6270
 2.8400	 6.5680
 2.8410	 6.6540
 2.8430	 6.7420
 2.8440	 6.6300
 2.8460	 6.5240
 2.8480	 6.6640
 2.8490	 6.6990
 2.8510	 6.7480
 2.8520	 6.8120
 2.8540	 6.7030
 2.8550	 6.6500
 2.8570	 6.9010
 2.8590	 6.8890
 2.8600	 6.7740
 2.8620	 6.6520
 2.8630	 6.6400
 2.8650	 6.5900
 2.8660	 6.7370
 2.8680	 6.6010
 2.8700	 6.5360
 2.8710	 6.5770
 2.8730	 6.7840
 2.8740	 6.6900
 2.8760	 6.5990
 2.8780	 6.5370
 2.8790	 6.4290
 2.8810	 6.5550
 2.8820	 6.9340
 2.8840	 7.0300
 2.8860	 7.0090
 2.8870	 6.7960
 2.8890	 6.7150
 2.8900	 6.4750
 2.8920	 6.7450
 2.8940	 6.9980
 2.8950	 6.7900
 2.8970	 6.3260
 2.8980	 6.4880
 2.9000	 6.7600
 2.9020	 6.9220
 2.9030	 6.8810
 2.9050	 6.7780
 2.9070	 6.5900
 2.9080	 6.6450
 2.9100	 6.6580
 2.9120	 6.6870
 2.9130	 6.4590
 2.9150	 6.6420
 2.9160	 6.6780
 2.9180	 6.6110
 2.9200	 6.6910
 2.9210	 6.7760
 2.9230	 6.7490
 2.9250	 6.8070
 2.9260	 6.7550
 2.9280	 6.8700
 2.9300	 6.8100
 2.9310	 6.8920
 2.9330	 7.1160
 2.9350	 7.0750
 2.9360	 6.7640
 2.9380	 6.7790
 2.9400	 6.8710
 2.9410	 6.8740
 2.9430	 6.4150
 2.9450	 6.1730
 2.9460	 6.1760
 2.9480	 6.5620
 2.9500	 6.8160
 2.9510	 6.4840
 2.9530	 6.2680
 2.9550	 6.6450
 2.9560	 6.4190
 2.9580	 6.6470
 2.9600	 7.0900
 2.9610	 6.9940
 2.9630	 6.6990
 2.9650	 6.6390
 2.9660	 6.2320
 2.9680	 6.3910
 2.9700	 6.0270
 2.9720	 6.6640
 2.9730	 7.5680
 2.9750	 7.0200
 2.9770	 7.1150
 2.9780	 6.9640
 2.9800	 6.2290
 2.9820	 7.0430
 2.9840	 7.2170
 2.9850	 7.1760
 2.9870	 6.5050
 2.9890	 6.8700
 2.9900	 6.7790
 2.9920	 6.3190
 2.9940	 5.0790
 2.9960	 4.4580
 2.9970	 6.6600
 2.9990	 8.4290
 3.0010	 8.2990
 3.0030	 7.0340
 3.0040	 6.6460
 3.0060	 6.8480
 3.0080	 6.7340
 3.0100	 6.7600
 3.0110	 6.8130
 3.0130	 7.1870
 3.0150	 7.9630
 3.0170	 7.4670
 3.0180	 6.4590
 3.0200	 6.5900
 3.0220	 6.9310
 3.0240	 7.0110
 3.0250	 6.7970
 3.0270	 6.6760
 3.0290	 6.5940
 3.0310	 6.6330
 3.0320	 6.8700
 3.0340	 7.0470
 3.0360	 6.5410
 3.0380	 5.9560
 3.0400	 5.7340
 3.0410	 7.0210
 3.0430	 6.8420
 3.0450	 6.7390
 3.0470	 7.4570
 3.0480	 6.7870
 3.0500	 6.4680
 3.0520	 8.0450
 3.0540	 8.2400
 3.0560	 6.9940
 3.0570	 6.0890
 3.0590	 5.9440
 3.0610	 6.3950
 3.0630	 7.1020
 3.0650	 7.5620
 3.0660	 7.4160
 3.0680	 7.3050
 3.0700	 7.1010
 3.0720	 6.8100
 3.0740	 6.6440
 3.0760	 6.6000
 3.0770	 6.7700
 3.0790	 7.0450
 3.0810	 6.8770
 3.0830	 6.6840
 3.0850	 6.8080
 3.0870	 6.8480
 3.0880	 6.8210
 3.0900	 6.8110
 3.0920	 6.9240
 3.0940	 6.9890
 3.0960	 6.8240
 3.0980	 6.6200
 3.0990	 6.7070
 3.1010	 6.7180
 3.1030	 6.6980
 3.1050	 6.8880
 3.1070	 6.7940
 3.1090	 6.8490
 3.1110	 6.9470
 3.1120	 6.9320
 3.1140	 6.8920
 3.1160	 6.7640
 3.1180	 6.6620
 3.1200	 6.7560
 3.1220	 6.6700
 3.1240	 6.6530
 3.1260	 6.6290
 3.1270	 6.7290
 3.1290	 6.6190
 3.1310	 6.4580
 3.1330	 6.5670
 3.1350	 7.1170
 3.1370	 7.0170
 3.1390	 7.1850
 3.1410	 7.5620
 3.1430	 7.6050
 3.1450	 7.8610
 3.1460	 7.7000
 3.1480	 6.4130
 3.1500	 7.0380
 3.1520	 8.7020
 3.1540	 7.8380
 3.1560	 7.1600
 3.1580	 6.6420
 3.1600	 6.3350
 3.1620	 6.4940
 3.1640	 6.7030
 3.1660	 6.1780
 3.1680	 5.6800
 3.1700	 5.4530
 3.1710	 5.6950
 3.1730	 7.1790
 3.1750	 6.9790
 3.1770	 5.1840
 3.1790	 5.7360
 3.1810	 7.4520
 3.1830	 7.0040
 3.1850	 6.2370
 3.1870	 6.8850
 3.1890	 7.1940
 3.1910	 6.8970
 3.1930	 6.5590
 3.1950	 6.6130
 3.1970	 6.6720
 3.1990	 6.7300
 3.2010	 6.5210
 3.2030	 6.4850
 3.2050	 6.4040
 3.2070	 6.5480
 3.2090	 6.7330
 3.2110	 6.8910
 3.2130	 6.8150
 3.2150	 6.7990
 3.2170	 6.6970
 3.2190	 6.7720
 3.2210	 6.7200
 3.2230	 6.6660
 3.2250	 6.5870
 3.2270	 6.6390
 3.2290	 6.7570
 3.2310	 7.0130
 3.2330	 6.8580
 3.2350	 6.5280
 3.2370	 6.5070
 3.2390	 6.9740
 3.2410	 7.0160
 3.2430	 6.7480
 3.2450	 6.5650
 3.2470	 6.6410
 3.2490	 6.6640
 3.2510	 6.7710
 3.2530	 6.6950
 3.2550	 6.7950
 3.2570	 6.8240
 3.2590	 6.7240
 3.2610	 6.6180
 3.2630	 6.7420
 3.2650	 6.7650
 3.2670	 6.7490
 3.2690	 6.5710
 3.2720	 6.6000
 3.2740	 6.6320
 3.2760	 6.6760
 3.2780	 6.6740
 3.2800	 6.6880
 3.2820	 6.5860
 3.2840	 6.6650
 3.2860	 6.6870
 3.2880	 6.7560
 3.2900	 6.7560
 3.2920	 6.7420
 3.2940	 6.5920
 3.2960	 6.4490
 3.2990	 6.5480
 3.3010	 6.6790
 3.3030	 6.6470
 3.3050	 6.8100
 3.3070	 6.5910
 3.3090	 6.3390
 3.3110	 6.2520
 3.3130	 6.3800
 3.3150	 6.5710
 3.3180	 6.6690
 3.3200	 6.4630
 3.3220	 6.3490
 3.3240	 6.2470
 3.3260	 6.4010
 3.3280	 6.4860
 3.3300	 6.5290
 3.3330	 6.5140
 3.3350	 6.5130
 3.3370	 6.5070
 3.3390	 6.4860
 3.3410	 6.5400
 3.3430	 6.5430
 3.3450	 6.3660
 3.3480	 6.3430
 3.3500	 6.3410
 3.3520	 6.3790
 3.3540	 6.2400
 3.3560	 6.3480
 3.3580	 6.3510
 3.3610	 6.2430
 3.3630	 6.2260
 3.3650	 6.3060
 3.3670	 6.3040
 3.3690	 6.3030
 3.3720	 6.2270
 3.3740	 6.2510
 3.3760	 6.1370
 3.3780	 6.2430
 3.3800	 6.2550
 3.3830	 6.2450
 3.3850	 6.2250
 3.3870	 6.2220
 3.3890	 6.1750
 3.3910	 6.0180
 3.3940	 5.9050
 3.3960	 5.8740
 3.3980	 5.9820
 3.4000	 6.0230
 3.4020	 5.9960
 3.4050	 6.0370
 3.4070	 5.9590
 3.4090	 6.0840
 3.4110	 6.3550
 3.4140	 6.6480
 3.4160	 6.7280
 3.4180	 6.8880
 3.4200	 7.2100
 3.4230	 7.7880
 3.4250	 8.4310
 3.4270	 9.0260
 3.4290	 9.3250
 3.4320	 9.2920
 3.4340	 8.8200
 3.4360	 8.1860
 3.4390	 7.7660
 3.4410	 7.7110
 3.4430	 7.7630
 3.4450	 7.9080
 3.4480	 7.7880
 3.4500	 7.6850
 3.4520	 7.5690
 3.4550	 7.6180
 3.4570	 7.5950
 3.4590	 7.5070
 3.4620	 7.5530
 3.4640	 7.4870
 3.4660	 7.3390
 3.4680	 7.3670
 3.4710	 7.3220
 3.4730	 7.1830
 3.4750	 7.1250
 3.4780	 7.1360
 3.4800	 7.0240
 3.4820	 7.0220
 3.4850	 7.0370
 3.4870	 6.9230
 3.4890	 6.8000
 3.4920	 6.7600
 3.4940	 6.6890
 3.4970	 6.7710
 3.4990	 6.7570
 3.5010	 6.8350
 3.5040	 7.1160
 3.5060	 7.6780
 3.5080	 8.4250
 3.5110	 8.9860
 3.5130	 8.8310
 3.5160	 8.5120
 3.5180	 8.2440
 3.5200	 8.1970
 3.5230	 8.0200
 3.5250	 7.8200
 3.5270	 7.6460
 3.5300	 7.5940
 3.5320	 7.5580
 3.5350	 7.5140
 3.5370	 7.3810
 3.5400	 7.5610
 3.5420	 7.4790
 3.5440	 7.4190
 3.5470	 7.3600
 3.5490	 7.3540
 3.5520	 7.3820
 3.5540	 7.3840
 3.5570	 7.3750
 3.5590	 7.3780
 3.5610	 7.3670
 3.5640	 7.3430
 3.5660	 7.2760
 3.5690	 7.2730
 3.5710	 7.1170
 3.5740	 7.0530
 3.5760	 7.1280
 3.5790	 7.2530
 3.5810	 7.2230
 3.5840	 7.2140
 3.5860	 7.1430
 3.5890	 7.2410
 3.5910	 7.2970
 3.5930	 7.3690
 3.5960	 7.2230
 3.5980	 7.1340
 3.6010	 7.1880
 3.6030	 7.2410
 3.6060	 7.2240
 3.6080	 7.2150
 3.6110	 7.2750
 3.6140	 7.2820
 3.6160	 7.2650
 3.6190	 7.2880
 3.6210	 7.1820
 3.6240	 7.0920
 3.6260	 7.0890
 3.6290	 7.1640
 3.6310	 7.1590
 3.6340	 7.1580
 3.6360	 7.1250
 3.6390	 7.1540
 3.6410	 7.2310
 3.6440	 7.2190
 3.6470	 7.1300
 3.6490	 7.2040
 3.6520	 7.2550
 3.6540	 7.1830
 3.6570	 7.1250
 3.6590	 7.1770
 3.6620	 7.0830
 3.6650	 7.0710
 3.6670	 7.1270
 3.6700	 7.0800
 3.6720	 7.1600
 3.6750	 7.3330
 3.6780	 7.3430
 3.6800	 7.2170
 3.6830	 7.1830
 3.6850	 7.3340
 3.6880	 7.2690
 3.6910	 7.2120
 3.6930	 7.2540
 3.6960	 7.2250
 3.6990	 7.1320
 3.7010	 7.1820
 3.7040	 7.1420
 3.7060	 7.1050
 3.7090	 7.1650
 3.7120	 7.2170
 3.7140	 7.1000
 3.7170	 7.0890
 3.7200	 7.0460
 3.7220	 7.1540
 3.7250	 7.2320
 3.7280	 7.2210
 3.7300	 7.2450
 3.7330	 7.2600
 3.7360	 7.2040
 3.7390	 7.2320
 3.7410	 7.3470
 3.7440	 7.4040
 3.7470	 7.2880
 3.7490	 7.2250
 3.7520	 7.3050
 3.7550	 7.3340
 3.7580	 7.2720
 3.7600	 7.3970
 3.7630	 7.3610
 3.7660	 7.3930
 3.7680	 7.4000
 3.7710	 7.3900
 3.7740	 7.3830
 3.7770	 7.3730
 3.7790	 7.3730
 3.7820	 7.4590
 3.7850	 7.4760
 3.7880	 7.4360
 3.7900	 7.4100
 3.7930	 7.4460
 3.7960	 7.3960
 3.7990	 7.4150
 3.8020	 7.4770
 3.8040	 7.6200
 3.8070	 7.5400
 3.8100	 7.4770
 3.8130	 7.4900
 3.8160	 7.5320
 3.8180	 7.5150
 3.8210	 7.5120
 3.8240	 7.4860
 3.8270	 7.4670
 3.8300	 7.4380
 3.8330	 7.5310
 3.8350	 7.6900
 3.8380	 7.7660
 3.8410	 7.7460
 3.8440	 7.7370
 3.8470	 7.6860
 3.8500	 7.7250
 3.8520	 7.7490
 3.8550	 7.6580
 3.8580	 7.5550
 3.8610	 7.6350
 3.8640	 7.6590
 3.8670	 7.6150
 3.8700	 7.5390
 3.8730	 7.4580
 3.8750	 7.4480
 3.8780	 7.6410
 3.8810	 7.7130
 3.8840	 7.7080
 3.8870	 7.7170
 3.8900	 7.7210
 3.8930	 7.7340
 3.8960	 7.7460
 3.8990	 7.7400
 3.9020	 7.7440
 3.9050	 7.6860
 3.9080	 7.6260
 3.9110	 7.6240
 3.9140	 7.7140
 3.9160	 7.6630
 3.9190	 7.6820
 3.9220	 7.7240
 3.9250	 7.7410
 3.9280	 7.6410
 3.9310	 7.5500
 3.9340	 7.5870
 3.9370	 7.7140
 3.9400	 7.7020
 3.9430	 7.6070
 3.9460	 7.6230
 3.9490	 7.7180
 3.9520	 7.7090
 3.9550	 7.7250
 3.9580	 7.7790
 3.9610	 7.8810
 3.9640	 7.8270
 3.9670	 7.8360
 3.9700	 7.7980
 3.9730	 7.8230
 3.9770	 7.8250
 3.9800	 7.7730
 3.9830	 7.6810
 3.9860	 7.6450
 3.9890	 7.6270
 3.9920	 7.6660
 3.9950	 7.7460
 3.9980	 7.7850
 4.0010	 7.7960
 4.0040	 7.8040
 4.0070	 7.6650
 4.0100	 7.6890
 4.0130	 7.7030
 4.0170	 7.7040
 4.0200	 7.7900
 4.0230	 7.8750
 4.0260	 7.7680
 4.0290	 7.6750
 4.0320	 7.6600
 4.0350	 7.6530
 4.0380	 7.6450
 4.0420	 7.7850
 4.0450	 7.8540
 4.0480	 7.8230
 4.0510	 7.7550
 4.0540	 7.7610
 4.0570	 7.6940
 4.0610	 7.6630
 4.0640	 7.7140
 4.0670	 7.8270
 4.0700	 7.8500
 4.0730	 7.8290
 4.0770	 7.7350
 4.0800	 7.6610
 4.0830	 7.6610
 4.0860	 7.7250
 4.0890	 7.7170
 4.0930	 7.6790
 4.0960	 7.6340
 4.0990	 7.6400
 4.1020	 7.5910
 4.1060	 7.7010
 4.1090	 7.7710
 4.1120	 7.7210
 4.1150	 7.7580
 4.1190	 7.7620
 4.1220	 7.7270
 4.1250	 7.7240
 4.1280	 7.7950
 4.1320	 7.9060
 4.1350	 7.8660
 4.1380	 7.7270
 4.1420	 7.6790
 4.1450	 7.7470
 4.1480	 7.7060
 4.1520	 7.6410
 4.1550	 7.6180
 4.1580	 7.6160
 4.1620	 7.6190
 4.1650	 7.6580
 4.1680	 7.6560
 4.1720	 7.6470
 4.1750	 7.6180
 4.1780	 7.6960
 4.1820	 7.6510
 4.1850	 7.6240
 4.1890	 7.6740
 4.1920	 7.7340
 4.1950	 7.7730
 4.1990	 7.7810
 4.2020	 7.7560
 4.2060	 7.7890
 4.2090	 7.7760
 4.2120	 7.6290
 4.2160	 7.7470
 4.2190	 8.0620
 4.2230	 8.4470
 4.2260	 8.5660
 4.2300	 8.1410
 4.2330	 7.6790
 4.2360	 7.5160
 4.2400	 7.9850
 4.2430	 8.3250
 4.2470	 8.0860
 4.2500	 7.5940
 4.2540	 7.5900
 4.2570	 7.6390
 4.2610	 7.7230
 4.2640	 7.8260
 4.2680	 7.8930
 4.2710	 7.7230
 4.2750	 7.7940
 4.2780	 7.9140
 4.2820	 7.9590
 4.2850	 7.8360
 4.2890	 7.6370
 4.2930	 7.6210
 4.2960	 7.6250
 4.3000	 7.6780
 4.3030	 7.7250
 4.3070	 7.5600
 4.3100	 7.4420
 4.3140	 7.5740
 4.3180	 7.5670
 4.3210	 7.3870
 4.3250	 7.3430
 4.3280	 7.4450
 4.3320	 7.4840
 4.3360	 7.3990
 4.3390	 7.3000
 4.3430	 7.3390
 4.3470	 7.3930
 4.3500	 7.3040
 4.3540	 7.2630
 4.3570	 7.2840
 4.3610	 7.3020
 4.3650	 7.2470
 4.3680	 7.1230
 4.3720	 7.0650
 4.3760	 7.1090
 4.3800	 7.0990
 4.3830	 7.1320
 4.3870	 7.1130
 4.3910	 7.1260
 4.3940	 7.1550
 4.3980	 7.1410
 4.4020	 7.0700
 4.4060	 7.0260
 4.4090	 7.0350
 4.4130	 6.9300
 4.4170	 6.8910
 4.4210	 6.9690
 4.4240	 7.0310
 4.4280	 7.1140
 4.4320	 7.0800
 4.4360	 7.0100
 4.4400	 6.9490
 4.4430	 6.8980
 4.4470	 6.9440
 4.4510	 7.0440
 4.4550	 7.0730
 4.4590	 7.0240
 4.4620	 7.0640
 4.4660	 7.0940
 4.4700	 7.0280
 4.4740	 7.0130
 4.4780	 7.0340
 4.4820	 7.0380
 4.4860	 7.0360
 4.4900	 7.0120
 4.4930	 6.9660
 4.4970	 6.8870
 4.5010	 6.8890
 4.5050	 6.9650
 4.5090	 6.9370
 4.5130	 6.8850
 4.5170	 6.9050
 4.5210	 6.8610
 4.5250	 6.8010
 4.5290	 6.8300
 4.5330	 6.8680
 4.5370	 6.8320
 4.5410	 6.8240
 4.5450	 6.8980
 4.5490	 6.9090
 4.5530	 6.8510
 4.5570	 6.8200
 4.5610	 6.8150
 4.5650	 6.7790
 4.5690	 6.7650
 4.5730	 6.8460
 4.5770	 6.9190
 4.5810	 6.8630
 4.5850	 6.8290
 4.5890	 6.8830
 4.5930	 6.9370
 4.5970	 6.8250
 4.6010	 6.6810
 4.6050	 6.7480
 4.6090	 6.7490
 4.6130	 6.6150
 4.6170	 6.7260
 4.6220	 6.8290
 4.6260	 6.8290
 4.6300	 6.8760
 4.6340	 6.7810
 4.6380	 6.7110
 4.6420	 6.7570
 4.6460	 6.7480
 4.6510	 6.8330
 4.6550	 6.8260
 4.6590	 6.7040
 4.6630	 6.6980
 4.6670	 6.6970
 4.6720	 6.7760
 4.6760	 6.8290
 4.6800	 6.7930
 4.6840	 6.7740
 4.6880	 6.7750
 4.6930	 6.7240
 4.6970	 6.7880
 4.7010	 6.8470
 4.7050	 6.8510
 4.7100	 6.8180
 4.7140	 6.8060
 4.7180	 6.8400
 4.7230	 6.8850
 4.7270	 6.8320
 4.7310	 6.6970
 4.7360	 6.6650
 4.7400	 6.7610
 4.7440	 6.7450
 4.7490	 6.7650
 4.7530	 6.7860
 4.7570	 6.6850
 4.7620	 6.6300
 4.7660	 6.5710
 4.7700	 6.5150
 4.7750	 6.5700
 4.7790	 6.7800
 4.7840	 6.9040
 4.7880	 6.7860
 4.7920	 6.4900
 4.7970	 6.4580
 4.8010	 6.4830
 4.8060	 6.5570
 4.8100	 6.5850
 4.8150	 6.5700
 4.8190	 6.6300
 4.8240	 6.7110
 4.8280	 6.7590
 4.8330	 6.7990
 4.8370	 6.7790
 4.8420	 6.7200
 4.8460	 6.7060
 4.8510	 6.6090
 4.8550	 6.6420
 4.8600	 6.6840
 4.8640	 6.6210
 4.8690	 6.6300
 4.8730	 6.7370
 4.8780	 6.7680
 4.8830	 6.7280
 4.8870	 6.6240
 4.8920	 6.6250
 4.8960	 6.7070
 4.9010	 6.7620
 4.9060	 6.6920
 4.9100	 6.6510
 4.9150	 6.6370
 4.9200	 6.6390
 4.9240	 6.7230
 4.9290	 6.7830
 4.9340	 6.7660
 4.9380	 6.8080
 4.9430	 6.8010
 4.9480	 6.7590
 4.9530	 6.7390
 4.9570	 6.7090
 4.9620	 6.6750
 4.9670	 6.7070
 4.9720	 6.7650
 4.9760	 6.8360
 4.9810	 6.7820
 4.9860	 6.7300
 4.9910	 6.7730
 4.9960	 6.7480
 5.0000	 6.6530
 5.0050	 6.6910
 5.0100	 6.6960
 5.0150	 6.7490
 5.0200	 6.7590
 5.0250	 6.7240
 5.0290	 6.6840
 5.0340	 6.7420
 5.0390	 6.8260
 5.0440	 6.8820
 5.0490	 6.8860
 5.0540	 6.8810
 5.0590	 6.8240
 5.0640	 6.8250
 5.0690	 6.8080
 5.0740	 6.8630
 5.0790	 6.9010
 5.0840	 6.8370
 5.0890	 6.7640
 5.0940	 6.7670
 5.0990	 6.8060
 5.1040	 6.8980
 5.1090	 6.9450
 5.1140	 6.8820
 5.1190	 6.8090
 5.1240	 6.7970
 5.1290	 6.7990
 5.1340	 6.8280
 5.1390	 6.8180
 5.1440	 6.8900
 5.1490	 6.9020
 5.1540	 6.8500
 5.1600	 6.8860
 5.1650	 6.9850
 5.1700	 7.0020
 5.1750	 6.9570
 5.1800	 6.9710
 5.1850	 7.0360
 5.1910	 7.0510
 5.1960	 7.0090
 5.2010	 6.9710
 5.2060	 6.9270
 5.2110	 6.9620
 5.2170	 6.9830
 5.2220	 6.9540
 5.2270	 6.9810
 5.2320	 6.9930
 5.2380	 6.9250
 5.2430	 6.9030
 5.2480	 6.9840
 5.2540	 7.0080
 5.2590	 6.9940
 5.2640	 6.8650
 5.2700	 6.7990
 5.2750	 6.8300
 5.2800	 6.9110
 5.2860	 6.9980
 5.2910	 7.1130
 5.2970	 7.0630
 5.3020	 6.9790
 5.3070	 6.9320
 5.3130	 6.8890
 5.3180	 6.9400
 5.3240	 7.0360
 5.3290	 6.9530
 5.3350	 6.8660
 5.3400	 6.8660
 5.3460	 6.8970
 5.3510	 6.8690
 5.3570	 6.8790
 5.3620	 6.8780
 5.3680	 6.9030
 5.3730	 6.9200
 5.3790	 6.8410
 5.3850	 6.8030
 5.3900	 6.8350
 5.3960	 6.7430
 5.4010	 6.7270
 5.4070	 6.7940
 5.4130	 6.7610
 5.4180	 6.6870
 5.4240	 6.7260
 5.4300	 6.7160
