Name: Acacia caven
Type: vegetation
Class: Tree
Genus: Acacia
Species: caven
Sample No.: JPL140
Owner: JPL
Wavelength Range: VSWIR
Origin: 34.12565; -118.11028; WGS84
Collection Date: 9/14/2016
Description: Samples were collected at the Huntington Garden in San Marino California as part of a JPL Subcontract studying HyTES imagery. Samples were taken to JPL and processed within 48 hours of collection. The same leaves were processed in the Nicolet and then measured using the ASD.
Measurement: Bidirectional reflectance
First Column: X
Second Column: Y
X Units: Wavelength (micrometer)
Y Units: Reflectance (percentage)
First X Value: 0.35
Last X Value: 2.5
Number of X Values: 2151
Additional Information: vegetation.tree.acacia.caven.vswir.jpl140.jpl.asd.ancillary.txt

 0.3500	 1.3210
 0.3510	 1.2070
 0.3520	 1.1280
 0.3530	 1.1030
 0.3540	 1.1330
 0.3550	 1.2430
 0.3560	 1.3150
 0.3570	 1.3050
 0.3580	 1.2330
 0.3590	 1.2110
 0.3600	 1.2020
 0.3610	 1.1720
 0.3620	 1.1070
 0.3630	 1.1590
 0.3640	 1.2150
 0.3650	 1.1610
 0.3660	 1.1630
 0.3670	 1.1740
 0.3680	 1.1980
 0.3690	 1.2690
 0.3700	 1.2580
 0.3710	 1.2100
 0.3720	 1.1770
 0.3730	 1.1810
 0.3740	 1.2200
 0.3750	 1.2470
 0.3760	 1.2230
 0.3770	 1.2030
 0.3780	 1.2310
 0.3790	 1.2650
 0.3800	 1.2070
 0.3810	 1.2330
 0.3820	 1.2630
 0.3830	 1.2340
 0.3840	 1.2150
 0.3850	 1.2230
 0.3860	 1.2590
 0.3870	 1.3010
 0.3880	 1.2480
 0.3890	 1.2320
 0.3900	 1.2810
 0.3910	 1.3010
 0.3920	 1.2970
 0.3930	 1.2790
 0.3940	 1.2650
 0.3950	 1.2760
 0.3960	 1.2620
 0.3970	 1.2440
 0.3980	 1.2670
 0.3990	 1.2580
 0.4000	 1.2800
 0.4010	 1.3360
 0.4020	 1.3330
 0.4030	 1.3110
 0.4040	 1.3000
 0.4050	 1.3130
 0.4060	 1.3170
 0.4070	 1.3250
 0.4080	 1.3360
 0.4090	 1.3440
 0.4100	 1.3230
 0.4110	 1.3150
 0.4120	 1.3330
 0.4130	 1.3330
 0.4140	 1.3490
 0.4150	 1.3640
 0.4160	 1.3600
 0.4170	 1.3610
 0.4180	 1.3740
 0.4190	 1.3890
 0.4200	 1.3770
 0.4210	 1.3850
 0.4220	 1.4050
 0.4230	 1.4250
 0.4240	 1.4430
 0.4250	 1.4520
 0.4260	 1.4610
 0.4270	 1.4820
 0.4280	 1.4940
 0.4290	 1.5040
 0.4300	 1.5160
 0.4310	 1.5310
 0.4320	 1.5560
 0.4330	 1.5840
 0.4340	 1.6050
 0.4350	 1.6120
 0.4360	 1.6320
 0.4370	 1.6620
 0.4380	 1.6700
 0.4390	 1.6770
 0.4400	 1.6900
 0.4410	 1.7120
 0.4420	 1.7340
 0.4430	 1.7520
 0.4440	 1.7740
 0.4450	 1.8080
 0.4460	 1.8250
 0.4470	 1.8390
 0.4480	 1.8590
 0.4490	 1.8850
 0.4500	 1.9130
 0.4510	 1.9420
 0.4520	 1.9690
 0.4530	 1.9880
 0.4540	 2.0120
 0.4550	 2.0370
 0.4560	 2.0470
 0.4570	 2.0660
 0.4580	 2.0840
 0.4590	 2.0970
 0.4600	 2.1170
 0.4610	 2.1320
 0.4620	 2.1450
 0.4630	 2.1610
 0.4640	 2.1750
 0.4650	 2.1990
 0.4660	 2.2280
 0.4670	 2.2330
 0.4680	 2.2370
 0.4690	 2.2470
 0.4700	 2.2640
 0.4710	 2.2750
 0.4720	 2.2890
 0.4730	 2.3040
 0.4740	 2.3110
 0.4750	 2.3250
 0.4760	 2.3320
 0.4770	 2.3320
 0.4780	 2.3470
 0.4790	 2.3600
 0.4800	 2.3700
 0.4810	 2.3760
 0.4820	 2.3880
 0.4830	 2.4030
 0.4840	 2.4180
 0.4850	 2.4280
 0.4860	 2.4420
 0.4870	 2.4580
 0.4880	 2.4750
 0.4890	 2.4910
 0.4900	 2.5060
 0.4910	 2.5210
 0.4920	 2.5400
 0.4930	 2.5580
 0.4940	 2.5790
 0.4950	 2.6030
 0.4960	 2.6200
 0.4970	 2.6480
 0.4980	 2.6770
 0.4990	 2.6970
 0.5000	 2.7260
 0.5010	 2.7610
 0.5020	 2.7980
 0.5030	 2.8330
 0.5040	 2.8760
 0.5050	 2.9220
 0.5060	 2.9660
 0.5070	 3.0090
 0.5080	 3.0560
 0.5090	 3.1070
 0.5100	 3.1610
 0.5110	 3.2230
 0.5120	 3.2850
 0.5130	 3.3470
 0.5140	 3.4150
 0.5150	 3.4830
 0.5160	 3.5500
 0.5170	 3.6190
 0.5180	 3.6930
 0.5190	 3.7680
 0.5200	 3.8400
 0.5210	 3.9130
 0.5220	 3.9890
 0.5230	 4.0630
 0.5240	 4.1340
 0.5250	 4.2010
 0.5260	 4.2720
 0.5270	 4.3400
 0.5280	 4.3980
 0.5290	 4.4550
 0.5300	 4.5100
 0.5310	 4.5640
 0.5320	 4.6120
 0.5330	 4.6540
 0.5340	 4.6950
 0.5350	 4.7380
 0.5360	 4.7790
 0.5370	 4.8170
 0.5380	 4.8540
 0.5390	 4.8960
 0.5400	 4.9490
 0.5410	 5.0070
 0.5420	 5.0640
 0.5430	 5.1130
 0.5440	 5.1430
 0.5450	 5.1550
 0.5460	 5.1560
 0.5470	 5.1470
 0.5480	 5.1400
 0.5490	 5.1420
 0.5500	 5.1490
 0.5510	 5.1570
 0.5520	 5.1630
 0.5530	 5.1640
 0.5540	 5.1650
 0.5550	 5.1590
 0.5560	 5.1480
 0.5570	 5.1410
 0.5580	 5.1330
 0.5590	 5.1230
 0.5600	 5.1090
 0.5610	 5.0960
 0.5620	 5.0800
 0.5630	 5.0640
 0.5640	 5.0480
 0.5650	 5.0280
 0.5660	 5.0080
 0.5670	 4.9900
 0.5680	 4.9680
 0.5690	 4.9410
 0.5700	 4.9120
 0.5710	 4.8830
 0.5720	 4.8550
 0.5730	 4.8280
 0.5740	 4.8020
 0.5750	 4.7730
 0.5760	 4.7460
 0.5770	 4.7210
 0.5780	 4.6980
 0.5790	 4.6810
 0.5800	 4.6640
 0.5810	 4.6490
 0.5820	 4.6330
 0.5830	 4.6150
 0.5840	 4.5990
 0.5850	 4.5860
 0.5860	 4.5730
 0.5870	 4.5640
 0.5880	 4.5570
 0.5890	 4.5500
 0.5900	 4.5370
 0.5910	 4.5300
 0.5920	 4.5260
 0.5930	 4.5170
 0.5940	 4.5120
 0.5950	 4.5090
 0.5960	 4.5060
 0.5970	 4.5030
 0.5980	 4.5020
 0.5990	 4.5010
 0.6000	 4.4960
 0.6010	 4.4890
 0.6020	 4.4780
 0.6030	 4.4640
 0.6040	 4.4530
 0.6050	 4.4370
 0.6060	 4.4180
 0.6070	 4.3990
 0.6080	 4.3790
 0.6090	 4.3640
 0.6100	 4.3610
 0.6110	 4.3700
 0.6120	 4.3460
 0.6130	 4.3000
 0.6140	 4.2490
 0.6150	 4.2160
 0.6160	 4.1840
 0.6170	 4.1530
 0.6180	 4.1290
 0.6190	 4.1140
 0.6200	 4.0980
 0.6210	 4.0800
 0.6220	 4.0660
 0.6230	 4.0540
 0.6240	 4.0440
 0.6250	 4.0370
 0.6260	 4.0310
 0.6270	 4.0260
 0.6280	 4.0240
 0.6290	 4.0270
 0.6300	 4.0320
 0.6310	 4.0340
 0.6320	 4.0320
 0.6330	 4.0270
 0.6340	 4.0220
 0.6350	 4.0170
 0.6360	 4.0110
 0.6370	 3.9970
 0.6380	 3.9820
 0.6390	 3.9670
 0.6400	 3.9500
 0.6410	 3.9300
 0.6420	 3.9070
 0.6430	 3.8830
 0.6440	 3.8530
 0.6450	 3.8210
 0.6460	 3.7900
 0.6470	 3.7600
 0.6480	 3.7300
 0.6490	 3.7000
 0.6500	 3.6740
 0.6510	 3.6500
 0.6520	 3.6290
 0.6530	 3.6090
 0.6540	 3.5860
 0.6550	 3.5560
 0.6560	 3.5240
 0.6570	 3.4890
 0.6580	 3.4540
 0.6590	 3.4130
 0.6600	 3.3720
 0.6610	 3.3290
 0.6620	 3.2840
 0.6630	 3.2400
 0.6640	 3.1960
 0.6650	 3.1560
 0.6660	 3.1240
 0.6670	 3.0940
 0.6680	 3.0660
 0.6690	 3.0440
 0.6700	 3.0250
 0.6710	 3.0120
 0.6720	 3.0040
 0.6730	 2.9960
 0.6740	 2.9940
 0.6750	 2.9950
 0.6760	 2.9970
 0.6770	 3.0010
 0.6780	 3.0100
 0.6790	 3.0240
 0.6800	 3.0420
 0.6810	 3.0630
 0.6820	 3.0930
 0.6830	 3.1340
 0.6840	 3.1870
 0.6850	 3.2520
 0.6860	 3.3280
 0.6870	 3.4170
 0.6880	 3.5240
 0.6890	 3.6470
 0.6900	 3.7850
 0.6910	 3.9390
 0.6920	 4.1100
 0.6930	 4.2930
 0.6940	 4.4860
 0.6950	 4.6880
 0.6960	 4.8990
 0.6970	 5.1170
 0.6980	 5.3390
 0.6990	 5.5630
 0.7000	 5.7880
 0.7010	 6.0130
 0.7020	 6.2380
 0.7030	 6.4610
 0.7040	 6.6820
 0.7050	 6.8980
 0.7060	 7.1110
 0.7070	 7.3210
 0.7080	 7.5260
 0.7090	 7.7260
 0.7100	 7.9220
 0.7110	 8.1160
 0.7120	 8.3080
 0.7130	 8.4970
 0.7140	 8.6780
 0.7150	 8.8560
 0.7160	 9.0340
 0.7170	 9.2110
 0.7180	 9.3820
 0.7190	 9.5460
 0.7200	 9.7070
 0.7210	 9.8630
 0.7220	10.0140
 0.7230	10.1610
 0.7240	10.3030
 0.7250	10.4400
 0.7260	10.5720
 0.7270	10.6980
 0.7280	10.8160
 0.7290	10.9270
 0.7300	11.0340
 0.7310	11.1350
 0.7320	11.2320
 0.7330	11.3240
 0.7340	11.4100
 0.7350	11.4920
 0.7360	11.5700
 0.7370	11.6410
 0.7380	11.7070
 0.7390	11.7710
 0.7400	11.8330
 0.7410	11.8900
 0.7420	11.9420
 0.7430	11.9900
 0.7440	12.0350
 0.7450	12.0770
 0.7460	12.1160
 0.7470	12.1530
 0.7480	12.1880
 0.7490	12.2210
 0.7500	12.2500
 0.7510	12.2780
 0.7520	12.3030
 0.7530	12.3270
 0.7540	12.3500
 0.7550	12.3710
 0.7560	12.3920
 0.7570	12.4130
 0.7580	12.4330
 0.7590	12.4520
 0.7600	12.4690
 0.7610	12.4860
 0.7620	12.5030
 0.7630	12.5200
 0.7640	12.5340
 0.7650	12.5480
 0.7660	12.5620
 0.7670	12.5750
 0.7680	12.5880
 0.7690	12.6000
 0.7700	12.6120
 0.7710	12.6250
 0.7720	12.6350
 0.7730	12.6460
 0.7740	12.6580
 0.7750	12.6700
 0.7760	12.6810
 0.7770	12.6940
 0.7780	12.7080
 0.7790	12.7180
 0.7800	12.7270
 0.7810	12.7370
 0.7820	12.7480
 0.7830	12.7590
 0.7840	12.7680
 0.7850	12.7780
 0.7860	12.7880
 0.7870	12.7980
 0.7880	12.8060
 0.7890	12.8140
 0.7900	12.8240
 0.7910	12.8340
 0.7920	12.8410
 0.7930	12.8490
 0.7940	12.8580
 0.7950	12.8650
 0.7960	12.8740
 0.7970	12.8830
 0.7980	12.8880
 0.7990	12.8930
 0.8000	12.8980
 0.8010	12.9000
 0.8020	12.9090
 0.8030	12.9170
 0.8040	12.9230
 0.8050	12.9290
 0.8060	12.9330
 0.8070	12.9380
 0.8080	12.9420
 0.8090	12.9490
 0.8100	12.9540
 0.8110	12.9590
 0.8120	12.9630
 0.8130	12.9660
 0.8140	12.9670
 0.8150	12.9690
 0.8160	12.9730
 0.8170	12.9780
 0.8180	12.9830
 0.8190	12.9870
 0.8200	12.9890
 0.8210	12.9910
 0.8220	12.9950
 0.8230	13.0000
 0.8240	13.0050
 0.8250	13.0080
 0.8260	13.0110
 0.8270	13.0130
 0.8280	13.0150
 0.8290	13.0160
 0.8300	13.0190
 0.8310	13.0240
 0.8320	13.0270
 0.8330	13.0300
 0.8340	13.0340
 0.8350	13.0390
 0.8360	13.0400
 0.8370	13.0420
 0.8380	13.0460
 0.8390	13.0510
 0.8400	13.0550
 0.8410	13.0590
 0.8420	13.0650
 0.8430	13.0720
 0.8440	13.0740
 0.8450	13.0770
 0.8460	13.0830
 0.8470	13.0890
 0.8480	13.0950
 0.8490	13.1000
 0.8500	13.1070
 0.8510	13.1140
 0.8520	13.1180
 0.8530	13.1210
 0.8540	13.1290
 0.8550	13.1390
 0.8560	13.1470
 0.8570	13.1530
 0.8580	13.1580
 0.8590	13.1650
 0.8600	13.1720
 0.8610	13.1770
 0.8620	13.1790
 0.8630	13.1880
 0.8640	13.1990
 0.8650	13.2080
 0.8660	13.2130
 0.8670	13.2220
 0.8680	13.2330
 0.8690	13.2420
 0.8700	13.2490
 0.8710	13.2540
 0.8720	13.2620
 0.8730	13.2760
 0.8740	13.2850
 0.8750	13.2930
 0.8760	13.3010
 0.8770	13.3120
 0.8780	13.3210
 0.8790	13.3320
 0.8800	13.3430
 0.8810	13.3490
 0.8820	13.3600
 0.8830	13.3700
 0.8840	13.3760
 0.8850	13.3850
 0.8860	13.3970
 0.8870	13.4070
 0.8880	13.4150
 0.8890	13.4230
 0.8900	13.4350
 0.8910	13.4460
 0.8920	13.4530
 0.8930	13.4650
 0.8940	13.4760
 0.8950	13.4840
 0.8960	13.4890
 0.8970	13.4990
 0.8980	13.5090
 0.8990	13.5180
 0.9000	13.5250
 0.9010	13.5340
 0.9020	13.5420
 0.9030	13.5510
 0.9040	13.5600
 0.9050	13.5720
 0.9060	13.5830
 0.9070	13.5920
 0.9080	13.5960
 0.9090	13.6030
 0.9100	13.6100
 0.9110	13.6140
 0.9120	13.6210
 0.9130	13.6330
 0.9140	13.6440
 0.9150	13.6500
 0.9160	13.6620
 0.9170	13.6710
 0.9180	13.6770
 0.9190	13.6820
 0.9200	13.6910
 0.9210	13.6960
 0.9220	13.6980
 0.9230	13.6970
 0.9240	13.7080
 0.9250	13.7170
 0.9260	13.7220
 0.9270	13.7250
 0.9280	13.7310
 0.9290	13.7360
 0.9300	13.7370
 0.9310	13.7370
 0.9320	13.7450
 0.9330	13.7500
 0.9340	13.7500
 0.9350	13.7560
 0.9360	13.7620
 0.9370	13.7670
 0.9380	13.7690
 0.9390	13.7700
 0.9400	13.7710
 0.9410	13.7730
 0.9420	13.7760
 0.9430	13.7770
 0.9440	13.7730
 0.9450	13.7690
 0.9460	13.7690
 0.9470	13.7750
 0.9480	13.7770
 0.9490	13.7680
 0.9500	13.7520
 0.9510	13.7550
 0.9520	13.7620
 0.9530	13.7630
 0.9540	13.7540
 0.9550	13.7510
 0.9560	13.7440
 0.9570	13.7400
 0.9580	13.7450
 0.9590	13.7440
 0.9600	13.7420
 0.9610	13.7350
 0.9620	13.7210
 0.9630	13.7190
 0.9640	13.7200
 0.9650	13.7240
 0.9660	13.7310
 0.9670	13.7280
 0.9680	13.7230
 0.9690	13.7230
 0.9700	13.7350
 0.9710	13.7480
 0.9720	13.7460
 0.9730	13.7380
 0.9740	13.7450
 0.9750	13.7460
 0.9760	13.7540
 0.9770	13.7620
 0.9780	13.7600
 0.9790	13.7540
 0.9800	13.7520
 0.9810	13.7580
 0.9820	13.7740
 0.9830	13.7870
 0.9840	13.7910
 0.9850	13.7890
 0.9860	13.7920
 0.9870	13.7990
 0.9880	13.8110
 0.9890	13.8190
 0.9900	13.8160
 0.9910	13.8220
 0.9920	13.8340
 0.9930	13.8470
 0.9940	13.8600
 0.9950	13.8770
 0.9960	13.8810
 0.9970	13.8820
 0.9980	13.8930
 0.9990	13.8800
 1.0000	13.8840
 1.0010	13.3470
 1.0020	13.3530
 1.0030	13.3610
 1.0040	13.3740
 1.0050	13.3870
 1.0060	13.3970
 1.0070	13.4080
 1.0080	13.4200
 1.0090	13.4330
 1.0100	13.4440
 1.0110	13.4560
 1.0120	13.4660
 1.0130	13.4710
 1.0140	13.4810
 1.0150	13.4950
 1.0160	13.5070
 1.0170	13.5170
 1.0180	13.5280
 1.0190	13.5350
 1.0200	13.5440
 1.0210	13.5570
 1.0220	13.5690
 1.0230	13.5790
 1.0240	13.5890
 1.0250	13.5980
 1.0260	13.6040
 1.0270	13.6140
 1.0280	13.6240
 1.0290	13.6350
 1.0300	13.6500
 1.0310	13.6610
 1.0320	13.6710
 1.0330	13.6810
 1.0340	13.6910
 1.0350	13.6970
 1.0360	13.7070
 1.0370	13.7180
 1.0380	13.7280
 1.0390	13.7380
 1.0400	13.7490
 1.0410	13.7610
 1.0420	13.7720
 1.0430	13.7800
 1.0440	13.7900
 1.0450	13.7990
 1.0460	13.8100
 1.0470	13.8230
 1.0480	13.8330
 1.0490	13.8390
 1.0500	13.8480
 1.0510	13.8570
 1.0520	13.8660
 1.0530	13.8780
 1.0540	13.8940
 1.0550	13.9070
 1.0560	13.9200
 1.0570	13.9320
 1.0580	13.9440
 1.0590	13.9550
 1.0600	13.9660
 1.0610	13.9780
 1.0620	13.9890
 1.0630	14.0000
 1.0640	14.0100
 1.0650	14.0230
 1.0660	14.0370
 1.0670	14.0500
 1.0680	14.0630
 1.0690	14.0770
 1.0700	14.0900
 1.0710	14.1000
 1.0720	14.1120
 1.0730	14.1270
 1.0740	14.1400
 1.0750	14.1510
 1.0760	14.1640
 1.0770	14.1770
 1.0780	14.1890
 1.0790	14.2010
 1.0800	14.2120
 1.0810	14.2220
 1.0820	14.2330
 1.0830	14.2470
 1.0840	14.2590
 1.0850	14.2700
 1.0860	14.2820
 1.0870	14.2940
 1.0880	14.3070
 1.0890	14.3180
 1.0900	14.3310
 1.0910	14.3420
 1.0920	14.3510
 1.0930	14.3620
 1.0940	14.3730
 1.0950	14.3830
 1.0960	14.3930
 1.0970	14.4030
 1.0980	14.4120
 1.0990	14.4220
 1.1000	14.4330
 1.1010	14.4440
 1.1020	14.4550
 1.1030	14.4670
 1.1040	14.4780
 1.1050	14.4880
 1.1060	14.4970
 1.1070	14.5060
 1.1080	14.5150
 1.1090	14.5250
 1.1100	14.5340
 1.1110	14.5420
 1.1120	14.5500
 1.1130	14.5580
 1.1140	14.5650
 1.1150	14.5720
 1.1160	14.5790
 1.1170	14.5850
 1.1180	14.5900
 1.1190	14.5940
 1.1200	14.6000
 1.1210	14.6050
 1.1220	14.6090
 1.1230	14.6140
 1.1240	14.6180
 1.1250	14.6210
 1.1260	14.6220
 1.1270	14.6230
 1.1280	14.6230
 1.1290	14.6220
 1.1300	14.6220
 1.1310	14.6180
 1.1320	14.6130
 1.1330	14.6070
 1.1340	14.5990
 1.1350	14.5900
 1.1360	14.5810
 1.1370	14.5700
 1.1380	14.5580
 1.1390	14.5460
 1.1400	14.5330
 1.1410	14.5190
 1.1420	14.5030
 1.1430	14.4870
 1.1440	14.4720
 1.1450	14.4580
 1.1460	14.4420
 1.1470	14.4260
 1.1480	14.4120
 1.1490	14.3970
 1.1500	14.3840
 1.1510	14.3730
 1.1520	14.3620
 1.1530	14.3490
 1.1540	14.3380
 1.1550	14.3280
 1.1560	14.3190
 1.1570	14.3130
 1.1580	14.3080
 1.1590	14.3040
 1.1600	14.3010
 1.1610	14.3000
 1.1620	14.2980
 1.1630	14.2970
 1.1640	14.2960
 1.1650	14.2960
 1.1660	14.2960
 1.1670	14.2980
 1.1680	14.3000
 1.1690	14.3030
 1.1700	14.3070
 1.1710	14.3100
 1.1720	14.3120
 1.1730	14.3150
 1.1740	14.3190
 1.1750	14.3230
 1.1760	14.3270
 1.1770	14.3310
 1.1780	14.3340
 1.1790	14.3370
 1.1800	14.3420
 1.1810	14.3460
 1.1820	14.3500
 1.1830	14.3540
 1.1840	14.3570
 1.1850	14.3600
 1.1860	14.3630
 1.1870	14.3670
 1.1880	14.3720
 1.1890	14.3790
 1.1900	14.3840
 1.1910	14.3880
 1.1920	14.3930
 1.1930	14.3970
 1.1940	14.4030
 1.1950	14.4100
 1.1960	14.4180
 1.1970	14.4250
 1.1980	14.4320
 1.1990	14.4400
 1.2000	14.4480
 1.2010	14.4570
 1.2020	14.4660
 1.2030	14.4760
 1.2040	14.4860
 1.2050	14.4980
 1.2060	14.5100
 1.2070	14.5230
 1.2080	14.5370
 1.2090	14.5510
 1.2100	14.5660
 1.2110	14.5830
 1.2120	14.5990
 1.2130	14.6160
 1.2140	14.6340
 1.2150	14.6530
 1.2160	14.6720
 1.2170	14.6910
 1.2180	14.7110
 1.2190	14.7320
 1.2200	14.7530
 1.2210	14.7750
 1.2220	14.7970
 1.2230	14.8190
 1.2240	14.8410
 1.2250	14.8610
 1.2260	14.8800
 1.2270	14.9010
 1.2280	14.9220
 1.2290	14.9440
 1.2300	14.9650
 1.2310	14.9850
 1.2320	15.0030
 1.2330	15.0210
 1.2340	15.0380
 1.2350	15.0560
 1.2360	15.0740
 1.2370	15.0930
 1.2380	15.1100
 1.2390	15.1270
 1.2400	15.1440
 1.2410	15.1610
 1.2420	15.1780
 1.2430	15.1950
 1.2440	15.2130
 1.2450	15.2300
 1.2460	15.2470
 1.2470	15.2630
 1.2480	15.2790
 1.2490	15.2950
 1.2500	15.3100
 1.2510	15.3250
 1.2520	15.3390
 1.2530	15.3530
 1.2540	15.3680
 1.2550	15.3830
 1.2560	15.3970
 1.2570	15.4110
 1.2580	15.4250
 1.2590	15.4390
 1.2600	15.4520
 1.2610	15.4650
 1.2620	15.4780
 1.2630	15.4910
 1.2640	15.5020
 1.2650	15.5140
 1.2660	15.5260
 1.2670	15.5370
 1.2680	15.5480
 1.2690	15.5600
 1.2700	15.5710
 1.2710	15.5810
 1.2720	15.5910
 1.2730	15.6020
 1.2740	15.6130
 1.2750	15.6220
 1.2760	15.6320
 1.2770	15.6400
 1.2780	15.6470
 1.2790	15.6550
 1.2800	15.6640
 1.2810	15.6730
 1.2820	15.6810
 1.2830	15.6890
 1.2840	15.6970
 1.2850	15.7040
 1.2860	15.7120
 1.2870	15.7210
 1.2880	15.7310
 1.2890	15.7400
 1.2900	15.7480
 1.2910	15.7550
 1.2920	15.7610
 1.2930	15.7660
 1.2940	15.7720
 1.2950	15.7780
 1.2960	15.7840
 1.2970	15.7900
 1.2980	15.7940
 1.2990	15.7970
 1.3000	15.7990
 1.3010	15.8020
 1.3020	15.8040
 1.3030	15.8050
 1.3040	15.8060
 1.3050	15.8060
 1.3060	15.8060
 1.3070	15.8050
 1.3080	15.8030
 1.3090	15.8010
 1.3100	15.7970
 1.3110	15.7930
 1.3120	15.7880
 1.3130	15.7810
 1.3140	15.7740
 1.3150	15.7650
 1.3160	15.7560
 1.3170	15.7460
 1.3180	15.7350
 1.3190	15.7240
 1.3200	15.7110
 1.3210	15.6970
 1.3220	15.6830
 1.3230	15.6680
 1.3240	15.6520
 1.3250	15.6370
 1.3260	15.6190
 1.3270	15.6000
 1.3280	15.5790
 1.3290	15.5580
 1.3300	15.5360
 1.3310	15.5150
 1.3320	15.4930
 1.3330	15.4700
 1.3340	15.4480
 1.3350	15.4240
 1.3360	15.4000
 1.3370	15.3750
 1.3380	15.3490
 1.3390	15.3240
 1.3400	15.2990
 1.3410	15.2730
 1.3420	15.2490
 1.3430	15.2240
 1.3440	15.1970
 1.3450	15.1720
 1.3460	15.1470
 1.3470	15.1220
 1.3480	15.0970
 1.3490	15.0730
 1.3500	15.0480
 1.3510	15.0230
 1.3520	14.9990
 1.3530	14.9730
 1.3540	14.9480
 1.3550	14.9240
 1.3560	14.8990
 1.3570	14.8750
 1.3580	14.8510
 1.3590	14.8260
 1.3600	14.7990
 1.3610	14.7730
 1.3620	14.7460
 1.3630	14.7170
 1.3640	14.6870
 1.3650	14.6550
 1.3660	14.6200
 1.3670	14.5830
 1.3680	14.5450
 1.3690	14.5040
 1.3700	14.4590
 1.3710	14.4100
 1.3720	14.3570
 1.3730	14.2980
 1.3740	14.2360
 1.3750	14.1680
 1.3760	14.0940
 1.3770	14.0120
 1.3780	13.9230
 1.3790	13.8270
 1.3800	13.7250
 1.3810	13.6150
 1.3820	13.4980
 1.3830	13.3740
 1.3840	13.2430
 1.3850	13.1060
 1.3860	12.9640
 1.3870	12.8150
 1.3880	12.6630
 1.3890	12.5060
 1.3900	12.3430
 1.3910	12.1790
 1.3920	12.0120
 1.3930	11.8410
 1.3940	11.6700
 1.3950	11.4980
 1.3960	11.3270
 1.3970	11.1560
 1.3980	10.9870
 1.3990	10.8230
 1.4000	10.6600
 1.4010	10.5020
 1.4020	10.3490
 1.4030	10.1980
 1.4040	10.0540
 1.4050	 9.9150
 1.4060	 9.7800
 1.4070	 9.6540
 1.4080	 9.5330
 1.4090	 9.4170
 1.4100	 9.3070
 1.4110	 9.2030
 1.4120	 9.1040
 1.4130	 9.0110
 1.4140	 8.9230
 1.4150	 8.8430
 1.4160	 8.7680
 1.4170	 8.6980
 1.4180	 8.6330
 1.4190	 8.5720
 1.4200	 8.5140
 1.4210	 8.4610
 1.4220	 8.4120
 1.4230	 8.3670
 1.4240	 8.3260
 1.4250	 8.2870
 1.4260	 8.2520
 1.4270	 8.2180
 1.4280	 8.1880
 1.4290	 8.1600
 1.4300	 8.1350
 1.4310	 8.1120
 1.4320	 8.0930
 1.4330	 8.0750
 1.4340	 8.0590
 1.4350	 8.0440
 1.4360	 8.0300
 1.4370	 8.0180
 1.4380	 8.0080
 1.4390	 8.0010
 1.4400	 7.9950
 1.4410	 7.9910
 1.4420	 7.9890
 1.4430	 7.9870
 1.4440	 7.9860
 1.4450	 7.9860
 1.4460	 7.9880
 1.4470	 7.9900
 1.4480	 7.9940
 1.4490	 7.9980
 1.4500	 8.0020
 1.4510	 8.0080
 1.4520	 8.0130
 1.4530	 8.0180
 1.4540	 8.0260
 1.4550	 8.0340
 1.4560	 8.0430
 1.4570	 8.0530
 1.4580	 8.0640
 1.4590	 8.0750
 1.4600	 8.0890
 1.4610	 8.1060
 1.4620	 8.1230
 1.4630	 8.1420
 1.4640	 8.1610
 1.4650	 8.1810
 1.4660	 8.2040
 1.4670	 8.2270
 1.4680	 8.2530
 1.4690	 8.2810
 1.4700	 8.3100
 1.4710	 8.3410
 1.4720	 8.3730
 1.4730	 8.4050
 1.4740	 8.4410
 1.4750	 8.4770
 1.4760	 8.5140
 1.4770	 8.5530
 1.4780	 8.5900
