Name: Ceanothus spinosus 3
Type: vegetation
Class: Shrub
Genus: Ceanothus
Species: spinosus
Sample No.: VH011
Owner: UCSB
Wavelength Range: VSWIR
Origin: 34.4906; -119.7908; WGS84
Collection Date: 4/1/2013
Description: Samples were collected as part of the HyspIRI Airborne Campaign. 48 individual plants were sampled in three times in 2013 - spring  summer  and fall. The name of the sample includes a 1  2  or 3 which references a different individual of the species. Samples were taken to JPL and processed within 48 hours of collection. The same leaves were processed in the Nicolet and then measured using the ASD.
Measurement: Bidirectional reflectance
First Column: X
Second Column: Y
X Units: Wavelength (micrometers)
Y Units: Reflectance (percentage)
First X Value: 0.35
Last X Value: 2.5
Number of X Values: 2151
Additional Information: vegetation.shrub.ceanothus.spinosus.vswir.vh011.ucsb.asd.ancillary.txt

 0.3500	11.5080
 0.3510	11.8090
 0.3520	11.7800
 0.3530	11.5950
 0.3540	11.5230
 0.3550	11.5470
 0.3560	11.5560
 0.3570	11.5390
 0.3580	11.5340
 0.3590	11.5270
 0.3600	11.4900
 0.3610	11.4220
 0.3620	11.3490
 0.3630	11.4350
 0.3640	11.5000
 0.3650	11.3860
 0.3660	11.3530
 0.3670	11.3710
 0.3680	11.4090
 0.3690	11.4430
 0.3700	11.4190
 0.3710	11.3870
 0.3720	11.3830
 0.3730	11.4080
 0.3740	11.3470
 0.3750	11.2770
 0.3760	11.2970
 0.3770	11.3010
 0.3780	11.3500
 0.3790	11.3910
 0.3800	11.2950
 0.3810	11.3270
 0.3820	11.3640
 0.3830	11.3250
 0.3840	11.3670
 0.3850	11.3460
 0.3860	11.3080
 0.3870	11.3350
 0.3880	11.2740
 0.3890	11.2670
 0.3900	11.3160
 0.3910	11.2740
 0.3920	11.2830
 0.3930	11.3020
 0.3940	11.2860
 0.3950	11.2620
 0.3960	11.2290
 0.3970	11.2100
 0.3980	11.2290
 0.3990	11.2420
 0.4000	11.2290
 0.4010	11.2100
 0.4020	11.2490
 0.4030	11.2570
 0.4040	11.2340
 0.4050	11.2110
 0.4060	11.2430
 0.4070	11.2750
 0.4080	11.2860
 0.4090	11.2780
 0.4100	11.2800
 0.4110	11.2750
 0.4120	11.2680
 0.4130	11.3150
 0.4140	11.3540
 0.4150	11.3720
 0.4160	11.3810
 0.4170	11.4170
 0.4180	11.4470
 0.4190	11.4600
 0.4200	11.4700
 0.4210	11.4980
 0.4220	11.5220
 0.4230	11.5330
 0.4240	11.5710
 0.4250	11.5820
 0.4260	11.5900
 0.4270	11.6360
 0.4280	11.6470
 0.4290	11.6540
 0.4300	11.6680
 0.4310	11.6540
 0.4320	11.6610
 0.4330	11.6770
 0.4340	11.6830
 0.4350	11.6870
 0.4360	11.6930
 0.4370	11.7050
 0.4380	11.7310
 0.4390	11.7460
 0.4400	11.7680
 0.4410	11.8010
 0.4420	11.8060
 0.4430	11.8040
 0.4440	11.8080
 0.4450	11.8290
 0.4460	11.8380
 0.4470	11.8470
 0.4480	11.8600
 0.4490	11.8750
 0.4500	11.8890
 0.4510	11.9020
 0.4520	11.9150
 0.4530	11.9310
 0.4540	11.9470
 0.4550	11.9560
 0.4560	11.9550
 0.4570	11.9560
 0.4580	11.9630
 0.4590	11.9720
 0.4600	11.9750
 0.4610	11.9850
 0.4620	11.9930
 0.4630	11.9880
 0.4640	11.9830
 0.4650	11.9750
 0.4660	11.9690
 0.4670	11.9730
 0.4680	11.9780
 0.4690	11.9770
 0.4700	11.9680
 0.4710	11.9590
 0.4720	11.9640
 0.4730	11.9780
 0.4740	11.9840
 0.4750	11.9780
 0.4760	11.9770
 0.4770	11.9810
 0.4780	11.9680
 0.4790	11.9730
 0.4800	11.9850
 0.4810	11.9850
 0.4820	11.9880
 0.4830	11.9960
 0.4840	12.0040
 0.4850	12.0030
 0.4860	12.0090
 0.4870	12.0150
 0.4880	12.0190
 0.4890	12.0370
 0.4900	12.0450
 0.4910	12.0500
 0.4920	12.0690
 0.4930	12.0900
 0.4940	12.1040
 0.4950	12.1150
 0.4960	12.1410
 0.4970	12.1650
 0.4980	12.1890
 0.4990	12.2170
 0.5000	12.2560
 0.5010	12.2880
 0.5020	12.3150
 0.5030	12.3590
 0.5040	12.3980
 0.5050	12.4410
 0.5060	12.4940
 0.5070	12.5490
 0.5080	12.6100
 0.5090	12.6780
 0.5100	12.7530
 0.5110	12.8310
 0.5120	12.9170
 0.5130	13.0140
 0.5140	13.1110
 0.5150	13.2240
 0.5160	13.3450
 0.5170	13.4690
 0.5180	13.6060
 0.5190	13.7500
 0.5200	13.8960
 0.5210	14.0450
 0.5220	14.2010
 0.5230	14.3570
 0.5240	14.5110
 0.5250	14.6630
 0.5260	14.8140
 0.5270	14.9610
 0.5280	15.0970
 0.5290	15.2210
 0.5300	15.3380
 0.5310	15.4490
 0.5320	15.5500
 0.5330	15.6390
 0.5340	15.7220
 0.5350	15.8000
 0.5360	15.8630
 0.5370	15.9170
 0.5380	15.9650
 0.5390	16.0070
 0.5400	16.0390
 0.5410	16.0660
 0.5420	16.0940
 0.5430	16.1200
 0.5440	16.1460
 0.5450	16.1730
 0.5460	16.2040
 0.5470	16.2420
 0.5480	16.2770
 0.5490	16.3010
 0.5500	16.3200
 0.5510	16.3290
 0.5520	16.3290
 0.5530	16.3260
 0.5540	16.3080
 0.5550	16.2880
 0.5560	16.2610
 0.5570	16.2130
 0.5580	16.1590
 0.5590	16.0970
 0.5600	16.0270
 0.5610	15.9600
 0.5620	15.8840
 0.5630	15.8000
 0.5640	15.7140
 0.5650	15.6170
 0.5660	15.5130
 0.5670	15.4050
 0.5680	15.2930
 0.5690	15.1770
 0.5700	15.0630
 0.5710	14.9570
 0.5720	14.8440
 0.5730	14.7380
 0.5740	14.6460
 0.5750	14.5720
 0.5760	14.5150
 0.5770	14.4570
 0.5780	14.3870
 0.5790	14.3180
 0.5800	14.2520
 0.5810	14.1940
 0.5820	14.1430
 0.5830	14.0970
 0.5840	14.0500
 0.5850	13.9970
 0.5860	13.9400
 0.5870	13.8880
 0.5880	13.8500
 0.5890	13.8290
 0.5900	13.8300
 0.5910	13.8330
 0.5920	13.8320
 0.5930	13.8240
 0.5940	13.8080
 0.5950	13.7890
 0.5960	13.7710
 0.5970	13.7600
 0.5980	13.7410
 0.5990	13.7210
 0.6000	13.7100
 0.6010	13.6910
 0.6020	13.6720
 0.6030	13.6540
 0.6040	13.6320
 0.6050	13.6010
 0.6060	13.5660
 0.6070	13.5310
 0.6080	13.4890
 0.6090	13.4440
 0.6100	13.3900
 0.6110	13.3260
 0.6120	13.2850
 0.6130	13.2560
 0.6140	13.2290
 0.6150	13.1920
 0.6160	13.1590
 0.6170	13.1290
 0.6180	13.0970
 0.6190	13.0700
 0.6200	13.0460
 0.6210	13.0250
 0.6220	13.0050
 0.6230	12.9900
 0.6240	12.9730
 0.6250	12.9540
 0.6260	12.9470
 0.6270	12.9380
 0.6280	12.9300
 0.6290	12.9260
 0.6300	12.9150
 0.6310	12.9060
 0.6320	12.9010
 0.6330	12.8940
 0.6340	12.8870
 0.6350	12.8730
 0.6360	12.8480
 0.6370	12.8310
 0.6380	12.8070
 0.6390	12.7780
 0.6400	12.7520
 0.6410	12.7190
 0.6420	12.6820
 0.6430	12.6450
 0.6440	12.6100
 0.6450	12.5780
 0.6460	12.5460
 0.6470	12.5140
 0.6480	12.4850
 0.6490	12.4590
 0.6500	12.4360
 0.6510	12.4150
 0.6520	12.3940
 0.6530	12.3760
 0.6540	12.3590
 0.6550	12.3470
 0.6560	12.3290
 0.6570	12.3050
 0.6580	12.2790
 0.6590	12.2550
 0.6600	12.2320
 0.6610	12.2100
 0.6620	12.1860
 0.6630	12.1670
 0.6640	12.1510
 0.6650	12.1360
 0.6660	12.1220
 0.6670	12.1110
 0.6680	12.1050
 0.6690	12.1040
 0.6700	12.1070
 0.6710	12.1140
 0.6720	12.1230
 0.6730	12.1300
 0.6740	12.1440
 0.6750	12.1630
 0.6760	12.1840
 0.6770	12.2060
 0.6780	12.2310
 0.6790	12.2590
 0.6800	12.2880
 0.6810	12.3200
 0.6820	12.3580
 0.6830	12.4020
 0.6840	12.4480
 0.6850	12.5010
 0.6860	12.5620
 0.6870	12.6320
 0.6880	12.7150
 0.6890	12.8180
 0.6900	12.9430
 0.6910	13.0920
 0.6920	13.2700
 0.6930	13.4840
 0.6940	13.7370
 0.6950	14.0340
 0.6960	14.3780
 0.6970	14.7730
 0.6980	15.2220
 0.6990	15.7250
 0.7000	16.2790
 0.7010	16.8830
 0.7020	17.5310
 0.7030	18.2190
 0.7040	18.9410
 0.7050	19.6910
 0.7060	20.4690
 0.7070	21.2690
 0.7080	22.0850
 0.7090	22.9150
 0.7100	23.7600
 0.7110	24.6190
 0.7120	25.4860
 0.7130	26.3520
 0.7140	27.2240
 0.7150	28.0980
 0.7160	28.9670
 0.7170	29.8330
 0.7180	30.6950
 0.7190	31.5480
 0.7200	32.3860
 0.7210	33.2150
 0.7220	34.0270
 0.7230	34.8200
 0.7240	35.5960
 0.7250	36.3490
 0.7260	37.0760
 0.7270	37.7780
 0.7280	38.4530
 0.7290	39.1000
 0.7300	39.7160
 0.7310	40.3040
 0.7320	40.8630
 0.7330	41.3960
 0.7340	41.9050
 0.7350	42.3850
 0.7360	42.8340
 0.7370	43.2560
 0.7380	43.6570
 0.7390	44.0370
 0.7400	44.3880
 0.7410	44.7150
 0.7420	45.0230
 0.7430	45.3140
 0.7440	45.5830
 0.7450	45.8310
 0.7460	46.0640
 0.7470	46.2730
 0.7480	46.4660
 0.7490	46.6490
 0.7500	46.8080
 0.7510	46.9550
 0.7520	47.0930
 0.7530	47.2240
 0.7540	47.3390
 0.7550	47.4440
 0.7560	47.5410
 0.7570	47.6300
 0.7580	47.7050
 0.7590	47.7750
 0.7600	47.8430
 0.7610	47.9040
 0.7620	47.9580
 0.7630	48.0070
 0.7640	48.0520
 0.7650	48.0910
 0.7660	48.1270
 0.7670	48.1630
 0.7680	48.1980
 0.7690	48.2270
 0.7700	48.2550
 0.7710	48.2820
 0.7720	48.3080
 0.7730	48.3330
 0.7740	48.3540
 0.7750	48.3730
 0.7760	48.3890
 0.7770	48.4080
 0.7780	48.4280
 0.7790	48.4420
 0.7800	48.4590
 0.7810	48.4790
 0.7820	48.4980
 0.7830	48.5090
 0.7840	48.5220
 0.7850	48.5380
 0.7860	48.5550
 0.7870	48.5700
 0.7880	48.5830
 0.7890	48.5960
 0.7900	48.6070
 0.7910	48.6160
 0.7920	48.6260
 0.7930	48.6360
 0.7940	48.6420
 0.7950	48.6530
 0.7960	48.6610
 0.7970	48.6640
 0.7980	48.6700
 0.7990	48.6780
 0.8000	48.6860
 0.8010	48.6900
 0.8020	48.6890
 0.8030	48.6900
 0.8040	48.6930
 0.8050	48.6960
 0.8060	48.6970
 0.8070	48.6950
 0.8080	48.6870
 0.8090	48.6770
 0.8100	48.6800
 0.8110	48.6820
 0.8120	48.6760
 0.8130	48.6680
 0.8140	48.6620
 0.8150	48.6560
 0.8160	48.6480
 0.8170	48.6420
 0.8180	48.6330
 0.8190	48.6240
 0.8200	48.6210
 0.8210	48.6060
 0.8220	48.5890
 0.8230	48.5790
 0.8240	48.5750
 0.8250	48.5620
 0.8260	48.5470
 0.8270	48.5360
 0.8280	48.5270
 0.8290	48.5150
 0.8300	48.5000
 0.8310	48.4860
 0.8320	48.4760
 0.8330	48.4610
 0.8340	48.4450
 0.8350	48.4370
 0.8360	48.4250
 0.8370	48.4120
 0.8380	48.4030
 0.8390	48.3960
 0.8400	48.3910
 0.8410	48.3870
 0.8420	48.3820
 0.8430	48.3700
 0.8440	48.3620
 0.8450	48.3570
 0.8460	48.3520
 0.8470	48.3430
 0.8480	48.3380
 0.8490	48.3360
 0.8500	48.3310
 0.8510	48.3240
 0.8520	48.3200
 0.8530	48.3180
 0.8540	48.3140
 0.8550	48.3130
 0.8560	48.3120
 0.8570	48.3110
 0.8580	48.3120
 0.8590	48.3100
 0.8600	48.3070
 0.8610	48.3060
 0.8620	48.3060
 0.8630	48.3080
 0.8640	48.3080
 0.8650	48.3030
 0.8660	48.3050
 0.8670	48.3050
 0.8680	48.3040
 0.8690	48.3080
 0.8700	48.3140
 0.8710	48.3180
 0.8720	48.3220
 0.8730	48.3260
 0.8740	48.3250
 0.8750	48.3260
 0.8760	48.3330
 0.8770	48.3430
 0.8780	48.3520
 0.8790	48.3560
 0.8800	48.3560
 0.8810	48.3590
 0.8820	48.3610
 0.8830	48.3640
 0.8840	48.3700
 0.8850	48.3750
 0.8860	48.3840
 0.8870	48.3920
 0.8880	48.3960
 0.8890	48.4080
 0.8900	48.4110
 0.8910	48.4120
 0.8920	48.4220
 0.8930	48.4260
 0.8940	48.4320
 0.8950	48.4380
 0.8960	48.4380
 0.8970	48.4480
 0.8980	48.4510
 0.8990	48.4490
 0.9000	48.4610
 0.9010	48.4680
 0.9020	48.4730
 0.9030	48.4790
 0.9040	48.4910
 0.9050	48.4940
 0.9060	48.4940
 0.9070	48.4960
 0.9080	48.5010
 0.9090	48.5080
 0.9100	48.5140
 0.9110	48.5150
 0.9120	48.5230
 0.9130	48.5250
 0.9140	48.5300
 0.9150	48.5430
 0.9160	48.5350
 0.9170	48.5370
 0.9180	48.5460
 0.9190	48.5450
 0.9200	48.5470
 0.9210	48.5410
 0.9220	48.5350
 0.9230	48.5450
 0.9240	48.5400
 0.9250	48.5280
 0.9260	48.5190
 0.9270	48.5200
 0.9280	48.5170
 0.9290	48.5020
 0.9300	48.4810
 0.9310	48.4730
 0.9320	48.4560
 0.9330	48.4380
 0.9340	48.4260
 0.9350	48.4170
 0.9360	48.3980
 0.9370	48.3760
 0.9380	48.3570
 0.9390	48.3380
 0.9400	48.3140
 0.9410	48.2910
 0.9420	48.2720
 0.9430	48.2490
 0.9440	48.2120
 0.9450	48.1790
 0.9460	48.1570
 0.9470	48.1080
 0.9480	48.0620
 0.9490	48.0250
 0.9500	47.9920
 0.9510	47.9430
 0.9520	47.9000
 0.9530	47.8480
 0.9540	47.7790
 0.9550	47.7180
 0.9560	47.6640
 0.9570	47.6180
 0.9580	47.5780
 0.9590	47.5250
 0.9600	47.4800
 0.9610	47.4470
 0.9620	47.4220
 0.9630	47.3950
 0.9640	47.3660
 0.9650	47.3290
 0.9660	47.2920
 0.9670	47.2970
 0.9680	47.2800
 0.9690	47.2490
 0.9700	47.2380
 0.9710	47.2200
 0.9720	47.2060
 0.9730	47.1930
 0.9740	47.1830
 0.9750	47.1970
 0.9760	47.1930
 0.9770	47.1770
 0.9780	47.1750
 0.9790	47.1710
 0.9800	47.1830
 0.9810	47.1920
 0.9820	47.1780
 0.9830	47.1980
 0.9840	47.2090
 0.9850	47.2040
 0.9860	47.2040
 0.9870	47.2200
 0.9880	47.2280
 0.9890	47.2320
 0.9900	47.2400
 0.9910	47.2220
 0.9920	47.2810
 0.9930	47.3400
 0.9940	47.3990
 0.9950	47.4580
 0.9960	47.5170
 0.9970	47.5760
 0.9980	47.6350
 0.9990	47.6930
 1.0000	47.7520
 1.0010	47.8110
 1.0020	47.8700
 1.0030	47.9290
 1.0040	47.9880
 1.0050	48.0470
 1.0060	48.1060
 1.0070	48.1640
 1.0080	48.2230
 1.0090	48.2820
 1.0100	48.2820
 1.0110	48.2920
 1.0120	48.3050
 1.0130	48.3130
 1.0140	48.3260
 1.0150	48.3450
 1.0160	48.3630
 1.0170	48.3750
 1.0180	48.3860
 1.0190	48.3990
 1.0200	48.4140
 1.0210	48.4320
 1.0220	48.4520
 1.0230	48.4690
 1.0240	48.4850
 1.0250	48.5020
 1.0260	48.5210
 1.0270	48.5360
 1.0280	48.5510
 1.0290	48.5620
 1.0300	48.5680
 1.0310	48.5760
 1.0320	48.5840
 1.0330	48.5920
 1.0340	48.6070
 1.0350	48.6180
 1.0360	48.6320
 1.0370	48.6490
 1.0380	48.6600
 1.0390	48.6700
 1.0400	48.6790
 1.0410	48.6860
 1.0420	48.6950
 1.0430	48.7050
 1.0440	48.7140
 1.0450	48.7250
 1.0460	48.7320
 1.0470	48.7330
 1.0480	48.7390
 1.0490	48.7440
 1.0500	48.7530
 1.0510	48.7670
 1.0520	48.7820
 1.0530	48.7940
 1.0540	48.8080
 1.0550	48.8140
 1.0560	48.8120
 1.0570	48.8150
 1.0580	48.8150
 1.0590	48.8190
 1.0600	48.8300
 1.0610	48.8360
 1.0620	48.8430
 1.0630	48.8480
 1.0640	48.8510
 1.0650	48.8560
 1.0660	48.8660
 1.0670	48.8700
 1.0680	48.8730
 1.0690	48.8740
 1.0700	48.8770
 1.0710	48.8790
 1.0720	48.8820
 1.0730	48.8900
 1.0740	48.8950
 1.0750	48.8980
 1.0760	48.8990
 1.0770	48.8970
 1.0780	48.8960
 1.0790	48.8920
 1.0800	48.8900
 1.0810	48.8910
 1.0820	48.8900
 1.0830	48.8900
 1.0840	48.8880
 1.0850	48.8860
 1.0860	48.8820
 1.0870	48.8780
 1.0880	48.8720
 1.0890	48.8690
 1.0900	48.8670
 1.0910	48.8630
 1.0920	48.8580
 1.0930	48.8510
 1.0940	48.8410
 1.0950	48.8320
 1.0960	48.8250
 1.0970	48.8160
 1.0980	48.8070
 1.0990	48.7980
 1.1000	48.7890
 1.1010	48.7790
 1.1020	48.7680
 1.1030	48.7580
 1.1040	48.7490
 1.1050	48.7350
 1.1060	48.7210
 1.1070	48.7070
 1.1080	48.6930
 1.1090	48.6780
 1.1100	48.6630
 1.1110	48.6490
 1.1120	48.6330
 1.1130	48.6110
 1.1140	48.5940
 1.1150	48.5840
 1.1160	48.5650
 1.1170	48.5470
 1.1180	48.5250
 1.1190	48.4990
 1.1200	48.4700
 1.1210	48.4430
 1.1220	48.4140
 1.1230	48.3820
 1.1240	48.3470
 1.1250	48.3070
 1.1260	48.2630
 1.1270	48.2150
 1.1280	48.1640
 1.1290	48.1080
 1.1300	48.0510
 1.1310	47.9860
 1.1320	47.9140
 1.1330	47.8380
 1.1340	47.7570
 1.1350	47.6690
 1.1360	47.5750
 1.1370	47.4770
 1.1380	47.3740
 1.1390	47.2630
 1.1400	47.1510
 1.1410	47.0400
 1.1420	46.9220
 1.1430	46.8040
 1.1440	46.6870
 1.1450	46.5650
 1.1460	46.4500
 1.1470	46.3370
 1.1480	46.2290
 1.1490	46.1230
 1.1500	46.0250
 1.1510	45.9310
 1.1520	45.8440
 1.1530	45.7630
 1.1540	45.6890
 1.1550	45.6220
 1.1560	45.5610
 1.1570	45.5080
 1.1580	45.4610
 1.1590	45.4190
 1.1600	45.3840
 1.1610	45.3550
 1.1620	45.3290
 1.1630	45.3070
 1.1640	45.2880
 1.1650	45.2720
 1.1660	45.2600
 1.1670	45.2490
 1.1680	45.2420
 1.1690	45.2350
 1.1700	45.2280
 1.1710	45.2240
 1.1720	45.2230
 1.1730	45.2190
 1.1740	45.2180
 1.1750	45.2150
 1.1760	45.2100
 1.1770	45.2040
 1.1780	45.1970
 1.1790	45.1940
 1.1800	45.1890
 1.1810	45.1830
 1.1820	45.1790
 1.1830	45.1720
 1.1840	45.1640
 1.1850	45.1580
 1.1860	45.1520
 1.1870	45.1450
 1.1880	45.1400
 1.1890	45.1340
 1.1900	45.1300
 1.1910	45.1270
 1.1920	45.1260
 1.1930	45.1260
 1.1940	45.1270
 1.1950	45.1310
 1.1960	45.1370
 1.1970	45.1410
 1.1980	45.1460
 1.1990	45.1530
 1.2000	45.1590
 1.2010	45.1670
 1.2020	45.1790
 1.2030	45.1890
 1.2040	45.1990
 1.2050	45.2100
 1.2060	45.2230
 1.2070	45.2360
 1.2080	45.2500
 1.2090	45.2650
 1.2100	45.2790
 1.2110	45.2930
 1.2120	45.3100
 1.2130	45.3260
 1.2140	45.3410
 1.2150	45.3580
 1.2160	45.3750
 1.2170	45.3900
 1.2180	45.4080
 1.2190	45.4270
 1.2200	45.4460
 1.2210	45.4660
 1.2220	45.4830
 1.2230	45.5000
 1.2240	45.5150
 1.2250	45.5290
 1.2260	45.5430
 1.2270	45.5560
 1.2280	45.5690
 1.2290	45.5850
 1.2300	45.6020
 1.2310	45.6170
 1.2320	45.6320
 1.2330	45.6460
 1.2340	45.6590
 1.2350	45.6710
 1.2360	45.6830
 1.2370	45.6940
 1.2380	45.7060
 1.2390	45.7180
 1.2400	45.7310
 1.2410	45.7430
 1.2420	45.7550
 1.2430	45.7630
 1.2440	45.7690
 1.2450	45.7780
 1.2460	45.7850
 1.2470	45.7920
 1.2480	45.8010
 1.2490	45.8090
 1.2500	45.8180
 1.2510	45.8290
 1.2520	45.8340
 1.2530	45.8350
 1.2540	45.8380
 1.2550	45.8390
 1.2560	45.8410
 1.2570	45.8460
 1.2580	45.8470
 1.2590	45.8480
 1.2600	45.8480
 1.2610	45.8470
 1.2620	45.8460
 1.2630	45.8450
 1.2640	45.8430
 1.2650	45.8410
 1.2660	45.8370
 1.2670	45.8300
 1.2680	45.8250
 1.2690	45.8190
 1.2700	45.8110
 1.2710	45.8030
 1.2720	45.7930
 1.2730	45.7790
 1.2740	45.7680
 1.2750	45.7570
 1.2760	45.7450
 1.2770	45.7320
 1.2780	45.7180
 1.2790	45.7020
 1.2800	45.6840
 1.2810	45.6670
 1.2820	45.6480
 1.2830	45.6270
 1.2840	45.6050
 1.2850	45.5850
 1.2860	45.5650
 1.2870	45.5420
 1.2880	45.5170
 1.2890	45.4920
 1.2900	45.4660
 1.2910	45.4360
 1.2920	45.4080
 1.2930	45.3800
 1.2940	45.3460
 1.2950	45.3090
 1.2960	45.2720
 1.2970	45.2340
 1.2980	45.1940
 1.2990	45.1530
 1.3000	45.1110
 1.3010	45.0650
 1.3020	45.0170
 1.3030	44.9680
 1.3040	44.9160
 1.3050	44.8610
 1.3060	44.8030
 1.3070	44.7410
 1.3080	44.6770
 1.3090	44.6120
 1.3100	44.5450
 1.3110	44.4750
 1.3120	44.4040
 1.3130	44.3300
 1.3140	44.2520
 1.3150	44.1730
 1.3160	44.0890
 1.3170	44.0010
 1.3180	43.9090
 1.3190	43.8160
 1.3200	43.7190
 1.3210	43.6180
 1.3220	43.5150
 1.3230	43.4080
 1.3240	43.2980
 1.3250	43.1900
 1.3260	43.0770
 1.3270	42.9620
 1.3280	42.8450
 1.3290	42.7230
 1.3300	42.6040
 1.3310	42.4840
 1.3320	42.3600
 1.3330	42.2380
 1.3340	42.1130
 1.3350	41.9860
 1.3360	41.8600
 1.3370	41.7310
 1.3380	41.6020
 1.3390	41.4720
 1.3400	41.3430
 1.3410	41.2170
 1.3420	41.0920
 1.3430	40.9680
 1.3440	40.8450
 1.3450	40.7210
 1.3460	40.5950
 1.3470	40.4720
 1.3480	40.3480
 1.3490	40.2270
 1.3500	40.1100
 1.3510	39.9920
 1.3520	39.8750
 1.3530	39.7590
 1.3540	39.6410
 1.3550	39.5220
 1.3560	39.4040
 1.3570	39.2850
 1.3580	39.1660
 1.3590	39.0460
 1.3600	38.9220
 1.3610	38.7960
 1.3620	38.6640
 1.3630	38.5290
 1.3640	38.3900
 1.3650	38.2430
 1.3660	38.0930
 1.3670	37.9320
 1.3680	37.7620
 1.3690	37.5850
 1.3700	37.3940
 1.3710	37.1920
 1.3720	36.9790
 1.3730	36.7470
 1.3740	36.5040
 1.3750	36.2470
 1.3760	35.9690
 1.3770	35.6750
 1.3780	35.3580
 1.3790	35.0220
 1.3800	34.6660
 1.3810	34.2880
 1.3820	33.8970
 1.3830	33.4890
 1.3840	33.0640
 1.3850	32.6220
 1.3860	32.1680
 1.3870	31.6930
 1.3880	31.2160
 1.3890	30.7280
 1.3900	30.2320
 1.3910	29.7380
 1.3920	29.2380
 1.3930	28.7360
 1.3940	28.2380
 1.3950	27.7380
 1.3960	27.2460
 1.3970	26.7630
 1.3980	26.2880
 1.3990	25.8320
 1.4000	25.3900
 1.4010	24.9600
 1.4020	24.5500
 1.4030	24.1540
 1.4040	23.7790
 1.4050	23.4230
 1.4060	23.0850
 1.4070	22.7700
 1.4080	22.4730
 1.4090	22.1930
 1.4100	21.9350
 1.4110	21.6920
 1.4120	21.4660
 1.4130	21.2580
 1.4140	21.0650
 1.4150	20.8890
 1.4160	20.7280
 1.4170	20.5810
 1.4180	20.4480
 1.4190	20.3250
 1.4200	20.2120
 1.4210	20.1100
 1.4220	20.0180
 1.4230	19.9370
 1.4240	19.8640
 1.4250	19.7980
 1.4260	19.7390
 1.4270	19.6870
 1.4280	19.6410
 1.4290	19.6010
 1.4300	19.5680
 1.4310	19.5380
 1.4320	19.5150
 1.4330	19.4960
 1.4340	19.4810
 1.4350	19.4700
 1.4360	19.4620
 1.4370	19.4570
 1.4380	19.4560
 1.4390	19.4580
 1.4400	19.4630
 1.4410	19.4690
 1.4420	19.4780
 1.4430	19.4900
 1.4440	19.5020
 1.4450	19.5150
 1.4460	19.5310
 1.4470	19.5470
 1.4480	19.5650
 1.4490	19.5840
 1.4500	19.6030
 1.4510	19.6230
 1.4520	19.6450
 1.4530	19.6680
 1.4540	19.6930
 1.4550	19.7190
 1.4560	19.7470
 1.4570	19.7760
 1.4580	19.8080
 1.4590	19.8420
 1.4600	19.8790
 1.4610	19.9200
 1.4620	19.9650
 1.4630	20.0130
 1.4640	20.0640
 1.4650	20.1200
 1.4660	20.1780
 1.4670	20.2400
 1.4680	20.3070
 1.4690	20.3780
 1.4700	20.4530
