Name: Pinus lambertiana 3
Type: vegetation
Class: Tree
Genus: Pinus
Species: lambertiana
Sample No.: VH262
Owner: UCSB
Wavelength Range: VSWIR
Origin: 37.0433; -119.3048; WGS84
Collection Date: 11/2/2013
Description: Samples were collected as part of the HyspIRI Airborne Campaign. 48 individual plants were sampled in three times in 2013 - spring  summer  and fall. The name of the sample includes a 1  2  or 3 which references a different individual of the species. Samples were taken to JPL and processed within 48 hours of collection. The same leaves were processed in the Nicolet and then measured using the ASD.
Measurement: Bidirectional reflectance
First Column: X
Second Column: Y
X Units: Wavelength (micrometers)
Y Units: Reflectance (percentage)
First X Value: 0.35
Last X Value: 2.5
Number of X Values: 2151
Additional Information: vegetation.tree.pinus.lambertiana.vswir.vh262.ucsb.asd.ancillary.txt

 0.3500	 5.3650
 0.3510	 5.4430
 0.3520	 5.3980
 0.3530	 5.2730
 0.3540	 5.1630
 0.3550	 5.2320
 0.3560	 5.2720
 0.3570	 5.2490
 0.3580	 5.2190
 0.3590	 5.2030
 0.3600	 5.1770
 0.3610	 5.1360
 0.3620	 5.1080
 0.3630	 5.0140
 0.3640	 4.9680
 0.3650	 5.0450
 0.3660	 4.9940
 0.3670	 5.0300
 0.3680	 5.1040
 0.3690	 5.0130
 0.3700	 4.9840
 0.3710	 4.9820
 0.3720	 4.9780
 0.3730	 5.0200
 0.3740	 5.0310
 0.3750	 5.0180
 0.3760	 5.0140
 0.3770	 5.0040
 0.3780	 5.0090
 0.3790	 5.0290
 0.3800	 5.0440
 0.3810	 5.0370
 0.3820	 5.0100
 0.3830	 4.9760
 0.3840	 4.9560
 0.3850	 4.9600
 0.3860	 4.9710
 0.3870	 4.9590
 0.3880	 4.9100
 0.3890	 4.9150
 0.3900	 4.9670
 0.3910	 4.9670
 0.3920	 4.9560
 0.3930	 4.9610
 0.3940	 4.9860
 0.3950	 4.9810
 0.3960	 4.9650
 0.3970	 4.9410
 0.3980	 4.9130
 0.3990	 4.9330
 0.4000	 4.9550
 0.4010	 4.9520
 0.4020	 4.9360
 0.4030	 4.9580
 0.4040	 4.9810
 0.4050	 4.9720
 0.4060	 4.9900
 0.4070	 5.0230
 0.4080	 5.0550
 0.4090	 5.0720
 0.4100	 5.0920
 0.4110	 5.1190
 0.4120	 5.1450
 0.4130	 5.1460
 0.4140	 5.1870
 0.4150	 5.2520
 0.4160	 5.3030
 0.4170	 5.3150
 0.4180	 5.3620
 0.4190	 5.4460
 0.4200	 5.5090
 0.4210	 5.5470
 0.4220	 5.5910
 0.4230	 5.6510
 0.4240	 5.6610
 0.4250	 5.6970
 0.4260	 5.7550
 0.4270	 5.7980
 0.4280	 5.8400
 0.4290	 5.8840
 0.4300	 5.9240
 0.4310	 5.9500
 0.4320	 5.9900
 0.4330	 6.0310
 0.4340	 6.0560
 0.4350	 6.0710
 0.4360	 6.0980
 0.4370	 6.1340
 0.4380	 6.1620
 0.4390	 6.1810
 0.4400	 6.2040
 0.4410	 6.2360
 0.4420	 6.2710
 0.4430	 6.2830
 0.4440	 6.2920
 0.4450	 6.3280
 0.4460	 6.3540
 0.4470	 6.3730
 0.4480	 6.3890
 0.4490	 6.3980
 0.4500	 6.4240
 0.4510	 6.4490
 0.4520	 6.4560
 0.4530	 6.4740
 0.4540	 6.4880
 0.4550	 6.4980
 0.4560	 6.5110
 0.4570	 6.5180
 0.4580	 6.5280
 0.4590	 6.5390
 0.4600	 6.5310
 0.4610	 6.5340
 0.4620	 6.5510
 0.4630	 6.5720
 0.4640	 6.5860
 0.4650	 6.5850
 0.4660	 6.5760
 0.4670	 6.5810
 0.4680	 6.5950
 0.4690	 6.6070
 0.4700	 6.6100
 0.4710	 6.6070
 0.4720	 6.6180
 0.4730	 6.6330
 0.4740	 6.6270
 0.4750	 6.6270
 0.4760	 6.6260
 0.4770	 6.6250
 0.4780	 6.6380
 0.4790	 6.6440
 0.4800	 6.6470
 0.4810	 6.6550
 0.4820	 6.6620
 0.4830	 6.6670
 0.4840	 6.6680
 0.4850	 6.6710
 0.4860	 6.6710
 0.4870	 6.6800
 0.4880	 6.7000
 0.4890	 6.7140
 0.4900	 6.7280
 0.4910	 6.7440
 0.4920	 6.7630
 0.4930	 6.7770
 0.4940	 6.8050
 0.4950	 6.8460
 0.4960	 6.8690
 0.4970	 6.8980
 0.4980	 6.9350
 0.4990	 6.9780
 0.5000	 7.0370
 0.5010	 7.0930
 0.5020	 7.1490
 0.5030	 7.2180
 0.5040	 7.2820
 0.5050	 7.3440
 0.5060	 7.4180
 0.5070	 7.5180
 0.5080	 7.6190
 0.5090	 7.7210
 0.5100	 7.8340
 0.5110	 7.9570
 0.5120	 8.0900
 0.5130	 8.2320
 0.5140	 8.3870
 0.5150	 8.5490
 0.5160	 8.7170
 0.5170	 8.8940
 0.5180	 9.0740
 0.5190	 9.2560
 0.5200	 9.4410
 0.5210	 9.6310
 0.5220	 9.8260
 0.5230	10.0190
 0.5240	10.2040
 0.5250	10.3760
 0.5260	10.5450
 0.5270	10.7080
 0.5280	10.8620
 0.5290	11.0060
 0.5300	11.1400
 0.5310	11.2610
 0.5320	11.3640
 0.5330	11.4660
 0.5340	11.5630
 0.5350	11.6500
 0.5360	11.7330
 0.5370	11.8020
 0.5380	11.8600
 0.5390	11.9150
 0.5400	11.9670
 0.5410	12.0130
 0.5420	12.0520
 0.5430	12.0950
 0.5440	12.1390
 0.5450	12.1840
 0.5460	12.2290
 0.5470	12.2900
 0.5480	12.3460
 0.5490	12.3890
 0.5500	12.4230
 0.5510	12.4540
 0.5520	12.4770
 0.5530	12.4900
 0.5540	12.4970
 0.5550	12.4920
 0.5560	12.4740
 0.5570	12.4430
 0.5580	12.4000
 0.5590	12.3490
 0.5600	12.2910
 0.5610	12.2280
 0.5620	12.1600
 0.5630	12.0820
 0.5640	11.9950
 0.5650	11.9040
 0.5660	11.8120
 0.5670	11.7190
 0.5680	11.6160
 0.5690	11.5150
 0.5700	11.4120
 0.5710	11.3020
 0.5720	11.1960
 0.5730	11.0930
 0.5740	10.9960
 0.5750	10.9080
 0.5760	10.8240
 0.5770	10.7420
 0.5780	10.6620
 0.5790	10.5950
 0.5800	10.5290
 0.5810	10.4660
 0.5820	10.4100
 0.5830	10.3560
 0.5840	10.3060
 0.5850	10.2580
 0.5860	10.2080
 0.5870	10.1630
 0.5880	10.1220
 0.5890	10.0820
 0.5900	10.0440
 0.5910	10.0110
 0.5920	 9.9810
 0.5930	 9.9490
 0.5940	 9.9200
 0.5950	 9.8960
 0.5960	 9.8750
 0.5970	 9.8550
 0.5980	 9.8330
 0.5990	 9.8090
 0.6000	 9.7830
 0.6010	 9.7570
 0.6020	 9.7290
 0.6030	 9.7000
 0.6040	 9.6650
 0.6050	 9.6280
 0.6060	 9.5870
 0.6070	 9.5420
 0.6080	 9.4920
 0.6090	 9.4380
 0.6100	 9.3790
 0.6110	 9.3170
 0.6120	 9.2670
 0.6130	 9.2220
 0.6140	 9.1760
 0.6150	 9.1250
 0.6160	 9.0790
 0.6170	 9.0370
 0.6180	 8.9970
 0.6190	 8.9620
 0.6200	 8.9290
 0.6210	 8.8980
 0.6220	 8.8730
 0.6230	 8.8540
 0.6240	 8.8390
 0.6250	 8.8270
 0.6260	 8.8230
 0.6270	 8.8160
 0.6280	 8.8110
 0.6290	 8.8140
 0.6300	 8.8100
 0.6310	 8.8050
 0.6320	 8.8000
 0.6330	 8.7870
 0.6340	 8.7630
 0.6350	 8.7300
 0.6360	 8.6880
 0.6370	 8.6330
 0.6380	 8.5700
 0.6390	 8.4990
 0.6400	 8.4210
 0.6410	 8.3390
 0.6420	 8.2550
 0.6430	 8.1710
 0.6440	 8.0870
 0.6450	 8.0060
 0.6460	 7.9270
 0.6470	 7.8540
 0.6480	 7.7930
 0.6490	 7.7410
 0.6500	 7.6970
 0.6510	 7.6600
 0.6520	 7.6330
 0.6530	 7.6080
 0.6540	 7.5790
 0.6550	 7.5570
 0.6560	 7.5310
 0.6570	 7.4980
 0.6580	 7.4590
 0.6590	 7.4200
 0.6600	 7.3760
 0.6610	 7.3280
 0.6620	 7.2810
 0.6630	 7.2350
 0.6640	 7.1890
 0.6650	 7.1450
 0.6660	 7.1100
 0.6670	 7.0820
 0.6680	 7.0590
 0.6690	 7.0410
 0.6700	 7.0290
 0.6710	 7.0220
 0.6720	 7.0220
 0.6730	 7.0300
 0.6740	 7.0380
 0.6750	 7.0510
 0.6760	 7.0730
 0.6770	 7.0980
 0.6780	 7.1260
 0.6790	 7.1590
 0.6800	 7.2060
 0.6810	 7.2560
 0.6820	 7.3140
 0.6830	 7.3870
 0.6840	 7.4720
 0.6850	 7.5820
 0.6860	 7.7170
 0.6870	 7.8790
 0.6880	 8.0800
 0.6890	 8.3250
 0.6900	 8.6220
 0.6910	 8.9790
 0.6920	 9.3940
 0.6930	 9.8720
 0.6940	10.4160
 0.6950	11.0150
 0.6960	11.6620
 0.6970	12.3580
 0.6980	13.1040
 0.6990	13.8780
 0.7000	14.6760
 0.7010	15.4980
 0.7020	16.3400
 0.7030	17.1990
 0.7040	18.0620
 0.7050	18.9210
 0.7060	19.7810
 0.7070	20.6430
 0.7080	21.5040
 0.7090	22.3660
 0.7100	23.2320
 0.7110	24.0910
 0.7120	24.9440
 0.7130	25.8030
 0.7140	26.6530
 0.7150	27.4980
 0.7160	28.3450
 0.7170	29.1880
 0.7180	30.0230
 0.7190	30.8490
 0.7200	31.6690
 0.7210	32.4710
 0.7220	33.2610
 0.7230	34.0380
 0.7240	34.7900
 0.7250	35.5210
 0.7260	36.2320
 0.7270	36.9220
 0.7280	37.5830
 0.7290	38.2180
 0.7300	38.8270
 0.7310	39.4090
 0.7320	39.9570
 0.7330	40.4760
 0.7340	40.9730
 0.7350	41.4610
 0.7360	41.9180
 0.7370	42.3390
 0.7380	42.7300
 0.7390	43.1080
 0.7400	43.4550
 0.7410	43.7780
 0.7420	44.0880
 0.7430	44.3570
 0.7440	44.6180
 0.7450	44.8750
 0.7460	45.1010
 0.7470	45.3130
 0.7480	45.5060
 0.7490	45.6730
 0.7500	45.8260
 0.7510	45.9710
 0.7520	46.1050
 0.7530	46.2250
 0.7540	46.3420
 0.7550	46.4470
 0.7560	46.5400
 0.7570	46.6230
 0.7580	46.6970
 0.7590	46.7610
 0.7600	46.8190
 0.7610	46.8790
 0.7620	46.9340
 0.7630	46.9880
 0.7640	47.0420
 0.7650	47.0790
 0.7660	47.1040
 0.7670	47.1220
 0.7680	47.1380
 0.7690	47.1780
 0.7700	47.2170
 0.7710	47.2430
 0.7720	47.2650
 0.7730	47.2860
 0.7740	47.3090
 0.7750	47.3330
 0.7760	47.3430
 0.7770	47.3620
 0.7780	47.3840
 0.7790	47.3900
 0.7800	47.4100
 0.7810	47.4340
 0.7820	47.4540
 0.7830	47.4660
 0.7840	47.4850
 0.7850	47.5060
 0.7860	47.5210
 0.7870	47.5360
 0.7880	47.5590
 0.7890	47.5820
 0.7900	47.5980
 0.7910	47.6120
 0.7920	47.6240
 0.7930	47.6390
 0.7940	47.6640
 0.7950	47.6720
 0.7960	47.6930
 0.7970	47.7280
 0.7980	47.7280
 0.7990	47.7450
 0.8000	47.7640
 0.8010	47.7710
 0.8020	47.7870
 0.8030	47.8100
 0.8040	47.8340
 0.8050	47.8540
 0.8060	47.8590
 0.8070	47.8680
 0.8080	47.8840
 0.8090	47.8980
 0.8100	47.9170
 0.8110	47.9500
 0.8120	47.9870
 0.8130	47.9920
 0.8140	47.9920
 0.8150	48.0000
 0.8160	48.0210
 0.8170	48.0550
 0.8180	48.0740
 0.8190	48.0830
 0.8200	48.1000
 0.8210	48.1290
 0.8220	48.1460
 0.8230	48.1530
 0.8240	48.1780
 0.8250	48.1800
 0.8260	48.1890
 0.8270	48.2190
 0.8280	48.2410
 0.8290	48.2420
 0.8300	48.2450
 0.8310	48.2670
 0.8320	48.2850
 0.8330	48.2930
 0.8340	48.3050
 0.8350	48.3360
 0.8360	48.3540
 0.8370	48.3580
 0.8380	48.3620
 0.8390	48.3850
 0.8400	48.4100
 0.8410	48.4360
 0.8420	48.4590
 0.8430	48.4710
 0.8440	48.4880
 0.8450	48.5110
 0.8460	48.5340
 0.8470	48.5370
 0.8480	48.5560
 0.8490	48.5840
 0.8500	48.6030
 0.8510	48.6070
 0.8520	48.6240
 0.8530	48.6490
 0.8540	48.6640
 0.8550	48.6870
 0.8560	48.7060
 0.8570	48.7190
 0.8580	48.7290
 0.8590	48.7410
 0.8600	48.7570
 0.8610	48.7760
 0.8620	48.7820
 0.8630	48.7960
 0.8640	48.8090
 0.8650	48.8170
 0.8660	48.8280
 0.8670	48.8420
 0.8680	48.8510
 0.8690	48.8500
 0.8700	48.8570
 0.8710	48.8680
 0.8720	48.8820
 0.8730	48.8960
 0.8740	48.9070
 0.8750	48.9140
 0.8760	48.9170
 0.8770	48.9210
 0.8780	48.9300
 0.8790	48.9310
 0.8800	48.9280
 0.8810	48.9450
 0.8820	48.9510
 0.8830	48.9500
 0.8840	48.9500
 0.8850	48.9500
 0.8860	48.9550
 0.8870	48.9600
 0.8880	48.9610
 0.8890	48.9650
 0.8900	48.9660
 0.8910	48.9620
 0.8920	48.9530
 0.8930	48.9410
 0.8940	48.9260
 0.8950	48.9180
 0.8960	48.9250
 0.8970	48.9280
 0.8980	48.9280
 0.8990	48.9260
 0.9000	48.9220
 0.9010	48.9090
 0.9020	48.8990
 0.9030	48.8970
 0.9040	48.9010
 0.9050	48.8970
 0.9060	48.8850
 0.9070	48.8720
 0.9080	48.8670
 0.9090	48.8580
 0.9100	48.8500
 0.9110	48.8480
 0.9120	48.8370
 0.9130	48.8280
 0.9140	48.8220
 0.9150	48.8150
 0.9160	48.8020
 0.9170	48.7950
 0.9180	48.7910
 0.9190	48.7790
 0.9200	48.7590
 0.9210	48.7410
 0.9220	48.7240
 0.9230	48.7000
 0.9240	48.6950
 0.9250	48.6690
 0.9260	48.6260
 0.9270	48.6060
 0.9280	48.5850
 0.9290	48.5590
 0.9300	48.5300
 0.9310	48.4990
 0.9320	48.4570
 0.9330	48.4000
 0.9340	48.3450
 0.9350	48.3200
 0.9360	48.3050
 0.9370	48.2670
 0.9380	48.2050
 0.9390	48.1670
 0.9400	48.1190
 0.9410	48.0650
 0.9420	48.0110
 0.9430	47.9540
 0.9440	47.8970
 0.9450	47.8410
 0.9460	47.7770
 0.9470	47.6790
 0.9480	47.5870
 0.9490	47.5000
 0.9500	47.4050
 0.9510	47.3010
 0.9520	47.1960
 0.9530	47.0910
 0.9540	46.9840
 0.9550	46.8800
 0.9560	46.7710
 0.9570	46.6570
 0.9580	46.5470
 0.9590	46.4670
 0.9600	46.3820
 0.9610	46.2900
 0.9620	46.2060
 0.9630	46.1540
 0.9640	46.1050
 0.9650	46.0620
 0.9660	46.0330
 0.9670	46.0050
 0.9680	45.9770
 0.9690	45.9450
 0.9700	45.9110
 0.9710	45.8990
 0.9720	45.8900
 0.9730	45.8730
 0.9740	45.8510
 0.9750	45.8490
 0.9760	45.8440
 0.9770	45.8320
 0.9780	45.8230
 0.9790	45.8370
 0.9800	45.8660
 0.9810	45.8860
 0.9820	45.8790
 0.9830	45.9070
 0.9840	45.9370
 0.9850	45.9600
 0.9860	45.9800
 0.9870	45.9910
 0.9880	46.0140
 0.9890	46.0480
 0.9900	46.0810
 0.9910	46.1210
 0.9920	46.1790
 0.9930	46.2340
 0.9940	46.2620
 0.9950	46.2930
 0.9960	46.3550
 0.9970	46.4310
 0.9980	46.4850
 0.9990	46.5040
 1.0000	46.5160
 1.0010	46.4800
 1.0020	46.5150
 1.0030	46.5640
 1.0040	46.6160
 1.0050	46.6680
 1.0060	46.7180
 1.0070	46.7660
 1.0080	46.8200
 1.0090	46.8780
 1.0100	46.9350
 1.0110	46.9950
 1.0120	47.0510
 1.0130	47.1010
 1.0140	47.1540
 1.0150	47.2060
 1.0160	47.2610
 1.0170	47.3130
 1.0180	47.3640
 1.0190	47.4130
 1.0200	47.4670
 1.0210	47.5240
 1.0220	47.5780
 1.0230	47.6260
 1.0240	47.6710
 1.0250	47.7150
 1.0260	47.7530
 1.0270	47.7970
 1.0280	47.8460
 1.0290	47.8920
 1.0300	47.9410
 1.0310	47.9850
 1.0320	48.0260
 1.0330	48.0660
 1.0340	48.1090
 1.0350	48.1480
 1.0360	48.1880
 1.0370	48.2250
 1.0380	48.2630
 1.0390	48.3000
 1.0400	48.3360
 1.0410	48.3730
 1.0420	48.4090
 1.0430	48.4410
 1.0440	48.4730
 1.0450	48.5090
 1.0460	48.5390
 1.0470	48.5630
 1.0480	48.5910
 1.0490	48.6200
 1.0500	48.6460
 1.0510	48.6720
 1.0520	48.7020
 1.0530	48.7260
 1.0540	48.7430
 1.0550	48.7660
 1.0560	48.7890
 1.0570	48.8110
 1.0580	48.8330
 1.0590	48.8540
 1.0600	48.8730
 1.0610	48.8910
 1.0620	48.9060
 1.0630	48.9230
 1.0640	48.9400
 1.0650	48.9550
 1.0660	48.9700
 1.0670	48.9850
 1.0680	48.9980
 1.0690	49.0090
 1.0700	49.0190
 1.0710	49.0290
 1.0720	49.0360
 1.0730	49.0380
 1.0740	49.0450
 1.0750	49.0550
 1.0760	49.0590
 1.0770	49.0610
 1.0780	49.0630
 1.0790	49.0620
 1.0800	49.0610
 1.0810	49.0630
 1.0820	49.0600
 1.0830	49.0500
 1.0840	49.0440
 1.0850	49.0360
 1.0860	49.0300
 1.0870	49.0200
 1.0880	49.0100
 1.0890	49.0000
 1.0900	48.9880
 1.0910	48.9780
 1.0920	48.9710
 1.0930	48.9570
 1.0940	48.9410
 1.0950	48.9230
 1.0960	48.9000
 1.0970	48.8800
 1.0980	48.8590
 1.0990	48.8380
 1.1000	48.8170
 1.1010	48.7960
 1.1020	48.7740
 1.1030	48.7520
 1.1040	48.7270
 1.1050	48.6980
 1.1060	48.6680
 1.1070	48.6350
 1.1080	48.6040
 1.1090	48.5730
 1.1100	48.5400
 1.1110	48.5080
 1.1120	48.4720
 1.1130	48.4350
 1.1140	48.3960
 1.1150	48.3550
 1.1160	48.3100
 1.1170	48.2630
 1.1180	48.2120
 1.1190	48.1600
 1.1200	48.1010
 1.1210	48.0370
 1.1220	47.9670
 1.1230	47.8880
 1.1240	47.8030
 1.1250	47.7090
 1.1260	47.6100
 1.1270	47.4970
 1.1280	47.3760
 1.1290	47.2440
 1.1300	47.1030
 1.1310	46.9480
 1.1320	46.7810
 1.1330	46.6040
 1.1340	46.4140
 1.1350	46.2140
 1.1360	46.0040
 1.1370	45.7840
 1.1380	45.5530
 1.1390	45.3160
 1.1400	45.0720
 1.1410	44.8250
 1.1420	44.5730
 1.1430	44.3200
 1.1440	44.0700
 1.1450	43.8150
 1.1460	43.5740
 1.1470	43.3340
 1.1480	43.1060
 1.1490	42.8830
 1.1500	42.6750
 1.1510	42.4730
 1.1520	42.2860
 1.1530	42.1120
 1.1540	41.9500
 1.1550	41.8010
 1.1560	41.6660
 1.1570	41.5390
 1.1580	41.4290
 1.1590	41.3320
 1.1600	41.2430
 1.1610	41.1640
 1.1620	41.0930
 1.1630	41.0270
 1.1640	40.9690
 1.1650	40.9180
 1.1660	40.8770
 1.1670	40.8360
 1.1680	40.8010
 1.1690	40.7690
 1.1700	40.7390
 1.1710	40.7110
 1.1720	40.6890
 1.1730	40.6620
 1.1740	40.6360
 1.1750	40.6100
 1.1760	40.5830
 1.1770	40.5550
 1.1780	40.5270
 1.1790	40.4980
 1.1800	40.4670
 1.1810	40.4370
 1.1820	40.4070
 1.1830	40.3760
 1.1840	40.3450
 1.1850	40.3170
 1.1860	40.2890
 1.1870	40.2620
 1.1880	40.2370
 1.1890	40.2120
 1.1900	40.1890
 1.1910	40.1690
 1.1920	40.1510
 1.1930	40.1350
 1.1940	40.1220
 1.1950	40.1110
 1.1960	40.1030
 1.1970	40.1000
 1.1980	40.1000
 1.1990	40.1040
 1.2000	40.1100
 1.2010	40.1200
 1.2020	40.1340
 1.2030	40.1490
 1.2040	40.1690
 1.2050	40.1930
 1.2060	40.2170
 1.2070	40.2460
 1.2080	40.2760
 1.2090	40.3060
 1.2100	40.3400
 1.2110	40.3780
 1.2120	40.4180
 1.2130	40.4620
 1.2140	40.5100
 1.2150	40.5590
 1.2160	40.6100
 1.2170	40.6620
 1.2180	40.7130
 1.2190	40.7690
 1.2200	40.8230
 1.2210	40.8760
 1.2220	40.9320
 1.2230	40.9880
 1.2240	41.0440
 1.2250	41.1020
 1.2260	41.1570
 1.2270	41.2120
 1.2280	41.2670
 1.2290	41.3200
 1.2300	41.3740
 1.2310	41.4270
 1.2320	41.4780
 1.2330	41.5280
 1.2340	41.5770
 1.2350	41.6250
 1.2360	41.6720
 1.2370	41.7190
 1.2380	41.7650
 1.2390	41.8080
 1.2400	41.8490
 1.2410	41.8880
 1.2420	41.9260
 1.2430	41.9670
 1.2440	42.0060
 1.2450	42.0420
 1.2460	42.0770
 1.2470	42.1080
 1.2480	42.1390
 1.2490	42.1720
 1.2500	42.2040
 1.2510	42.2370
 1.2520	42.2680
 1.2530	42.2970
 1.2540	42.3220
 1.2550	42.3430
 1.2560	42.3640
 1.2570	42.3850
 1.2580	42.4050
 1.2590	42.4240
 1.2600	42.4460
 1.2610	42.4620
 1.2620	42.4740
 1.2630	42.4840
 1.2640	42.4930
 1.2650	42.4980
 1.2660	42.5030
 1.2670	42.5090
 1.2680	42.5130
 1.2690	42.5170
 1.2700	42.5170
 1.2710	42.5120
 1.2720	42.5050
 1.2730	42.4960
 1.2740	42.4870
 1.2750	42.4790
 1.2760	42.4700
 1.2770	42.4570
 1.2780	42.4430
 1.2790	42.4260
 1.2800	42.4080
 1.2810	42.3890
 1.2820	42.3660
 1.2830	42.3390
 1.2840	42.3090
 1.2850	42.2790
 1.2860	42.2480
 1.2870	42.2140
 1.2880	42.1760
 1.2890	42.1370
 1.2900	42.0940
 1.2910	42.0460
 1.2920	41.9960
 1.2930	41.9430
 1.2940	41.8850
 1.2950	41.8260
 1.2960	41.7670
 1.2970	41.7010
 1.2980	41.6310
 1.2990	41.5580
 1.3000	41.4790
 1.3010	41.3980
 1.3020	41.3120
 1.3030	41.2200
 1.3040	41.1210
 1.3050	41.0190
 1.3060	40.9140
 1.3070	40.8050
 1.3080	40.6940
 1.3090	40.5760
 1.3100	40.4510
 1.3110	40.3230
 1.3120	40.1900
 1.3130	40.0550
 1.3140	39.9120
 1.3150	39.7630
 1.3160	39.6090
 1.3170	39.4520
 1.3180	39.2870
 1.3190	39.1200
 1.3200	38.9490
 1.3210	38.7710
 1.3220	38.5900
 1.3230	38.4060
 1.3240	38.2190
 1.3250	38.0300
 1.3260	37.8380
 1.3270	37.6430
 1.3280	37.4440
 1.3290	37.2390
 1.3300	37.0360
 1.3310	36.8300
 1.3320	36.6200
 1.3330	36.4140
 1.3340	36.2030
 1.3350	35.9910
 1.3360	35.7820
 1.3370	35.5720
 1.3380	35.3650
 1.3390	35.1600
 1.3400	34.9540
 1.3410	34.7520
 1.3420	34.5530
 1.3430	34.3580
 1.3440	34.1670
 1.3450	33.9790
 1.3460	33.7920
 1.3470	33.6110
 1.3480	33.4330
 1.3490	33.2590
 1.3500	33.0880
 1.3510	32.9200
 1.3520	32.7520
 1.3530	32.5870
 1.3540	32.4220
 1.3550	32.2590
 1.3560	32.0950
 1.3570	31.9280
 1.3580	31.7630
 1.3590	31.5960
 1.3600	31.4250
 1.3610	31.2500
 1.3620	31.0680
 1.3630	30.8830
 1.3640	30.6900
 1.3650	30.4910
 1.3660	30.2860
 1.3670	30.0710
 1.3680	29.8460
 1.3690	29.6110
 1.3700	29.3610
 1.3710	29.1000
 1.3720	28.8280
 1.3730	28.5380
 1.3740	28.2370
 1.3750	27.9210
 1.3760	27.5850
 1.3770	27.2320
 1.3780	26.8560
 1.3790	26.4610
 1.3800	26.0470
 1.3810	25.6120
 1.3820	25.1650
 1.3830	24.7010
 1.3840	24.2260
 1.3850	23.7360
 1.3860	23.2420
 1.3870	22.7340
 1.3880	22.2290
 1.3890	21.7190
 1.3900	21.2090
 1.3910	20.7070
 1.3920	20.2050
 1.3930	19.7070
 1.3940	19.2210
 1.3950	18.7380
 1.3960	18.2680
 1.3970	17.8140
 1.3980	17.3740
 1.3990	16.9560
 1.4000	16.5540
 1.4010	16.1680
 1.4020	15.8020
 1.4030	15.4510
 1.4040	15.1190
 1.4050	14.8070
 1.4060	14.5120
 1.4070	14.2360
 1.4080	13.9770
 1.4090	13.7330
 1.4100	13.5060
 1.4110	13.2940
 1.4120	13.0970
 1.4130	12.9150
 1.4140	12.7460
 1.4150	12.5900
 1.4160	12.4450
 1.4170	12.3120
 1.4180	12.1890
 1.4190	12.0750
 1.4200	11.9700
 1.4210	11.8740
 1.4220	11.7850
 1.4230	11.7050
 1.4240	11.6300
 1.4250	11.5610
 1.4260	11.4980
 1.4270	11.4400
 1.4280	11.3880
 1.4290	11.3400
 1.4300	11.2990
 1.4310	11.2610
 1.4320	11.2270
 1.4330	11.1970
 1.4340	11.1700
 1.4350	11.1470
 1.4360	11.1260
 1.4370	11.1080
 1.4380	11.0940
 1.4390	11.0820
 1.4400	11.0720
 1.4410	11.0650
 1.4420	11.0600
 1.4430	11.0560
 1.4440	11.0540
 1.4450	11.0540
 1.4460	11.0560
 1.4470	11.0600
 1.4480	11.0640
 1.4490	11.0700
 1.4500	11.0770
 1.4510	11.0850
 1.4520	11.0940
 1.4530	11.1030
 1.4540	11.1130
 1.4550	11.1240
 1.4560	11.1380
 1.4570	11.1530
 1.4580	11.1690
 1.4590	11.1870
 1.4600	11.2070
 1.4610	11.2290
 1.4620	11.2540
 1.4630	11.2820
 1.4640	11.3120
 1.4650	11.3450
 1.4660	11.3800
 1.4670	11.4190
 1.4680	11.4600
 1.4690	11.5060
 1.4700	11.5530
