Name: Taxodium mucronatum
Type: vegetation
Class: Tree
Genus: Taxodium
Species: mucronatum
Sample No.: JPL228
Owner: JPL
Wavelength Range: TIR
Origin: 34.12642; -118.11439; WGS84
Collection Date: 10/3/2016
Description: Samples were collected at the Huntington Garden in San Marino California as part of a JPL Subcontract studying HyTES imagery. Samples were taken to JPL and processed within 48 hours of collection. The same leaves were processed in the Nicolet and then measured using the ASD.
Measurement: Hemispherical reflectance
First Column: X
Second Column: Y
X Units: Wavelength (micrometer)
Y Units: Reflectance (percentage)
First X Value: 2.501
Last X Value: 15.387
Number of X Values: 1737
Additional Information: vegetation.tree.taxodium.mucronatum.tir.jpl228.jpl.nicolet.ancillary.txt

 2.5010	10.1670
 2.5030	10.1200
 2.5040	10.1190
 2.5050	10.1100
 2.5060	10.1210
 2.5070	10.1050
 2.5090	10.0630
 2.5100	10.0320
 2.5110	10.0760
 2.5120	10.0560
 2.5140	10.1130
 2.5150	10.0830
 2.5160	10.0290
 2.5170	 9.9320
 2.5180	 9.9870
 2.5200	 9.9770
 2.5210	 9.9640
 2.5220	 9.9350
 2.5230	 9.9310
 2.5250	 9.9050
 2.5260	 9.9320
 2.5270	 9.9530
 2.5280	10.0190
 2.5300	10.0650
 2.5310	10.0520
 2.5320	 9.8690
 2.5330	 9.8040
 2.5340	 9.8220
 2.5360	 9.8600
 2.5370	 9.8040
 2.5380	 9.8710
 2.5390	 9.9600
 2.5410	 9.9800
 2.5420	 9.8860
 2.5430	 9.8830
 2.5440	 9.9070
 2.5460	 9.9450
 2.5470	 9.9130
 2.5480	 9.9630
 2.5490	 9.9240
 2.5510	 9.8830
 2.5520	 9.8290
 2.5530	 9.8500
 2.5540	 9.8310
 2.5560	 9.8820
 2.5570	 9.9320
 2.5580	 9.9810
 2.5590	 9.9090
 2.5610	 9.7780
 2.5620	 9.6470
 2.5630	 9.7030
 2.5650	 9.7460
 2.5660	 9.9160
 2.5670	 9.9990
 2.5680	 9.9530
 2.5700	 9.8360
 2.5710	 9.9260
 2.5720	 9.9780
 2.5730	 9.8270
 2.5750	 9.8060
 2.5760	 9.8880
 2.5770	 9.8570
 2.5790	 9.9110
 2.5800	 9.8770
 2.5810	 9.8100
 2.5820	 9.7540
 2.5840	 9.6480
 2.5850	 9.7310
 2.5860	 9.8750
 2.5880	 9.7500
 2.5890	 9.7790
 2.5900	 9.7740
 2.5910	 9.8400
 2.5930	 9.7910
 2.5940	 9.3870
 2.5950	 9.0310
 2.5970	 9.4180
 2.5980	 9.7230
 2.5990	 9.7870
 2.6010	 9.6890
 2.6020	 9.6360
 2.6030	 9.6340
 2.6040	 9.4710
 2.6060	 9.2060
 2.6070	 9.3260
 2.6080	 9.4730
 2.6100	 9.5290
 2.6110	 9.5180
 2.6120	 9.5810
 2.6140	 9.5030
 2.6150	 9.5190
 2.6160	 9.3440
 2.6180	 9.2680
 2.6190	 9.3580
 2.6200	 9.2370
 2.6220	 9.1740
 2.6230	 9.4160
 2.6240	 9.5030
 2.6260	 9.4040
 2.6270	 9.1270
 2.6280	 9.1950
 2.6300	 9.1230
 2.6310	 8.9620
 2.6320	 9.0980
 2.6340	 9.2150
 2.6350	 9.1340
 2.6360	 9.2030
 2.6380	 9.2100
 2.6390	 9.2100
 2.6400	 9.1700
 2.6420	 9.1320
 2.6430	 9.0380
 2.6440	 9.0370
 2.6460	 8.9530
 2.6470	 8.9610
 2.6480	 8.9320
 2.6500	 8.9090
 2.6510	 8.8510
 2.6520	 8.7870
 2.6540	 8.7550
 2.6550	 8.8090
 2.6570	 8.7640
 2.6580	 8.8640
 2.6590	 8.7640
 2.6610	 8.7090
 2.6620	 8.6790
 2.6630	 8.7030
 2.6650	 8.4940
 2.6660	 8.3240
 2.6670	 8.2750
 2.6690	 8.3630
 2.6700	 8.1170
 2.6720	 8.0860
 2.6730	 8.4400
 2.6740	 8.5080
 2.6760	 8.3430
 2.6770	 8.2560
 2.6780	 8.2260
 2.6800	 8.2160
 2.6810	 8.3360
 2.6830	 8.4160
 2.6840	 8.3270
 2.6850	 8.3000
 2.6870	 8.2450
 2.6880	 8.2820
 2.6900	 8.3040
 2.6910	 8.3140
 2.6920	 8.2150
 2.6940	 8.0610
 2.6950	 7.9760
 2.6970	 8.0820
 2.6980	 8.1730
 2.6990	 8.1890
 2.7010	 8.0990
 2.7020	 8.1390
 2.7040	 8.1390
 2.7050	 8.1570
 2.7060	 8.1020
 2.7080	 8.0740
 2.7090	 7.9880
 2.7110	 7.8510
 2.7120	 7.7430
 2.7130	 7.8740
 2.7150	 7.9190
 2.7160	 7.9120
 2.7180	 7.8360
 2.7190	 7.7780
 2.7210	 7.5790
 2.7220	 7.6500
 2.7230	 7.6450
 2.7250	 7.6070
 2.7260	 7.7020
 2.7280	 7.8650
 2.7290	 7.9290
 2.7310	 7.9190
 2.7320	 7.8470
 2.7340	 7.8640
 2.7350	 7.8260
 2.7360	 7.8880
 2.7380	 7.8260
 2.7390	 7.6460
 2.7410	 7.5330
 2.7420	 7.6300
 2.7440	 7.7430
 2.7450	 7.8480
 2.7470	 7.8130
 2.7480	 7.8160
 2.7490	 7.8080
 2.7510	 7.8660
 2.7520	 7.8400
 2.7540	 7.8040
 2.7550	 7.5610
 2.7570	 7.6100
 2.7580	 7.8290
 2.7600	 7.8910
 2.7610	 7.7800
 2.7630	 7.6940
 2.7640	 7.6910
 2.7660	 7.7640
 2.7670	 7.7360
 2.7690	 7.7210
 2.7700	 7.6890
 2.7720	 7.7050
 2.7730	 7.7350
 2.7740	 7.7820
 2.7760	 7.7790
 2.7770	 7.8240
 2.7790	 7.8520
 2.7800	 7.8640
 2.7820	 7.7570
 2.7830	 7.7810
 2.7850	 7.7900
 2.7860	 7.7710
 2.7880	 7.7030
 2.7890	 7.8080
 2.7910	 7.8240
 2.7920	 7.8120
 2.7940	 7.7670
 2.7950	 7.8000
 2.7970	 7.8540
 2.7980	 7.8900
 2.8000	 7.8000
 2.8010	 7.8080
 2.8030	 7.7270
 2.8040	 7.7460
 2.8060	 7.7690
 2.8080	 7.8150
 2.8090	 7.7870
 2.8110	 7.8550
 2.8120	 7.8890
 2.8140	 7.8570
 2.8150	 7.8370
 2.8170	 7.8470
 2.8180	 7.7910
 2.8200	 7.7960
 2.8210	 7.8190
 2.8230	 7.9090
 2.8240	 7.8820
 2.8260	 7.8300
 2.8270	 7.8320
 2.8290	 7.9350
 2.8310	 7.8960
 2.8320	 7.9010
 2.8340	 7.9360
 2.8350	 7.9100
 2.8370	 7.8100
 2.8380	 7.8660
 2.8400	 7.8590
 2.8410	 7.8320
 2.8430	 7.8400
 2.8440	 7.8590
 2.8460	 7.8280
 2.8480	 7.7940
 2.8490	 7.7790
 2.8510	 7.8280
 2.8520	 7.7910
 2.8540	 7.7800
 2.8550	 7.8000
 2.8570	 7.9260
 2.8590	 7.9480
 2.8600	 7.9080
 2.8620	 7.8170
 2.8630	 7.8540
 2.8650	 7.8720
 2.8660	 7.9270
 2.8680	 7.8520
 2.8700	 7.8410
 2.8710	 7.8330
 2.8730	 7.8620
 2.8740	 7.8310
 2.8760	 7.9040
 2.8780	 7.9140
 2.8790	 7.9640
 2.8810	 7.9330
 2.8820	 7.9060
 2.8840	 7.8450
 2.8860	 7.9220
 2.8870	 7.9570
 2.8890	 7.9400
 2.8900	 7.8710
 2.8920	 7.8690
 2.8940	 7.8830
 2.8950	 7.9620
 2.8970	 7.9020
 2.8990	 7.8910
 2.9000	 7.8740
 2.9020	 7.8840
 2.9030	 7.8280
 2.9050	 7.8890
 2.9070	 7.9250
 2.9080	 7.9520
 2.9100	 7.9090
 2.9120	 7.9000
 2.9130	 7.9000
 2.9150	 7.9580
 2.9160	 7.9360
 2.9180	 7.9900
 2.9200	 7.9640
 2.9210	 7.9160
 2.9230	 7.8920
 2.9250	 7.9290
 2.9260	 7.9260
 2.9280	 8.0030
 2.9300	 7.9310
 2.9310	 7.9330
 2.9330	 7.9250
 2.9350	 7.9810
 2.9360	 7.9570
 2.9380	 7.9440
 2.9400	 7.9180
 2.9410	 8.0180
 2.9430	 8.0440
 2.9450	 7.9980
 2.9460	 7.9230
 2.9480	 7.9180
 2.9500	 7.9130
 2.9510	 7.9810
 2.9530	 7.9700
 2.9550	 7.9450
 2.9560	 7.9150
 2.9580	 8.0130
 2.9600	 8.0240
 2.9610	 8.0240
 2.9630	 7.9900
 2.9650	 8.0370
 2.9670	 7.9800
 2.9680	 7.9730
 2.9700	 7.9480
 2.9720	 7.9420
 2.9730	 7.9120
 2.9750	 7.9060
 2.9770	 7.9110
 2.9780	 7.9530
 2.9800	 7.9490
 2.9820	 8.0290
 2.9840	 7.9920
 2.9850	 7.9990
 2.9870	 7.9780
 2.9890	 7.9960
 2.9900	 7.9960
 2.9920	 8.0060
 2.9940	 7.9160
 2.9960	 7.9010
 2.9970	 7.9410
 2.9990	 7.9870
 3.0010	 7.9710
 3.0030	 8.0000
 3.0040	 7.9650
 3.0060	 7.9500
 3.0080	 7.9210
 3.0100	 8.0210
 3.0110	 8.0690
 3.0130	 8.0340
 3.0150	 7.9670
 3.0170	 7.9830
 3.0180	 7.9940
 3.0200	 8.0500
 3.0220	 7.9850
 3.0240	 7.9190
 3.0250	 7.8960
 3.0270	 7.9730
 3.0290	 7.9230
 3.0310	 7.9030
 3.0320	 7.9140
 3.0340	 7.9900
 3.0360	 7.9520
 3.0380	 7.8830
 3.0400	 7.8580
 3.0410	 7.9560
 3.0430	 8.0040
 3.0450	 8.0160
 3.0470	 7.9430
 3.0480	 7.9690
 3.0500	 7.9380
 3.0520	 7.9730
 3.0540	 8.0000
 3.0560	 8.0130
 3.0570	 7.9200
 3.0590	 7.9410
 3.0610	 7.9330
 3.0630	 7.9800
 3.0650	 7.9600
 3.0670	 7.9340
 3.0680	 7.8790
 3.0700	 7.9300
 3.0720	 7.9370
 3.0740	 7.9690
 3.0760	 7.9720
 3.0770	 7.9740
 3.0790	 7.9440
 3.0810	 7.9590
 3.0830	 7.9150
 3.0850	 7.9010
 3.0870	 7.8900
 3.0880	 7.9600
 3.0900	 7.9690
 3.0920	 7.9910
 3.0940	 7.9590
 3.0960	 7.9410
 3.0980	 7.8930
 3.1000	 7.9280
 3.1010	 7.9190
 3.1030	 7.9440
 3.1050	 7.9300
 3.1070	 7.9460
 3.1090	 7.9250
 3.1110	 7.9330
 3.1130	 7.9220
 3.1140	 7.9360
 3.1160	 7.8970
 3.1180	 7.8850
 3.1200	 7.8620
 3.1220	 7.9180
 3.1240	 7.9560
 3.1260	 7.9810
 3.1280	 7.9170
 3.1290	 7.9790
 3.1310	 7.9920
 3.1330	 7.9920
 3.1350	 7.9830
 3.1370	 7.9820
 3.1390	 7.9460
 3.1410	 7.9400
 3.1430	 7.8800
 3.1450	 7.8780
 3.1470	 7.9100
 3.1480	 7.9790
 3.1500	 7.9490
 3.1520	 7.9380
 3.1540	 7.9090
 3.1560	 7.9190
 3.1580	 7.9250
 3.1600	 7.9360
 3.1620	 7.8920
 3.1640	 7.9020
 3.1660	 7.8760
 3.1680	 7.9150
 3.1700	 7.8910
 3.1720	 7.9270
 3.1730	 7.9070
 3.1750	 7.8880
 3.1770	 7.8720
 3.1790	 7.8970
 3.1810	 7.8520
 3.1830	 7.9130
 3.1850	 7.8810
 3.1870	 7.8240
 3.1890	 7.8210
 3.1910	 7.8810
 3.1930	 7.9140
 3.1950	 7.9520
 3.1970	 7.9610
 3.1990	 7.9830
 3.2010	 7.9170
 3.2030	 7.8800
 3.2050	 7.8530
 3.2070	 7.8560
 3.2090	 7.8490
 3.2110	 7.8680
 3.2130	 7.8210
 3.2150	 7.8800
 3.2170	 7.8930
 3.2190	 7.8880
 3.2210	 7.8550
 3.2230	 7.8830
 3.2250	 7.8620
 3.2270	 7.8610
 3.2290	 7.8560
 3.2310	 7.8710
 3.2330	 7.8140
 3.2350	 7.8210
 3.2370	 7.8380
 3.2390	 7.8820
 3.2410	 7.8860
 3.2430	 7.9190
 3.2450	 7.9020
 3.2470	 7.8760
 3.2490	 7.8260
 3.2510	 7.8450
 3.2530	 7.8850
 3.2550	 7.9190
 3.2570	 7.8820
 3.2590	 7.8760
 3.2610	 7.8620
 3.2630	 7.8780
 3.2650	 7.8290
 3.2670	 7.7990
 3.2700	 7.8070
 3.2720	 7.8790
 3.2740	 7.8290
 3.2760	 7.8150
 3.2780	 7.8340
 3.2800	 7.8470
 3.2820	 7.8000
 3.2840	 7.7670
 3.2860	 7.7790
 3.2880	 7.8800
 3.2900	 7.8600
 3.2920	 7.8230
 3.2940	 7.7740
 3.2970	 7.8240
 3.2990	 7.8490
 3.3010	 7.8410
 3.3030	 7.8380
 3.3050	 7.8530
 3.3070	 7.8010
 3.3090	 7.7960
 3.3110	 7.7460
 3.3130	 7.7770
 3.3160	 7.7850
 3.3180	 7.7760
 3.3200	 7.7920
 3.3220	 7.8290
 3.3240	 7.7370
 3.3260	 7.7210
 3.3280	 7.7880
 3.3300	 7.8290
 3.3330	 7.7770
 3.3350	 7.7580
 3.3370	 7.7500
 3.3390	 7.8050
 3.3410	 7.8240
 3.3430	 7.8080
 3.3450	 7.7580
 3.3480	 7.7450
 3.3500	 7.6880
 3.3520	 7.7150
 3.3540	 7.7280
 3.3560	 7.7650
 3.3580	 7.7210
 3.3610	 7.6940
 3.3630	 7.6700
 3.3650	 7.6900
 3.3670	 7.6950
 3.3690	 7.7180
 3.3720	 7.7000
 3.3740	 7.6970
 3.3760	 7.6870
 3.3780	 7.6950
 3.3800	 7.6980
 3.3830	 7.6960
 3.3850	 7.6890
 3.3870	 7.6870
 3.3890	 7.6400
 3.3910	 7.6650
 3.3940	 7.6340
 3.3960	 7.6650
 3.3980	 7.6890
 3.4000	 7.6980
 3.4030	 7.6430
 3.4050	 7.6540
 3.4070	 7.7100
 3.4090	 7.7800
 3.4110	 7.8220
 3.4140	 7.8530
 3.4160	 7.8850
 3.4180	 8.0380
 3.4200	 8.1480
 3.4230	 8.3550
 3.4250	 8.5510
 3.4270	 8.7480
 3.4300	 8.8660
 3.4320	 8.8930
 3.4340	 8.7800
 3.4360	 8.6590
 3.4390	 8.5450
 3.4410	 8.4550
 3.4430	 8.3650
 3.4450	 8.3220
 3.4480	 8.2800
 3.4500	 8.2980
 3.4520	 8.3070
 3.4550	 8.2780
 3.4570	 8.2230
 3.4590	 8.2140
 3.4620	 8.1990
 3.4640	 8.1940
 3.4660	 8.1660
 3.4690	 8.1680
 3.4710	 8.1250
 3.4730	 8.1190
 3.4760	 8.1240
 3.4780	 8.0790
 3.4800	 8.0280
 3.4830	 8.0430
 3.4850	 8.0110
 3.4870	 7.9930
 3.4900	 7.9660
 3.4920	 7.9300
 3.4940	 7.9080
 3.4970	 7.9730
 3.4990	 7.9500
 3.5010	 7.9540
 3.5040	 8.0670
 3.5060	 8.2570
 3.5080	 8.5210
 3.5110	 8.8280
 3.5130	 8.8760
 3.5160	 8.7500
 3.5180	 8.5900
 3.5200	 8.4960
 3.5230	 8.4370
 3.5250	 8.4280
 3.5280	 8.4080
 3.5300	 8.3680
 3.5320	 8.3210
 3.5350	 8.2950
 3.5370	 8.2460
 3.5400	 8.2300
 3.5420	 8.2120
 3.5440	 8.2360
 3.5470	 8.2260
 3.5490	 8.2280
 3.5520	 8.2500
 3.5540	 8.2750
 3.5570	 8.2270
 3.5590	 8.2280
 3.5610	 8.2170
 3.5640	 8.2380
 3.5660	 8.2260
 3.5690	 8.2130
 3.5710	 8.1670
 3.5740	 8.1810
 3.5760	 8.2190
 3.5790	 8.2500
 3.5810	 8.2320
 3.5840	 8.2360
 3.5860	 8.2300
 3.5890	 8.2510
 3.5910	 8.2560
 3.5940	 8.2360
 3.5960	 8.1930
 3.5990	 8.2360
 3.6010	 8.2630
 3.6040	 8.2830
 3.6060	 8.2310
 3.6090	 8.2220
 3.6110	 8.2010
 3.6140	 8.1740
 3.6160	 8.1470
 3.6190	 8.1880
 3.6210	 8.1970
 3.6240	 8.2030
 3.6260	 8.1800
 3.6290	 8.2010
 3.6310	 8.2330
 3.6340	 8.2760
 3.6360	 8.2360
 3.6390	 8.2170
 3.6410	 8.2330
 3.6440	 8.2760
 3.6470	 8.2650
 3.6490	 8.2530
 3.6520	 8.2680
 3.6540	 8.2860
 3.6570	 8.2350
 3.6590	 8.2550
 3.6620	 8.2510
 3.6650	 8.2460
 3.6670	 8.2480
 3.6700	 8.2770
 3.6720	 8.3000
 3.6750	 8.3010
 3.6780	 8.2720
 3.6800	 8.2900
 3.6830	 8.2870
 3.6850	 8.2830
 3.6880	 8.2800
 3.6910	 8.2960
 3.6930	 8.2960
 3.6960	 8.3100
 3.6990	 8.2890
 3.7010	 8.3170
 3.7040	 8.3140
 3.7070	 8.3220
 3.7090	 8.3060
 3.7120	 8.2960
 3.7150	 8.2780
 3.7170	 8.2900
 3.7200	 8.2850
 3.7230	 8.3400
 3.7250	 8.3340
 3.7280	 8.3380
 3.7310	 8.3440
 3.7330	 8.3480
 3.7360	 8.3250
 3.7390	 8.3340
 3.7410	 8.3480
 3.7440	 8.3610
 3.7470	 8.3510
 3.7490	 8.3870
 3.7520	 8.3850
 3.7550	 8.3570
 3.7580	 8.3590
 3.7600	 8.3760
 3.7630	 8.3320
 3.7660	 8.3630
 3.7690	 8.3660
 3.7710	 8.3970
 3.7740	 8.4090
 3.7770	 8.4480
 3.7790	 8.4260
 3.7820	 8.4200
 3.7850	 8.4090
 3.7880	 8.4150
 3.7910	 8.4060
 3.7930	 8.4070
 3.7960	 8.3980
 3.7990	 8.3940
 3.8020	 8.3880
 3.8040	 8.3920
 3.8070	 8.3980
 3.8100	 8.4440
 3.8130	 8.4670
 3.8160	 8.4630
 3.8180	 8.4430
 3.8210	 8.4330
 3.8240	 8.4210
 3.8270	 8.4670
 3.8300	 8.4640
 3.8330	 8.4660
 3.8350	 8.4320
 3.8380	 8.4220
 3.8410	 8.4580
 3.8440	 8.4510
 3.8470	 8.4360
 3.8500	 8.4580
 3.8520	 8.4620
 3.8550	 8.4720
 3.8580	 8.4830
 3.8610	 8.4950
 3.8640	 8.4630
 3.8670	 8.4710
 3.8700	 8.4920
 3.8730	 8.5000
 3.8760	 8.5000
 3.8780	 8.5090
 3.8810	 8.4580
 3.8840	 8.4820
 3.8870	 8.5160
 3.8900	 8.4810
 3.8930	 8.4630
 3.8960	 8.4950
 3.8990	 8.5090
 3.9020	 8.5230
 3.9050	 8.5050
 3.9080	 8.4810
 3.9110	 8.4630
 3.9140	 8.4770
 3.9170	 8.4610
 3.9190	 8.4750
 3.9220	 8.4980
 3.9250	 8.5050
 3.9280	 8.4930
 3.9310	 8.5200
 3.9340	 8.5020
 3.9370	 8.4940
 3.9400	 8.4970
 3.9430	 8.5190
 3.9460	 8.5220
 3.9490	 8.5120
 3.9520	 8.5310
 3.9550	 8.5530
 3.9580	 8.5480
 3.9610	 8.5630
 3.9640	 8.5440
 3.9670	 8.5140
 3.9700	 8.5230
 3.9740	 8.5570
 3.9770	 8.5320
 3.9800	 8.5260
 3.9830	 8.5320
 3.9860	 8.5140
 3.9890	 8.4760
 3.9920	 8.4600
 3.9950	 8.4580
 3.9980	 8.4820
 4.0010	 8.4910
 4.0040	 8.4840
 4.0070	 8.4900
 4.0100	 8.4850
 4.0140	 8.4670
 4.0170	 8.5060
 4.0200	 8.5140
 4.0230	 8.5170
 4.0260	 8.4920
 4.0290	 8.4730
 4.0320	 8.4770
 4.0350	 8.4790
 4.0390	 8.4940
 4.0420	 8.5390
 4.0450	 8.5380
 4.0480	 8.5210
 4.0510	 8.4740
 4.0540	 8.4550
 4.0570	 8.4930
 4.0610	 8.5300
 4.0640	 8.5180
 4.0670	 8.5420
 4.0700	 8.5330
 4.0730	 8.5050
 4.0770	 8.4910
 4.0800	 8.4890
 4.0830	 8.4610
 4.0860	 8.4800
 4.0890	 8.4740
 4.0930	 8.4860
 4.0960	 8.4900
 4.0990	 8.4610
 4.1020	 8.4670
 4.1060	 8.5040
 4.1090	 8.4920
 4.1120	 8.5020
 4.1150	 8.4940
 4.1190	 8.4730
 4.1220	 8.4470
 4.1250	 8.4460
 4.1290	 8.4410
 4.1320	 8.4380
 4.1350	 8.4220
 4.1380	 8.4220
 4.1420	 8.4250
 4.1450	 8.4450
 4.1480	 8.4540
 4.1520	 8.4320
 4.1550	 8.3910
 4.1580	 8.4110
 4.1620	 8.4280
 4.1650	 8.4240
 4.1680	 8.4230
 4.1720	 8.4150
 4.1750	 8.3880
 4.1780	 8.4120
 4.1820	 8.4150
 4.1850	 8.3780
 4.1890	 8.3820
 4.1920	 8.4070
 4.1950	 8.3980
 4.1990	 8.4190
 4.2020	 8.4570
 4.2060	 8.5010
 4.2090	 8.5120
 4.2120	 8.5380
 4.2160	 8.5570
 4.2190	 8.5540
 4.2230	 8.5420
 4.2260	 8.5520
 4.2300	 8.5630
 4.2330	 8.5550
 4.2360	 8.5400
 4.2400	 8.6130
 4.2430	 8.6070
 4.2470	 8.5440
 4.2500	 8.5410
 4.2540	 8.5350
 4.2570	 8.5040
 4.2610	 8.5360
 4.2640	 8.5830
 4.2680	 8.5310
 4.2710	 8.4580
 4.2750	 8.4770
 4.2780	 8.4920
 4.2820	 8.4260
 4.2850	 8.4190
 4.2890	 8.4520
 4.2930	 8.4690
 4.2960	 8.4080
 4.3000	 8.3790
 4.3030	 8.4460
 4.3070	 8.4330
 4.3100	 8.4170
 4.3140	 8.3990
 4.3180	 8.4070
 4.3210	 8.3820
 4.3250	 8.3310
 4.3280	 8.2900
 4.3320	 8.3140
 4.3360	 8.3190
 4.3390	 8.2790
 4.3430	 8.2200
 4.3470	 8.2240
 4.3500	 8.2340
 4.3540	 8.2060
 4.3580	 8.2210
 4.3610	 8.2220
 4.3650	 8.2190
 4.3690	 8.2250
 4.3720	 8.2160
 4.3760	 8.2070
 4.3800	 8.2100
 4.3830	 8.1850
 4.3870	 8.1530
 4.3910	 8.1460
 4.3940	 8.1370
 4.3980	 8.1280
 4.4020	 8.1190
 4.4060	 8.1170
 4.4090	 8.1440
 4.4130	 8.1620
 4.4170	 8.1320
 4.4210	 8.1130
 4.4240	 8.1210
 4.4280	 8.1370
 4.4320	 8.1340
 4.4360	 8.1200
 4.4400	 8.0990
 4.4430	 8.1060
 4.4470	 8.1140
 4.4510	 8.0810
 4.4550	 8.0660
 4.4590	 8.0970
 4.4630	 8.1180
 4.4660	 8.1250
 4.4700	 8.1090
 4.4740	 8.0750
 4.4780	 8.0390
 4.4820	 8.0310
 4.4860	 8.0300
 4.4900	 7.9890
 4.4930	 7.9690
 4.4970	 8.0230
 4.5010	 8.0850
 4.5050	 8.0670
 4.5090	 8.0530
 4.5130	 8.0720
 4.5170	 8.0560
 4.5210	 8.0300
 4.5250	 8.0460
 4.5290	 8.0640
 4.5330	 8.0450
 4.5370	 8.0140
 4.5410	 8.0370
 4.5450	 8.0500
 4.5490	 7.9920
 4.5530	 7.9690
 4.5570	 7.9790
 4.5610	 7.9840
 4.5650	 7.9860
 4.5690	 7.9970
 4.5730	 8.0150
 4.5770	 8.0270
 4.5810	 8.0160
 4.5850	 8.0130
 4.5890	 8.0120
 4.5930	 7.9750
 4.5970	 7.9470
 4.6010	 7.9470
 4.6050	 7.9760
 4.6090	 7.9840
 4.6130	 7.9790
 4.6170	 7.9800
 4.6220	 7.9680
 4.6260	 7.9480
 4.6300	 7.9700
 4.6340	 7.9780
 4.6380	 7.9540
 4.6420	 7.9420
 4.6460	 7.9640
 4.6510	 7.9880
 4.6550	 7.9760
 4.6590	 7.9800
 4.6630	 7.9900
 4.6670	 7.9760
 4.6720	 7.9730
 4.6760	 7.9750
 4.6800	 7.9660
 4.6840	 7.9520
 4.6880	 7.9660
 4.6930	 7.9490
 4.6970	 7.9240
 4.7010	 7.9330
 4.7050	 7.9530
 4.7100	 7.9430
 4.7140	 7.9230
 4.7180	 7.9060
 4.7230	 7.9020
 4.7270	 7.9030
 4.7310	 7.9010
 4.7360	 7.9070
 4.7400	 7.9170
 4.7440	 7.9320
 4.7490	 7.9550
 4.7530	 7.9460
 4.7570	 7.9580
 4.7620	 7.9410
 4.7660	 7.8860
 4.7700	 7.9020
 4.7750	 7.9390
 4.7790	 7.9180
 4.7840	 7.9090
 4.7880	 7.9030
 4.7920	 7.9150
 4.7970	 7.9220
 4.8010	 7.9330
 4.8060	 7.9510
 4.8100	 7.9340
 4.8150	 7.9140
 4.8190	 7.9420
 4.8240	 7.9620
 4.8280	 7.9570
 4.8330	 7.9390
 4.8370	 7.9460
 4.8420	 7.9300
 4.8460	 7.9060
 4.8510	 7.9070
 4.8550	 7.9180
 4.8600	 7.9000
 4.8640	 7.8930
 4.8690	 7.9190
 4.8740	 7.9490
 4.8780	 7.9410
 4.8830	 7.9400
 4.8870	 7.9360
 4.8920	 7.9600
 4.8970	 7.9850
 4.9010	 7.9980
 4.9060	 8.0070
 4.9100	 8.0070
 4.9150	 8.0000
 4.9200	 7.9870
 4.9240	 7.9540
 4.9290	 7.9690
 4.9340	 7.9970
 4.9390	 7.9960
 4.9430	 7.9840
 4.9480	 7.9800
 4.9530	 8.0000
 4.9570	 8.0270
 4.9620	 8.0190
 4.9670	 8.0040
 4.9720	 7.9860
 4.9760	 7.9930
 4.9810	 8.0130
 4.9860	 8.0180
 4.9910	 8.0030
 4.9960	 7.9950
 5.0000	 7.9730
 5.0050	 7.9760
 5.0100	 7.9980
 5.0150	 8.0220
 5.0200	 7.9950
 5.0250	 8.0300
 5.0300	 8.0370
 5.0340	 8.0200
 5.0390	 8.0080
 5.0440	 8.0250
 5.0490	 7.9960
 5.0540	 8.0000
 5.0590	 8.0370
 5.0640	 8.0480
 5.0690	 8.0520
 5.0740	 8.0890
 5.0790	 8.0680
 5.0840	 8.0570
 5.0890	 8.0390
 5.0940	 8.0670
 5.0990	 8.0690
 5.1040	 8.0350
 5.1090	 8.0400
 5.1140	 8.0640
 5.1190	 8.0320
 5.1240	 8.0330
 5.1290	 8.0460
 5.1340	 8.0560
 5.1390	 8.0810
 5.1440	 8.0720
 5.1490	 8.0390
 5.1550	 8.0640
 5.1600	 8.0710
 5.1650	 8.1060
 5.1700	 8.1060
 5.1750	 8.1070
 5.1800	 8.0920
 5.1850	 8.0730
 5.1910	 8.0720
 5.1960	 8.0900
 5.2010	 8.0750
 5.2060	 8.0870
 5.2110	 8.0860
 5.2170	 8.1050
 5.2220	 8.1190
 5.2270	 8.1350
 5.2330	 8.1260
 5.2380	 8.1060
 5.2430	 8.0890
 5.2480	 8.1050
 5.2540	 8.1180
 5.2590	 8.1340
 5.2640	 8.1000
 5.2700	 8.0980
 5.2750	 8.0990
 5.2800	 8.1000
 5.2860	 8.0980
 5.2910	 8.0910
 5.2970	 8.0830
 5.3020	 8.1000
 5.3080	 8.1040
 5.3130	 8.1460
 5.3180	 8.1000
 5.3240	 8.0840
 5.3290	 8.0940
 5.3350	 8.1260
 5.3400	 8.1350
 5.3460	 8.1130
 5.3510	 8.0170
 5.3570	 8.0090
 5.3620	 8.0410
 5.3680	 8.1160
 5.3740	 8.1370
 5.3790	 8.1520
 5.3850	 8.1140
 5.3900	 8.1000
 5.3960	 8.0800
 5.4010	 8.0780
 5.4070	 8.0590
 5.4130	 8.0470
 5.4180	 7.9360
 5.4240	 7.8770
 5.4300	 7.9760
 5.4350	 8.0490
 5.4410	 8.0270
 5.4470	 8.0460
 5.4530	 8.0740
 5.4580	 8.0440
 5.4640	 7.9420
 5.4700	 7.9560
 5.4760	 7.9480
 5.4810	 7.9430
