Name: Abies concolor 1
Type: vegetation
Class: Tree
Genus: Abies
Species: concolor
Sample No.: VH245
Owner: UCSB
Wavelength Range: VSWIR
Origin: 37.044; -119.3035; WGS84
Collection Date: 11/2/2013
Description: Samples were collected as part of the HyspIRI Airborne Campaign. 48 individual plants were sampled in three times in 2013 - spring  summer  and fall. The name of the sample includes a 1  2  or 3 which references a different individual of the species. Samples were taken to JPL and processed within 48 hours of collection. The same leaves were processed in the Nicolet and then measured using the ASD.
Measurement: Bidirectional reflectance
First Column: X
Second Column: Y
X Units: Wavelength (micrometers)
Y Units: Reflectance (percentage)
First X Value: 0.35
Last X Value: 2.5
Number of X Values: 2151
Additional Information: vegetation.tree.abies.concolor.vswir.vh245.ucsb.asd.ancillary.txt

 0.3500	 8.2340
 0.3510	 8.1170
 0.3520	 8.0980
 0.3530	 8.0640
 0.3540	 7.9500
 0.3550	 8.0050
 0.3560	 8.0840
 0.3570	 8.1090
 0.3580	 8.0580
 0.3590	 7.9850
 0.3600	 8.0250
 0.3610	 8.1340
 0.3620	 8.0230
 0.3630	 7.8960
 0.3640	 7.8770
 0.3650	 7.9780
 0.3660	 7.9100
 0.3670	 7.8580
 0.3680	 7.8530
 0.3690	 7.8210
 0.3700	 7.8450
 0.3710	 7.8760
 0.3720	 7.8820
 0.3730	 7.8980
 0.3740	 7.9060
 0.3750	 7.8950
 0.3760	 7.8620
 0.3770	 7.8390
 0.3780	 7.8630
 0.3790	 7.9030
 0.3800	 7.8750
 0.3810	 7.8610
 0.3820	 7.8820
 0.3830	 7.9200
 0.3840	 7.8990
 0.3850	 7.8820
 0.3860	 7.8860
 0.3870	 7.9020
 0.3880	 7.8780
 0.3890	 7.8420
 0.3900	 7.8280
 0.3910	 7.8700
 0.3920	 7.9210
 0.3930	 7.9320
 0.3940	 7.9050
 0.3950	 7.9860
 0.3960	 7.9950
 0.3970	 7.9570
 0.3980	 7.9820
 0.3990	 8.0840
 0.4000	 8.1300
 0.4010	 8.1000
 0.4020	 8.1270
 0.4030	 8.1700
 0.4040	 8.2130
 0.4050	 8.2500
 0.4060	 8.2820
 0.4070	 8.3210
 0.4080	 8.3720
 0.4090	 8.4310
 0.4100	 8.4980
 0.4110	 8.5470
 0.4120	 8.5790
 0.4130	 8.6400
 0.4140	 8.7120
 0.4150	 8.7890
 0.4160	 8.8610
 0.4170	 8.9000
 0.4180	 8.9480
 0.4190	 9.0130
 0.4200	 9.0650
 0.4210	 9.1190
 0.4220	 9.1770
 0.4230	 9.2360
 0.4240	 9.2800
 0.4250	 9.3280
 0.4260	 9.3870
 0.4270	 9.4500
 0.4280	 9.4850
 0.4290	 9.5190
 0.4300	 9.5640
 0.4310	 9.6000
 0.4320	 9.6260
 0.4330	 9.6540
 0.4340	 9.6910
 0.4350	 9.7230
 0.4360	 9.7580
 0.4370	 9.7970
 0.4380	 9.8330
 0.4390	 9.8710
 0.4400	 9.9120
 0.4410	 9.9510
 0.4420	 9.9730
 0.4430	10.0000
 0.4440	10.0360
 0.4450	10.0730
 0.4460	10.1070
 0.4470	10.1330
 0.4480	10.1540
 0.4490	10.1770
 0.4500	10.2070
 0.4510	10.2420
 0.4520	10.2780
 0.4530	10.3000
 0.4540	10.3210
 0.4550	10.3410
 0.4560	10.3510
 0.4570	10.3730
 0.4580	10.3920
 0.4590	10.3970
 0.4600	10.4010
 0.4610	10.4100
 0.4620	10.4160
 0.4630	10.4130
 0.4640	10.4240
 0.4650	10.4300
 0.4660	10.4280
 0.4670	10.4320
 0.4680	10.4390
 0.4690	10.4340
 0.4700	10.4170
 0.4710	10.4250
 0.4720	10.4410
 0.4730	10.4530
 0.4740	10.4550
 0.4750	10.4540
 0.4760	10.4570
 0.4770	10.4650
 0.4780	10.4750
 0.4790	10.4850
 0.4800	10.4960
 0.4810	10.5040
 0.4820	10.5010
 0.4830	10.5040
 0.4840	10.5160
 0.4850	10.5210
 0.4860	10.5290
 0.4870	10.5420
 0.4880	10.5630
 0.4890	10.5890
 0.4900	10.6190
 0.4910	10.6510
 0.4920	10.6830
 0.4930	10.7070
 0.4940	10.7420
 0.4950	10.7940
 0.4960	10.8480
 0.4970	10.9070
 0.4980	10.9690
 0.4990	11.0340
 0.5000	11.1130
 0.5010	11.1990
 0.5020	11.2890
 0.5030	11.3850
 0.5040	11.4970
 0.5050	11.6160
 0.5060	11.7350
 0.5070	11.8710
 0.5080	12.0190
 0.5090	12.1770
 0.5100	12.3440
 0.5110	12.5260
 0.5120	12.7200
 0.5130	12.9190
 0.5140	13.1190
 0.5150	13.3420
 0.5160	13.5790
 0.5170	13.8180
 0.5180	14.0620
 0.5190	14.3050
 0.5200	14.5460
 0.5210	14.7890
 0.5220	15.0290
 0.5230	15.2670
 0.5240	15.5020
 0.5250	15.7180
 0.5260	15.9200
 0.5270	16.1100
 0.5280	16.2890
 0.5290	16.4500
 0.5300	16.5990
 0.5310	16.7390
 0.5320	16.8710
 0.5330	16.9870
 0.5340	17.0890
 0.5350	17.1840
 0.5360	17.2710
 0.5370	17.3480
 0.5380	17.4150
 0.5390	17.4750
 0.5400	17.5260
 0.5410	17.5740
 0.5420	17.6190
 0.5430	17.6570
 0.5440	17.7080
 0.5450	17.7650
 0.5460	17.8120
 0.5470	17.8670
 0.5480	17.9250
 0.5490	17.9800
 0.5500	18.0250
 0.5510	18.0550
 0.5520	18.0750
 0.5530	18.0880
 0.5540	18.0910
 0.5550	18.0750
 0.5560	18.0440
 0.5570	18.0040
 0.5580	17.9460
 0.5590	17.8730
 0.5600	17.7890
 0.5610	17.6890
 0.5620	17.5870
 0.5630	17.4780
 0.5640	17.3520
 0.5650	17.2260
 0.5660	17.0980
 0.5670	16.9630
 0.5680	16.8220
 0.5690	16.6760
 0.5700	16.5290
 0.5710	16.3860
 0.5720	16.2510
 0.5730	16.1170
 0.5740	15.9880
 0.5750	15.8710
 0.5760	15.7520
 0.5770	15.6350
 0.5780	15.5270
 0.5790	15.4260
 0.5800	15.3340
 0.5810	15.2530
 0.5820	15.1780
 0.5830	15.1060
 0.5840	15.0380
 0.5850	14.9720
 0.5860	14.9010
 0.5870	14.8280
 0.5880	14.7600
 0.5890	14.7000
 0.5900	14.6490
 0.5910	14.6050
 0.5920	14.5660
 0.5930	14.5240
 0.5940	14.4860
 0.5950	14.4500
 0.5960	14.4180
 0.5970	14.3900
 0.5980	14.3590
 0.5990	14.3250
 0.6000	14.2900
 0.6010	14.2580
 0.6020	14.2180
 0.6030	14.1680
 0.6040	14.1190
 0.6050	14.0600
 0.6060	13.9940
 0.6070	13.9260
 0.6080	13.8560
 0.6090	13.7790
 0.6100	13.6910
 0.6110	13.5990
 0.6120	13.5210
 0.6130	13.4510
 0.6140	13.3810
 0.6150	13.3100
 0.6160	13.2460
 0.6170	13.1850
 0.6180	13.1220
 0.6190	13.0660
 0.6200	13.0150
 0.6210	12.9680
 0.6220	12.9270
 0.6230	12.8920
 0.6240	12.8670
 0.6250	12.8490
 0.6260	12.8280
 0.6270	12.8160
 0.6280	12.8080
 0.6290	12.7970
 0.6300	12.7810
 0.6310	12.7690
 0.6320	12.7580
 0.6330	12.7370
 0.6340	12.7100
 0.6350	12.6720
 0.6360	12.6160
 0.6370	12.5470
 0.6380	12.4680
 0.6390	12.3800
 0.6400	12.2810
 0.6410	12.1800
 0.6420	12.0760
 0.6430	11.9700
 0.6440	11.8640
 0.6450	11.7550
 0.6460	11.6490
 0.6470	11.5550
 0.6480	11.4680
 0.6490	11.3880
 0.6500	11.3200
 0.6510	11.2640
 0.6520	11.2150
 0.6530	11.1670
 0.6540	11.1210
 0.6550	11.0800
 0.6560	11.0320
 0.6570	10.9770
 0.6580	10.9170
 0.6590	10.8450
 0.6600	10.7670
 0.6610	10.6890
 0.6620	10.6110
 0.6630	10.5310
 0.6640	10.4560
 0.6650	10.3870
 0.6660	10.3260
 0.6670	10.2720
 0.6680	10.2250
 0.6690	10.1890
 0.6700	10.1590
 0.6710	10.1360
 0.6720	10.1240
 0.6730	10.1180
 0.6740	10.1150
 0.6750	10.1160
 0.6760	10.1240
 0.6770	10.1370
 0.6780	10.1550
 0.6790	10.1820
 0.6800	10.2230
 0.6810	10.2680
 0.6820	10.3280
 0.6830	10.4110
 0.6840	10.5150
 0.6850	10.6460
 0.6860	10.8100
 0.6870	11.0150
 0.6880	11.2630
 0.6890	11.5650
 0.6900	11.9270
 0.6910	12.3540
 0.6920	12.8530
 0.6930	13.4200
 0.6940	14.0540
 0.6950	14.7660
 0.6960	15.5430
 0.6970	16.3770
 0.6980	17.2650
 0.6990	18.2020
 0.7000	19.1820
 0.7010	20.1960
 0.7020	21.2320
 0.7030	22.2860
 0.7040	23.3510
 0.7050	24.4220
 0.7060	25.5010
 0.7070	26.5750
 0.7080	27.6420
 0.7090	28.7110
 0.7100	29.7910
 0.7110	30.8630
 0.7120	31.9270
 0.7130	33.0000
 0.7140	34.0650
 0.7150	35.1220
 0.7160	36.1700
 0.7170	37.2070
 0.7180	38.2390
 0.7190	39.2600
 0.7200	40.2610
 0.7210	41.2520
 0.7220	42.2230
 0.7230	43.1720
 0.7240	44.1120
 0.7250	45.0140
 0.7260	45.8840
 0.7270	46.7280
 0.7280	47.5310
 0.7290	48.3140
 0.7300	49.0650
 0.7310	49.7660
 0.7320	50.4410
 0.7330	51.0850
 0.7340	51.6990
 0.7350	52.2820
 0.7360	52.8310
 0.7370	53.3460
 0.7380	53.8320
 0.7390	54.2990
 0.7400	54.7380
 0.7410	55.1470
 0.7420	55.5290
 0.7430	55.8950
 0.7440	56.2240
 0.7450	56.5230
 0.7460	56.8220
 0.7470	57.0850
 0.7480	57.3250
 0.7490	57.5560
 0.7500	57.7860
 0.7510	57.9800
 0.7520	58.1400
 0.7530	58.2840
 0.7540	58.4400
 0.7550	58.5820
 0.7560	58.7030
 0.7570	58.8080
 0.7580	58.9120
 0.7590	59.0130
 0.7600	59.1020
 0.7610	59.1670
 0.7620	59.2360
 0.7630	59.3070
 0.7640	59.3700
 0.7650	59.4260
 0.7660	59.4750
 0.7670	59.5160
 0.7680	59.5480
 0.7690	59.5800
 0.7700	59.6180
 0.7710	59.6570
 0.7720	59.6790
 0.7730	59.7030
 0.7740	59.7280
 0.7750	59.7510
 0.7760	59.7830
 0.7770	59.8060
 0.7780	59.8270
 0.7790	59.8550
 0.7800	59.8840
 0.7810	59.9000
 0.7820	59.9080
 0.7830	59.9260
 0.7840	59.9570
 0.7850	59.9770
 0.7860	59.9760
 0.7870	59.9850
 0.7880	60.0010
 0.7890	60.0210
 0.7900	60.0410
 0.7910	60.0670
 0.7920	60.0810
 0.7930	60.0910
 0.7940	60.1210
 0.7950	60.1490
 0.7960	60.1680
 0.7970	60.1760
 0.7980	60.1690
 0.7990	60.1850
 0.8000	60.2090
 0.8010	60.2220
 0.8020	60.2400
 0.8030	60.2500
 0.8040	60.2610
 0.8050	60.2860
 0.8060	60.3010
 0.8070	60.3090
 0.8080	60.3150
 0.8090	60.3210
 0.8100	60.3380
 0.8110	60.3590
 0.8120	60.3770
 0.8130	60.3840
 0.8140	60.4080
 0.8150	60.4360
 0.8160	60.4470
 0.8170	60.4490
 0.8180	60.4610
 0.8190	60.4810
 0.8200	60.4970
 0.8210	60.5030
 0.8220	60.5100
 0.8230	60.5240
 0.8240	60.5510
 0.8250	60.5710
 0.8260	60.5700
 0.8270	60.5580
 0.8280	60.5740
 0.8290	60.5800
 0.8300	60.5830
 0.8310	60.5950
 0.8320	60.6090
 0.8330	60.6290
 0.8340	60.6380
 0.8350	60.6270
 0.8360	60.6500
 0.8370	60.6760
 0.8380	60.6960
 0.8390	60.7180
 0.8400	60.7070
 0.8410	60.7090
 0.8420	60.7430
 0.8430	60.7770
 0.8440	60.8080
 0.8450	60.8300
 0.8460	60.8420
 0.8470	60.8550
 0.8480	60.8720
 0.8490	60.8950
 0.8500	60.9210
 0.8510	60.9260
 0.8520	60.9380
 0.8530	60.9670
 0.8540	61.0020
 0.8550	60.9860
 0.8560	60.9790
 0.8570	61.0060
 0.8580	61.0460
 0.8590	61.0650
 0.8600	61.0720
 0.8610	61.0810
 0.8620	61.0940
 0.8630	61.1130
 0.8640	61.1250
 0.8650	61.1250
 0.8660	61.1360
 0.8670	61.1600
 0.8680	61.1750
 0.8690	61.1640
 0.8700	61.1670
 0.8710	61.1840
 0.8720	61.2050
 0.8730	61.2160
 0.8740	61.2230
 0.8750	61.2290
 0.8760	61.2350
 0.8770	61.2400
 0.8780	61.2370
 0.8790	61.2240
 0.8800	61.2150
 0.8810	61.2480
 0.8820	61.2670
 0.8830	61.2720
 0.8840	61.2740
 0.8850	61.2780
 0.8860	61.2700
 0.8870	61.2690
 0.8880	61.2840
 0.8890	61.2770
 0.8900	61.2690
 0.8910	61.2590
 0.8920	61.2460
 0.8930	61.2610
 0.8940	61.2600
 0.8950	61.2490
 0.8960	61.2560
 0.8970	61.2330
 0.8980	61.2170
 0.8990	61.2310
 0.9000	61.2670
 0.9010	61.2530
 0.9020	61.2290
 0.9030	61.2220
 0.9040	61.2160
 0.9050	61.2020
 0.9060	61.1900
 0.9070	61.1810
 0.9080	61.1510
 0.9090	61.1380
 0.9100	61.1470
 0.9110	61.1640
 0.9120	61.1490
 0.9130	61.1230
 0.9140	61.0990
 0.9150	61.0890
 0.9160	61.0990
 0.9170	61.0870
 0.9180	61.0680
 0.9190	61.0690
 0.9200	61.0560
 0.9210	61.0270
 0.9220	60.9930
 0.9230	60.9710
 0.9240	60.9650
 0.9250	60.9410
 0.9260	60.9010
 0.9270	60.8750
 0.9280	60.8490
 0.9290	60.8090
 0.9300	60.7580
 0.9310	60.7170
 0.9320	60.6680
 0.9330	60.6100
 0.9340	60.5450
 0.9350	60.4830
 0.9360	60.4460
 0.9370	60.3950
 0.9380	60.3190
 0.9390	60.2540
 0.9400	60.1810
 0.9410	60.1100
 0.9420	60.0430
 0.9430	59.9710
 0.9440	59.9020
 0.9450	59.8340
 0.9460	59.7490
 0.9470	59.6190
 0.9480	59.5090
 0.9490	59.4070
 0.9500	59.2900
 0.9510	59.1560
 0.9520	59.0120
 0.9530	58.8590
 0.9540	58.7000
 0.9550	58.5290
 0.9560	58.3990
 0.9570	58.2840
 0.9580	58.1480
 0.9590	58.0220
 0.9600	57.9060
 0.9610	57.8040
 0.9620	57.7190
 0.9630	57.6470
 0.9640	57.5950
 0.9650	57.5500
 0.9660	57.5000
 0.9670	57.4680
 0.9680	57.4440
 0.9690	57.4230
 0.9700	57.4060
 0.9710	57.4060
 0.9720	57.3750
 0.9730	57.3380
 0.9740	57.3410
 0.9750	57.3340
 0.9760	57.3370
 0.9770	57.3520
 0.9780	57.3710
 0.9790	57.3840
 0.9800	57.4080
 0.9810	57.4250
 0.9820	57.4160
 0.9830	57.4420
 0.9840	57.4940
 0.9850	57.5590
 0.9860	57.6230
 0.9870	57.6660
 0.9880	57.7220
 0.9890	57.7790
 0.9900	57.8150
 0.9910	57.8580
 0.9920	57.9150
 0.9930	57.9840
 0.9940	58.0550
 0.9950	58.1250
 0.9960	58.1650
 0.9970	58.2140
 0.9980	58.3110
 0.9990	58.3900
 1.0000	58.6630
 1.0010	59.0410
 1.0020	59.2910
 1.0030	59.3520
 1.0040	59.4150
 1.0050	59.4830
 1.0060	59.5540
 1.0070	59.6260
 1.0080	59.6940
 1.0090	59.7550
 1.0100	59.8200
 1.0110	59.8870
 1.0120	59.9530
 1.0130	60.0190
 1.0140	60.0850
 1.0150	60.1530
 1.0160	60.2160
 1.0170	60.2830
 1.0180	60.3480
 1.0190	60.4130
 1.0200	60.4790
 1.0210	60.5410
 1.0220	60.6020
 1.0230	60.6610
 1.0240	60.7170
 1.0250	60.7740
 1.0260	60.8300
 1.0270	60.8870
 1.0280	60.9440
 1.0290	61.0010
 1.0300	61.0590
 1.0310	61.1140
 1.0320	61.1620
 1.0330	61.2140
 1.0340	61.2680
 1.0350	61.3200
 1.0360	61.3750
 1.0370	61.4250
 1.0380	61.4730
 1.0390	61.5140
 1.0400	61.5610
 1.0410	61.6120
 1.0420	61.6600
 1.0430	61.7110
 1.0440	61.7530
 1.0450	61.7890
 1.0460	61.8250
 1.0470	61.8580
 1.0480	61.8920
 1.0490	61.9280
 1.0500	61.9620
 1.0510	61.9960
 1.0520	62.0280
 1.0530	62.0540
 1.0540	62.0750
 1.0550	62.0970
 1.0560	62.1140
 1.0570	62.1330
 1.0580	62.1520
 1.0590	62.1720
 1.0600	62.1930
 1.0610	62.2110
 1.0620	62.2310
 1.0630	62.2440
 1.0640	62.2470
 1.0650	62.2560
 1.0660	62.2650
 1.0670	62.2730
 1.0680	62.2820
 1.0690	62.2930
 1.0700	62.2990
 1.0710	62.2990
 1.0720	62.3010
 1.0730	62.3030
 1.0740	62.3010
 1.0750	62.2970
 1.0760	62.2930
 1.0770	62.2870
 1.0780	62.2790
 1.0790	62.2680
 1.0800	62.2590
 1.0810	62.2490
 1.0820	62.2360
 1.0830	62.2230
 1.0840	62.2080
 1.0850	62.1870
 1.0860	62.1670
 1.0870	62.1490
 1.0880	62.1330
 1.0890	62.1140
 1.0900	62.0960
 1.0910	62.0740
 1.0920	62.0520
 1.0930	62.0260
 1.0940	61.9970
 1.0950	61.9650
 1.0960	61.9270
 1.0970	61.8930
 1.0980	61.8570
 1.0990	61.8240
 1.1000	61.7950
 1.1010	61.7640
 1.1020	61.7350
 1.1030	61.7010
 1.1040	61.6640
 1.1050	61.6290
 1.1060	61.5920
 1.1070	61.5500
 1.1080	61.5110
 1.1090	61.4750
 1.1100	61.4330
 1.1110	61.3890
 1.1120	61.3430
 1.1130	61.2920
 1.1140	61.2400
 1.1150	61.1900
 1.1160	61.1320
 1.1170	61.0710
 1.1180	61.0030
 1.1190	60.9290
 1.1200	60.8510
 1.1210	60.7670
 1.1220	60.6740
 1.1230	60.5750
 1.1240	60.4680
 1.1250	60.3480
 1.1260	60.2230
 1.1270	60.0770
 1.1280	59.9170
 1.1290	59.7430
 1.1300	59.5590
 1.1310	59.3550
 1.1320	59.1380
 1.1330	58.9030
 1.1340	58.6460
 1.1350	58.3770
 1.1360	58.0940
 1.1370	57.7950
 1.1380	57.4860
 1.1390	57.1680
 1.1400	56.8390
 1.1410	56.5100
 1.1420	56.1770
 1.1430	55.8400
 1.1440	55.5090
 1.1450	55.1750
 1.1460	54.8550
 1.1470	54.5340
 1.1480	54.2350
 1.1490	53.9470
 1.1500	53.6800
 1.1510	53.4270
 1.1520	53.1940
 1.1530	52.9780
 1.1540	52.7790
 1.1550	52.5960
 1.1560	52.4310
 1.1570	52.2820
 1.1580	52.1500
 1.1590	52.0340
 1.1600	51.9320
 1.1610	51.8420
 1.1620	51.7650
 1.1630	51.6960
 1.1640	51.6350
 1.1650	51.5810
 1.1660	51.5390
 1.1670	51.4990
 1.1680	51.4680
 1.1690	51.4350
 1.1700	51.4070
 1.1710	51.3780
 1.1720	51.3520
 1.1730	51.3250
 1.1740	51.2980
 1.1750	51.2680
 1.1760	51.2360
 1.1770	51.2030
 1.1780	51.1680
 1.1790	51.1320
 1.1800	51.0970
 1.1810	51.0600
 1.1820	51.0220
 1.1830	50.9840
 1.1840	50.9460
 1.1850	50.9090
 1.1860	50.8720
 1.1870	50.8380
 1.1880	50.8080
 1.1890	50.7780
 1.1900	50.7530
 1.1910	50.7320
 1.1920	50.7150
 1.1930	50.7000
 1.1940	50.6900
 1.1950	50.6850
 1.1960	50.6830
 1.1970	50.6860
 1.1980	50.6920
 1.1990	50.7040
 1.2000	50.7190
 1.2010	50.7370
 1.2020	50.7610
 1.2030	50.7860
 1.2040	50.8160
 1.2050	50.8540
 1.2060	50.8970
 1.2070	50.9430
 1.2080	50.9910
 1.2090	51.0410
 1.2100	51.0920
 1.2110	51.1470
 1.2120	51.2050
 1.2130	51.2660
 1.2140	51.3300
 1.2150	51.3960
 1.2160	51.4650
 1.2170	51.5340
 1.2180	51.6080
 1.2190	51.6810
 1.2200	51.7530
 1.2210	51.8300
 1.2220	51.9050
 1.2230	51.9800
 1.2240	52.0550
 1.2250	52.1280
 1.2260	52.1980
 1.2270	52.2690
 1.2280	52.3370
 1.2290	52.4020
 1.2300	52.4660
 1.2310	52.5280
 1.2320	52.5920
 1.2330	52.6550
 1.2340	52.7150
 1.2350	52.7750
 1.2360	52.8320
 1.2370	52.8860
 1.2380	52.9370
 1.2390	52.9920
 1.2400	53.0430
 1.2410	53.0930
 1.2420	53.1440
 1.2430	53.1940
 1.2440	53.2420
 1.2450	53.2870
 1.2460	53.3270
 1.2470	53.3670
 1.2480	53.4040
 1.2490	53.4400
 1.2500	53.4760
 1.2510	53.5100
 1.2520	53.5420
 1.2530	53.5750
 1.2540	53.6050
 1.2550	53.6310
 1.2560	53.6570
 1.2570	53.6800
 1.2580	53.7010
 1.2590	53.7200
 1.2600	53.7380
 1.2610	53.7530
 1.2620	53.7640
 1.2630	53.7720
 1.2640	53.7800
 1.2650	53.7880
 1.2660	53.7940
 1.2670	53.7980
 1.2680	53.8000
 1.2690	53.7970
 1.2700	53.7900
 1.2710	53.7870
 1.2720	53.7820
 1.2730	53.7720
 1.2740	53.7620
 1.2750	53.7460
 1.2760	53.7270
 1.2770	53.7080
 1.2780	53.6840
 1.2790	53.6590
 1.2800	53.6330
 1.2810	53.6020
 1.2820	53.5700
 1.2830	53.5340
 1.2840	53.4930
 1.2850	53.4470
 1.2860	53.3960
 1.2870	53.3410
 1.2880	53.2800
 1.2890	53.2130
 1.2900	53.1470
 1.2910	53.0750
 1.2920	52.9970
 1.2930	52.9170
 1.2940	52.8310
 1.2950	52.7400
 1.2960	52.6450
 1.2970	52.5450
 1.2980	52.4410
 1.2990	52.3290
 1.3000	52.2150
 1.3010	52.0950
 1.3020	51.9670
 1.3030	51.8370
 1.3040	51.7020
 1.3050	51.5590
 1.3060	51.4090
 1.3070	51.2550
 1.3080	51.0940
 1.3090	50.9300
 1.3100	50.7620
 1.3110	50.5850
 1.3120	50.4030
 1.3130	50.2210
 1.3140	50.0330
 1.3150	49.8420
 1.3160	49.6450
 1.3170	49.4470
 1.3180	49.2380
 1.3190	49.0230
 1.3200	48.8040
 1.3210	48.5770
 1.3220	48.3460
 1.3230	48.1130
 1.3240	47.8760
 1.3250	47.6360
 1.3260	47.3910
 1.3270	47.1400
 1.3280	46.8870
 1.3290	46.6310
 1.3300	46.3750
 1.3310	46.1200
 1.3320	45.8620
 1.3330	45.6060
 1.3340	45.3490
 1.3350	45.0910
 1.3360	44.8350
 1.3370	44.5780
 1.3380	44.3240
 1.3390	44.0720
 1.3400	43.8180
 1.3410	43.5730
 1.3420	43.3310
 1.3430	43.0900
 1.3440	42.8560
 1.3450	42.6230
 1.3460	42.3910
 1.3470	42.1660
 1.3480	41.9430
 1.3490	41.7250
 1.3500	41.5120
 1.3510	41.3030
 1.3520	41.0950
 1.3530	40.8900
 1.3540	40.6860
 1.3550	40.4810
 1.3560	40.2750
 1.3570	40.0670
 1.3580	39.8600
 1.3590	39.6480
 1.3600	39.4340
 1.3610	39.2170
 1.3620	38.9910
 1.3630	38.7580
 1.3640	38.5150
 1.3650	38.2610
 1.3660	37.9990
 1.3670	37.7250
 1.3680	37.4390
 1.3690	37.1400
 1.3700	36.8220
 1.3710	36.4890
 1.3720	36.1390
 1.3730	35.7680
 1.3740	35.3820
 1.3750	34.9760
 1.3760	34.5450
 1.3770	34.0940
 1.3780	33.6160
 1.3790	33.1150
 1.3800	32.5940
 1.3810	32.0450
 1.3820	31.4820
 1.3830	30.8990
 1.3840	30.3050
 1.3850	29.6920
 1.3860	29.0760
 1.3870	28.4440
 1.3880	27.8180
 1.3890	27.1880
 1.3900	26.5570
 1.3910	25.9370
 1.3920	25.3210
 1.3930	24.7120
 1.3940	24.1160
 1.3950	23.5280
 1.3960	22.9560
 1.3970	22.4040
 1.3980	21.8690
 1.3990	21.3620
 1.4000	20.8760
 1.4010	20.4090
 1.4020	19.9680
 1.4030	19.5460
 1.4040	19.1470
 1.4050	18.7750
 1.4060	18.4240
 1.4070	18.1000
 1.4080	17.7950
 1.4090	17.5100
 1.4100	17.2460
 1.4110	16.9990
 1.4120	16.7710
 1.4130	16.5610
 1.4140	16.3670
 1.4150	16.1900
 1.4160	16.0270
 1.4170	15.8770
 1.4180	15.7390
 1.4190	15.6130
 1.4200	15.4970
 1.4210	15.3910
 1.4220	15.2950
 1.4230	15.2080
 1.4240	15.1300
 1.4250	15.0570
 1.4260	14.9920
 1.4270	14.9330
 1.4280	14.8800
 1.4290	14.8330
 1.4300	14.7940
 1.4310	14.7580
 1.4320	14.7270
 1.4330	14.7000
 1.4340	14.6760
 1.4350	14.6560
 1.4360	14.6410
 1.4370	14.6300
 1.4380	14.6220
 1.4390	14.6170
 1.4400	14.6140
 1.4410	14.6140
 1.4420	14.6140
 1.4430	14.6160
 1.4440	14.6210
 1.4450	14.6260
 1.4460	14.6340
 1.4470	14.6430
 1.4480	14.6530
 1.4490	14.6650
 1.4500	14.6790
 1.4510	14.6930
 1.4520	14.7080
 1.4530	14.7250
 1.4540	14.7420
 1.4550	14.7620
 1.4560	14.7830
 1.4570	14.8060
 1.4580	14.8300
 1.4590	14.8580
 1.4600	14.8880
 1.4610	14.9220
 1.4620	14.9580
 1.4630	14.9980
 1.4640	15.0410
 1.4650	15.0880
 1.4660	15.1390
 1.4670	15.1940
 1.4680	15.2540
 1.4690	15.3180
 1.4700	15.3840
 1.4710	15.4540
