Name: Baccharis pilularis 2
Type: vegetation
Class: Shrub
Genus: Baccharis
Species: pilularis
Sample No.: VH195
Owner: UCSB
Wavelength Range: TIR
Origin: 34.4186; -119.8458; WGS84
Collection Date: 10/13/2013
Description: Samples were collected as part of the HyspIRI Airborne Campaign. 48 individual plants were sampled in three times in 2013 - spring  summer  and fall. The name of the sample includes a 1  2  or 3 which references a different individual of the species. Samples were taken to JPL and processed within 48 hours of collection. The same leaves were processed in the Nicolet and then measured using the ASD.
Measurement: Hemispherical reflectance
First Column: X
Second Column: Y
X Units: Wavelength (micrometers)
Y Units: Reflectance (percentage)
First X Value: 2.501
Last X Value: 15.387
Number of X Values: 1737
Additional Information: vegetation.shrub.baccharis.pilularis.tir.vh195.ucsb.nicolet.ancillary.txt

 2.5010	 8.0100
 2.5030	 7.9760
 2.5040	 7.7510
 2.5050	 7.6370
 2.5060	 7.7350
 2.5070	 7.8350
 2.5090	 7.8910
 2.5100	 7.5940
 2.5110	 7.5090
 2.5120	 7.7760
 2.5140	 7.7930
 2.5150	 7.7850
 2.5160	 7.8650
 2.5170	 7.7730
 2.5180	 7.7330
 2.5200	 7.6250
 2.5210	 7.5940
 2.5220	 7.6490
 2.5230	 7.7280
 2.5250	 7.7130
 2.5260	 7.6130
 2.5270	 7.4000
 2.5280	 7.4580
 2.5290	 7.6950
 2.5310	 7.8150
 2.5320	 7.6110
 2.5330	 7.4420
 2.5340	 7.4120
 2.5360	 7.5960
 2.5370	 7.6350
 2.5380	 7.7910
 2.5390	 7.7120
 2.5410	 7.5790
 2.5420	 7.6910
 2.5430	 7.8510
 2.5440	 7.6950
 2.5460	 7.7660
 2.5470	 7.8100
 2.5480	 7.7570
 2.5490	 7.5250
 2.5510	 7.5250
 2.5520	 7.4850
 2.5530	 7.5730
 2.5540	 7.6830
 2.5560	 7.5600
 2.5570	 7.4830
 2.5580	 7.7110
 2.5590	 7.6490
 2.5610	 7.6390
 2.5620	 7.7010
 2.5630	 7.6790
 2.5640	 7.5950
 2.5660	 7.6720
 2.5670	 7.6910
 2.5680	 7.7900
 2.5700	 7.9180
 2.5710	 7.7370
 2.5720	 7.4210
 2.5730	 7.5340
 2.5750	 7.6260
 2.5760	 7.6060
 2.5770	 7.5690
 2.5790	 7.7640
 2.5800	 7.9310
 2.5810	 7.9640
 2.5820	 7.8310
 2.5840	 7.8400
 2.5850	 7.8260
 2.5860	 7.6270
 2.5880	 7.3300
 2.5890	 7.3400
 2.5900	 7.5640
 2.5910	 7.7380
 2.5930	 7.7060
 2.5940	 7.5590
 2.5950	 7.4000
 2.5970	 7.4240
 2.5980	 7.3160
 2.5990	 7.4300
 2.6000	 7.5500
 2.6020	 7.5680
 2.6030	 7.5310
 2.6040	 7.5950
 2.6060	 7.4480
 2.6070	 7.3050
 2.6080	 7.5360
 2.6100	 7.6880
 2.6110	 7.5140
 2.6120	 7.4600
 2.6140	 7.3460
 2.6150	 7.2960
 2.6160	 7.2280
 2.6180	 7.2920
 2.6190	 7.3980
 2.6200	 7.2870
 2.6220	 7.1150
 2.6230	 7.2280
 2.6240	 7.1590
 2.6260	 7.1870
 2.6270	 7.2600
 2.6280	 7.4090
 2.6300	 7.2830
 2.6310	 7.1040
 2.6320	 7.0520
 2.6340	 7.0900
 2.6350	 6.9740
 2.6360	 6.9920
 2.6380	 6.8810
 2.6390	 6.8270
 2.6400	 6.9120
 2.6420	 6.9540
 2.6430	 6.8300
 2.6440	 7.0640
 2.6460	 7.0190
 2.6470	 7.0200
 2.6480	 6.8300
 2.6500	 6.6250
 2.6510	 6.6760
 2.6520	 6.8040
 2.6540	 6.6510
 2.6550	 6.7000
 2.6560	 6.7330
 2.6580	 6.7640
 2.6590	 6.7030
 2.6610	 6.5960
 2.6620	 6.4490
 2.6630	 6.5430
 2.6650	 6.7050
 2.6660	 6.6140
 2.6670	 6.2780
 2.6690	 6.1930
 2.6700	 6.2110
 2.6720	 6.2420
 2.6730	 6.3070
 2.6740	 6.2830
 2.6760	 6.0370
 2.6770	 6.2440
 2.6780	 6.3800
 2.6800	 6.4060
 2.6810	 6.4770
 2.6830	 6.4550
 2.6840	 6.2690
 2.6850	 6.2880
 2.6870	 6.2050
 2.6880	 6.1990
 2.6900	 6.1050
 2.6910	 6.0020
 2.6920	 5.8770
 2.6940	 5.6820
 2.6950	 5.5390
 2.6970	 5.6300
 2.6980	 5.8860
 2.6990	 6.1340
 2.7010	 5.7430
 2.7020	 5.4820
 2.7040	 5.6200
 2.7050	 5.8170
 2.7060	 5.6190
 2.7080	 5.5540
 2.7090	 5.6120
 2.7110	 5.5140
 2.7120	 5.2640
 2.7130	 5.3770
 2.7150	 5.5070
 2.7160	 5.5080
 2.7180	 5.5600
 2.7190	 5.6220
 2.7210	 5.3880
 2.7220	 5.5840
 2.7230	 5.7440
 2.7250	 5.8450
 2.7260	 5.8080
 2.7280	 5.5800
 2.7290	 5.5110
 2.7310	 5.5400
 2.7320	 5.3750
 2.7330	 5.2780
 2.7350	 5.2310
 2.7360	 5.0920
 2.7380	 5.0200
 2.7390	 5.0050
 2.7410	 4.8420
 2.7420	 4.8120
 2.7440	 5.1130
 2.7450	 4.9480
 2.7470	 4.6700
 2.7480	 4.4840
 2.7490	 4.4200
 2.7510	 4.5490
 2.7520	 4.5550
 2.7540	 5.7610
 2.7550	 6.3850
 2.7570	 5.5950
 2.7580	 5.1400
 2.7600	 5.0870
 2.7610	 5.0480
 2.7630	 4.4840
 2.7640	 4.3030
 2.7660	 4.7620
 2.7670	 5.0940
 2.7680	 4.9500
 2.7700	 5.1270
 2.7710	 5.2860
 2.7730	 4.9940
 2.7740	 4.8210
 2.7760	 4.9460
 2.7770	 4.9680
 2.7790	 4.8350
 2.7800	 4.6360
 2.7820	 4.2020
 2.7830	 4.3640
 2.7850	 4.8480
 2.7860	 4.8530
 2.7880	 4.8790
 2.7890	 5.0410
 2.7910	 4.8630
 2.7920	 4.8960
 2.7940	 4.9200
 2.7950	 4.6350
 2.7970	 4.2140
 2.7980	 4.3950
 2.8000	 4.6320
 2.8010	 4.7050
 2.8030	 4.5980
 2.8040	 4.5700
 2.8060	 4.3990
 2.8070	 4.4600
 2.8090	 4.6460
 2.8110	 4.7810
 2.8120	 4.7060
 2.8140	 4.7550
 2.8150	 4.6920
 2.8170	 4.5480
 2.8180	 4.4170
 2.8200	 4.3050
 2.8210	 4.6290
 2.8230	 4.9780
 2.8240	 4.6340
 2.8260	 4.5020
 2.8270	 4.6720
 2.8290	 4.4600
 2.8300	 4.1220
 2.8320	 3.8740
 2.8340	 3.9380
 2.8350	 4.4650
 2.8370	 4.7110
 2.8380	 4.3930
 2.8400	 4.2230
 2.8410	 4.2330
 2.8430	 4.3320
 2.8440	 4.3480
 2.8460	 4.3450
 2.8480	 4.4020
 2.8490	 4.1980
 2.8510	 4.1680
 2.8520	 4.1850
 2.8540	 4.1920
 2.8550	 4.3090
 2.8570	 4.4750
 2.8590	 4.4850
 2.8600	 4.5750
 2.8620	 4.5020
 2.8630	 4.4240
 2.8650	 4.3770
 2.8660	 4.5610
 2.8680	 4.7340
 2.8700	 4.7270
 2.8710	 4.6910
 2.8730	 4.6670
 2.8740	 4.4400
 2.8760	 4.6020
 2.8780	 4.8210
 2.8790	 5.0350
 2.8810	 4.8790
 2.8820	 4.1190
 2.8840	 4.1190
 2.8860	 4.8680
 2.8870	 5.0400
 2.8890	 4.8760
 2.8900	 4.4830
 2.8920	 4.3530
 2.8940	 4.2270
 2.8950	 4.4030
 2.8970	 4.3620
 2.8980	 4.5810
 2.9000	 4.7510
 2.9020	 4.7530
 2.9030	 4.7090
 2.9050	 4.6730
 2.9070	 5.0000
 2.9080	 4.9170
 2.9100	 4.4380
 2.9120	 4.6090
 2.9130	 4.5620
 2.9150	 4.4720
 2.9160	 4.5550
 2.9180	 4.4070
 2.9200	 4.2640
 2.9210	 4.3710
 2.9230	 4.4340
 2.9250	 4.4680
 2.9260	 4.4890
 2.9280	 4.5980
 2.9300	 4.4520
 2.9310	 4.2310
 2.9330	 4.3670
 2.9350	 4.4220
 2.9360	 4.3330
 2.9380	 4.6200
 2.9400	 4.4870
 2.9410	 3.9760
 2.9430	 4.1510
 2.9450	 4.8140
 2.9460	 4.7350
 2.9480	 4.6500
 2.9500	 4.5390
 2.9510	 4.6550
 2.9530	 5.2970
 2.9550	 5.6690
 2.9560	 5.3860
 2.9580	 4.8960
 2.9600	 4.8060
 2.9610	 4.1240
 2.9630	 4.7400
 2.9650	 6.0040
 2.9660	 4.5800
 2.9680	 4.4490
 2.9700	 3.8740
 2.9720	 2.7420
 2.9730	 3.6240
 2.9750	 2.7970
 2.9770	 2.6000
 2.9780	 3.0100
 2.9800	 2.3210
 2.9820	 2.5420
 2.9840	 2.9970
 2.9850	 3.9680
 2.9870	 4.7780
 2.9890	 2.8510
 2.9900	 1.1260
 2.9920	 -0.722
 2.9940	 0.3250
 2.9960	 2.0610
 2.9970	 2.5710
 2.9990	 3.8350
 3.0010	 3.9010
 3.0030	 2.1220
 3.0040	 1.5900
 3.0060	 1.1570
 3.0080	 1.5720
 3.0100	 3.8550
 3.0110	 3.8500
 3.0130	 3.8260
 3.0150	 3.3000
 3.0170	 3.3980
 3.0180	 4.1920
 3.0200	 4.2130
 3.0220	 3.7230
 3.0240	 3.3510
 3.0250	 3.1000
 3.0270	 4.4080
 3.0290	 5.8400
 3.0310	 5.5050
 3.0320	 4.4870
 3.0340	 4.0850
 3.0360	 2.2640
 3.0380	 3.3330
 3.0400	 5.7840
 3.0410	 6.5330
 3.0430	 8.8310
 3.0450	 7.8150
 3.0470	 3.1820
 3.0480	 2.8790
 3.0500	 3.4540
 3.0520	 4.9290
 3.0540	 6.1340
 3.0560	 5.0700
 3.0570	 2.6860
 3.0590	 2.5270
 3.0610	 4.9870
 3.0630	 6.2100
 3.0650	 6.3230
 3.0660	 6.2610
 3.0680	 6.8490
 3.0700	 5.7660
 3.0720	 3.5530
 3.0740	 4.0530
 3.0760	 4.6640
 3.0770	 4.7420
 3.0790	 4.1740
 3.0810	 4.0810
 3.0830	 4.3760
 3.0850	 4.6630
 3.0870	 4.6270
 3.0880	 4.4160
 3.0900	 4.2270
 3.0920	 4.3470
 3.0940	 4.1550
 3.0960	 4.4060
 3.0980	 4.5050
 3.0990	 4.5310
 3.1010	 4.5910
 3.1030	 4.5020
 3.1050	 3.8210
 3.1070	 3.8620
 3.1090	 4.5080
 3.1110	 4.9220
 3.1120	 5.0370
 3.1140	 5.0750
 3.1160	 4.5130
 3.1180	 4.1560
 3.1200	 4.3660
 3.1220	 4.9020
 3.1240	 4.8810
 3.1260	 4.9200
 3.1270	 5.0330
 3.1290	 4.9340
 3.1310	 4.4390
 3.1330	 4.4750
 3.1350	 4.4010
 3.1370	 5.4750
 3.1390	 5.8390
 3.1410	 4.1690
 3.1430	 4.3080
 3.1450	 3.7340
 3.1460	 2.0600
 3.1480	 3.7570
 3.1500	 4.8440
 3.1520	 5.1450
 3.1540	 4.0560
 3.1560	 3.1920
 3.1580	 2.0300
 3.1600	 2.3460
 3.1620	 4.2900
 3.1640	 4.3950
 3.1660	 4.7150
 3.1680	 4.4400
 3.1700	 5.7030
 3.1710	 9.8650
 3.1730	 8.3140
 3.1750	 4.6100
 3.1770	 5.5820
 3.1790	 7.2350
 3.1810	 5.8420
 3.1830	 5.4600
 3.1850	 5.3050
 3.1870	 4.8410
 3.1890	 4.7110
 3.1910	 4.8960
 3.1930	 4.6700
 3.1950	 4.7380
 3.1970	 4.7110
 3.1990	 4.2690
 3.2010	 3.8600
 3.2030	 3.9690
 3.2050	 3.9750
 3.2070	 4.2460
 3.2090	 4.6220
 3.2110	 4.9120
 3.2130	 4.8330
 3.2150	 4.8500
 3.2170	 4.6600
 3.2190	 4.5160
 3.2210	 4.4420
 3.2230	 4.6430
 3.2250	 4.9950
 3.2270	 5.0610
 3.2290	 4.5350
 3.2310	 4.3560
 3.2330	 4.3100
 3.2350	 4.6270
 3.2370	 4.7350
 3.2390	 4.3860
 3.2410	 4.4890
 3.2430	 5.3900
 3.2450	 5.3910
 3.2470	 4.8200
 3.2490	 4.4430
 3.2510	 4.7440
 3.2530	 4.9620
 3.2550	 4.7910
 3.2570	 4.4210
 3.2590	 3.7670
 3.2610	 4.0160
 3.2630	 4.4550
 3.2650	 4.4500
 3.2670	 4.4560
 3.2690	 4.5590
 3.2720	 4.8200
 3.2740	 5.0000
 3.2760	 4.8680
 3.2780	 4.5910
 3.2800	 4.5500
 3.2820	 4.5980
 3.2840	 4.4490
 3.2860	 4.6550
 3.2880	 4.7480
 3.2900	 4.7350
 3.2920	 4.9200
 3.2940	 4.6740
 3.2960	 4.7770
 3.2990	 4.6660
 3.3010	 4.4650
 3.3030	 4.1850
 3.3050	 4.2100
 3.3070	 4.6680
 3.3090	 4.9290
 3.3110	 4.8070
 3.3130	 4.6080
 3.3150	 4.5240
 3.3180	 4.6390
 3.3200	 4.3970
 3.3220	 4.4140
 3.3240	 4.9100
 3.3260	 5.0770
 3.3280	 4.8480
 3.3300	 4.6850
 3.3330	 4.4080
 3.3350	 4.3840
 3.3370	 4.8960
 3.3390	 5.0010
 3.3410	 4.5510
 3.3430	 4.1550
 3.3450	 3.9590
 3.3480	 4.0930
 3.3500	 4.4150
 3.3520	 4.6730
 3.3540	 4.3840
 3.3560	 4.3640
 3.3580	 4.6930
 3.3610	 4.6960
 3.3630	 4.4480
 3.3650	 4.2790
 3.3670	 4.2840
 3.3690	 4.5250
 3.3720	 4.4750
 3.3740	 4.3480
 3.3760	 4.2670
 3.3780	 4.3010
 3.3800	 4.3130
 3.3830	 4.3320
 3.3850	 4.3390
 3.3870	 4.2800
 3.3890	 4.1110
 3.3910	 4.1120
 3.3940	 4.2630
 3.3960	 4.4190
 3.3980	 4.5260
 3.4000	 4.5620
 3.4020	 4.3010
 3.4050	 4.2450
 3.4070	 4.3060
 3.4090	 4.3960
 3.4110	 4.4840
 3.4140	 4.4250
 3.4160	 4.4290
 3.4180	 4.6500
 3.4200	 4.7560
 3.4230	 4.8380
 3.4250	 4.7820
 3.4270	 5.0800
 3.4290	 5.2230
 3.4320	 5.2400
 3.4340	 5.1390
 3.4360	 4.8610
 3.4390	 4.8310
 3.4410	 4.6900
 3.4430	 4.3240
 3.4450	 4.6080
 3.4480	 4.9730
 3.4500	 5.1730
 3.4520	 5.2240
 3.4550	 4.7620
 3.4570	 4.3230
 3.4590	 4.6540
 3.4620	 4.8740
 3.4640	 4.6580
 3.4660	 4.6190
 3.4680	 4.8030
 3.4710	 4.7880
 3.4730	 4.8230
 3.4750	 4.8600
 3.4780	 4.8490
 3.4800	 4.7360
 3.4820	 4.7710
 3.4850	 4.7410
 3.4870	 4.8810
 3.4890	 4.7510
 3.4920	 4.6550
 3.4940	 4.6730
 3.4970	 4.6470
 3.4990	 4.7790
 3.5010	 4.9380
 3.5040	 4.8350
 3.5060	 4.8980
 3.5080	 4.9180
 3.5110	 4.8700
 3.5130	 4.8550
 3.5160	 4.9290
 3.5180	 4.7630
 3.5200	 4.8910
 3.5230	 5.1960
 3.5250	 5.2050
 3.5270	 5.0220
 3.5300	 5.0600
 3.5320	 5.0870
 3.5350	 5.0760
 3.5370	 5.0220
 3.5400	 4.8720
 3.5420	 4.8950
 3.5440	 4.9340
 3.5470	 4.8970
 3.5490	 4.9480
 3.5520	 4.9080
 3.5540	 4.9750
 3.5570	 4.9870
 3.5590	 5.0230
 3.5610	 5.1020
 3.5640	 5.2020
 3.5660	 5.1430
 3.5690	 5.0440
 3.5710	 4.8990
 3.5740	 4.9920
 3.5760	 4.9800
 3.5790	 5.0320
 3.5810	 4.9960
 3.5840	 5.1180
 3.5860	 5.3000
 3.5890	 5.3500
 3.5910	 5.0730
 3.5930	 4.9890
 3.5960	 4.7070
 3.5980	 4.6450
 3.6010	 4.9400
 3.6030	 5.0330
 3.6060	 5.0170
 3.6080	 5.2040
 3.6110	 5.1910
 3.6140	 5.0980
 3.6160	 5.1460
 3.6190	 5.1240
 3.6210	 5.1060
 3.6240	 5.1360
 3.6260	 5.1560
 3.6290	 5.2230
 3.6310	 5.2040
 3.6340	 5.2770
 3.6360	 5.3200
 3.6390	 5.3260
 3.6410	 5.3000
 3.6440	 5.2920
 3.6470	 5.2640
 3.6490	 5.1760
 3.6520	 5.1810
 3.6540	 5.1910
 3.6570	 5.3440
 3.6590	 5.3630
 3.6620	 5.3000
 3.6650	 5.3390
 3.6670	 5.3120
 3.6700	 5.2850
 3.6720	 5.3200
 3.6750	 5.3900
 3.6780	 5.0400
 3.6800	 4.9220
 3.6830	 5.0970
 3.6850	 5.1480
 3.6880	 5.1080
 3.6910	 5.1060
 3.6930	 5.0900
 3.6960	 5.1890
 3.6990	 5.2000
 3.7010	 5.1840
 3.7040	 5.1660
 3.7060	 5.2110
 3.7090	 5.2250
 3.7120	 5.2580
 3.7140	 5.3720
 3.7170	 5.4550
 3.7200	 5.3750
 3.7220	 5.2670
 3.7250	 5.2500
 3.7280	 5.2140
 3.7300	 5.1340
 3.7330	 5.1830
 3.7360	 5.2000
 3.7390	 5.1750
 3.7410	 5.2160
 3.7440	 5.2680
 3.7470	 5.3870
 3.7490	 5.5510
 3.7520	 5.5770
 3.7550	 5.2140
 3.7580	 4.9190
 3.7600	 4.9140
 3.7630	 5.2230
 3.7660	 5.4050
 3.7680	 5.3870
 3.7710	 5.3530
 3.7740	 5.2080
 3.7770	 5.1490
 3.7790	 5.1770
 3.7820	 5.2870
 3.7850	 5.2590
 3.7880	 5.2930
 3.7900	 5.4030
 3.7930	 5.3740
 3.7960	 5.2470
 3.7990	 5.2660
 3.8020	 5.2320
 3.8040	 5.2850
 3.8070	 5.3580
 3.8100	 5.3130
 3.8130	 5.3670
 3.8160	 5.3740
 3.8180	 5.2760
 3.8210	 5.3310
 3.8240	 5.3180
 3.8270	 5.2770
 3.8300	 5.3170
 3.8330	 5.4830
 3.8350	 5.6010
 3.8380	 5.6660
 3.8410	 5.7360
 3.8440	 5.7400
 3.8470	 5.4810
 3.8500	 5.2240
 3.8520	 5.2180
 3.8550	 5.3440
 3.8580	 5.4090
 3.8610	 5.4360
 3.8640	 5.4230
 3.8670	 5.4980
 3.8700	 5.5840
 3.8730	 5.5540
 3.8750	 5.5770
 3.8780	 5.6500
 3.8810	 5.5280
 3.8840	 5.4820
 3.8870	 5.5240
 3.8900	 5.6150
 3.8930	 5.6340
 3.8960	 5.4850
 3.8990	 5.3120
 3.9020	 5.4220
 3.9050	 5.6140
 3.9080	 5.5420
 3.9110	 5.4290
 3.9140	 5.5140
 3.9160	 5.5090
 3.9190	 5.5430
 3.9220	 5.5690
 3.9250	 5.5270
 3.9280	 5.5320
 3.9310	 5.6190
 3.9340	 5.6110
 3.9370	 5.4940
 3.9400	 5.4720
 3.9430	 5.5020
 3.9460	 5.5180
 3.9490	 5.4950
 3.9520	 5.4650
 3.9550	 5.5180
 3.9580	 5.5560
 3.9610	 5.5700
 3.9640	 5.5720
 3.9670	 5.5850
 3.9700	 5.5710
 3.9730	 5.6310
 3.9770	 5.6770
 3.9800	 5.6920
 3.9830	 5.6230
 3.9860	 5.5320
 3.9890	 5.5280
 3.9920	 5.5640
 3.9950	 5.5830
 3.9980	 5.5560
 4.0010	 5.4880
 4.0040	 5.4590
 4.0070	 5.4740
 4.0100	 5.4510
 4.0130	 5.4880
 4.0170	 5.5320
 4.0200	 5.4870
 4.0230	 5.5440
 4.0260	 5.5500
 4.0290	 5.5970
 4.0320	 5.6040
 4.0350	 5.5560
 4.0380	 5.5640
 4.0420	 5.6030
 4.0450	 5.5400
 4.0480	 5.5880
 4.0510	 5.6270
 4.0540	 5.5340
 4.0570	 5.3930
 4.0610	 5.3140
 4.0640	 5.2520
 4.0670	 5.4620
 4.0700	 5.5720
 4.0730	 5.6870
 4.0770	 5.7580
 4.0800	 5.5360
 4.0830	 5.4460
 4.0860	 5.4070
 4.0890	 5.4100
 4.0930	 5.5390
 4.0960	 5.5430
 4.0990	 5.4980
 4.1020	 5.3510
 4.1060	 5.2650
 4.1090	 5.3680
 4.1120	 5.5260
 4.1150	 5.2180
 4.1190	 5.0960
 4.1220	 5.3890
 4.1250	 5.4710
 4.1280	 5.5040
 4.1320	 5.6230
 4.1350	 5.5410
 4.1380	 5.5610
 4.1420	 5.6100
 4.1450	 5.4940
 4.1480	 5.4580
 4.1520	 5.5410
 4.1550	 5.5700
 4.1580	 5.5880
 4.1620	 5.5510
 4.1650	 5.5560
 4.1680	 5.5430
 4.1720	 5.5050
 4.1750	 5.4490
 4.1780	 5.4410
 4.1820	 5.4320
 4.1850	 5.4290
 4.1890	 5.4770
 4.1920	 5.5180
 4.1950	 5.4460
 4.1990	 5.4310
 4.2020	 5.5300
 4.2060	 5.6030
 4.2090	 5.5020
 4.2120	 5.6530
 4.2160	 5.8150
 4.2190	 5.5900
 4.2230	 5.3890
 4.2260	 5.6080
 4.2300	 5.8430
 4.2330	 5.7570
 4.2360	 5.7650
 4.2400	 6.1580
 4.2430	 6.4200
 4.2470	 6.2430
 4.2500	 6.0440
 4.2540	 5.6250
 4.2570	 5.4370
 4.2610	 5.0730
 4.2640	 5.3380
 4.2680	 5.7740
 4.2710	 6.1060
 4.2750	 6.2820
 4.2780	 6.0300
 4.2820	 6.1990
 4.2850	 6.3020
 4.2890	 5.9180
 4.2930	 5.6020
 4.2960	 5.6050
 4.3000	 5.4910
 4.3030	 5.4770
 4.3070	 5.4910
 4.3100	 5.5240
 4.3140	 5.5770
 4.3180	 5.5300
 4.3210	 5.4100
 4.3250	 5.3900
 4.3280	 5.4570
 4.3320	 5.5040
 4.3360	 5.4290
 4.3390	 5.3310
 4.3430	 5.3570
 4.3470	 5.3920
 4.3500	 5.3460
 4.3540	 5.3510
 4.3570	 5.4700
 4.3610	 5.4760
 4.3650	 5.3740
 4.3680	 5.3350
 4.3720	 5.2580
 4.3760	 5.2560
 4.3800	 5.3560
 4.3830	 5.3760
 4.3870	 5.2490
 4.3910	 5.3020
 4.3940	 5.4440
 4.3980	 5.4060
 4.4020	 5.2570
 4.4060	 5.1900
 4.4090	 5.2230
 4.4130	 5.2760
 4.4170	 5.2990
 4.4210	 5.3020
 4.4240	 5.3000
 4.4280	 5.2360
 4.4320	 5.2650
 4.4360	 5.2380
 4.4400	 5.2000
 4.4430	 5.2570
 4.4470	 5.2760
 4.4510	 5.2240
 4.4550	 5.1820
 4.4590	 5.2070
 4.4620	 5.2160
 4.4660	 5.0990
 4.4700	 5.1440
 4.4740	 5.2560
 4.4780	 5.2120
 4.4820	 5.1620
 4.4860	 5.1820
 4.4900	 5.1510
 4.4930	 5.1370
 4.4970	 5.1680
 4.5010	 5.2590
 4.5050	 5.1920
 4.5090	 5.1400
 4.5130	 5.0790
 4.5170	 4.9900
 4.5210	 5.0070
 4.5250	 5.0520
 4.5290	 5.0150
 4.5330	 5.1250
 4.5370	 5.1730
 4.5410	 5.1510
 4.5450	 5.1350
 4.5490	 5.1050
 4.5530	 5.0880
 4.5570	 5.1970
 4.5610	 5.1700
 4.5650	 5.0090
 4.5690	 5.0400
 4.5730	 5.1020
 4.5770	 5.1210
 4.5810	 5.1130
 4.5850	 5.0970
 4.5890	 5.1000
 4.5930	 5.0730
 4.5970	 5.0900
 4.6010	 5.0570
 4.6050	 5.0330
 4.6090	 5.0790
 4.6130	 5.2160
 4.6170	 5.1560
 4.6220	 4.9610
 4.6260	 5.0970
 4.6300	 5.2030
 4.6340	 5.1340
 4.6380	 4.9860
 4.6420	 4.9910
 4.6460	 5.1330
 4.6510	 5.1740
 4.6550	 5.1940
 4.6590	 5.1620
 4.6630	 5.1300
 4.6670	 5.1220
 4.6720	 5.1230
 4.6760	 5.0820
 4.6800	 5.1380
 4.6840	 5.1790
 4.6880	 5.0240
 4.6930	 5.0020
 4.6970	 5.1410
 4.7010	 5.1340
 4.7050	 5.0380
 4.7100	 5.0040
 4.7140	 4.9560
 4.7180	 5.0260
 4.7230	 5.1530
 4.7270	 5.1110
 4.7310	 5.0730
 4.7360	 5.0280
 4.7400	 5.0890
 4.7440	 5.0660
 4.7490	 4.9640
 4.7530	 4.8950
 4.7570	 4.8950
 4.7620	 4.9230
 4.7660	 4.9730
 4.7700	 4.9590
 4.7750	 4.9310
 4.7790	 4.9900
 4.7840	 4.9590
 4.7880	 4.6990
 4.7920	 4.8110
 4.7970	 4.8620
 4.8010	 4.9920
 4.8060	 5.1290
 4.8100	 5.1690
 4.8150	 5.0870
 4.8190	 4.9150
 4.8240	 4.8660
 4.8280	 4.9030
 4.8330	 5.0030
 4.8370	 5.0580
 4.8420	 5.0370
 4.8460	 4.9570
 4.8510	 4.8130
 4.8550	 4.8420
 4.8600	 4.9670
 4.8640	 5.0370
 4.8690	 5.0130
 4.8730	 4.9630
 4.8780	 4.9320
 4.8830	 5.0370
 4.8870	 4.9980
 4.8920	 4.9350
 4.8960	 4.8710
 4.9010	 4.9150
 4.9060	 4.9820
 4.9100	 4.9810
 4.9150	 4.9040
 4.9200	 4.9450
 4.9240	 4.9200
 4.9290	 4.9240
 4.9340	 4.9480
 4.9380	 4.9690
 4.9430	 4.9790
 4.9480	 4.9930
 4.9530	 5.0110
 4.9570	 5.0020
 4.9620	 4.9440
 4.9670	 4.9610
 4.9720	 4.9660
 4.9760	 5.0040
 4.9810	 4.9950
 4.9860	 5.0370
 4.9910	 5.0560
 4.9960	 5.0390
 5.0000	 4.9940
 5.0050	 4.9690
 5.0100	 4.9830
 5.0150	 5.0610
 5.0200	 5.0050
 5.0250	 4.9310
 5.0290	 4.9410
 5.0340	 5.0690
 5.0390	 5.0720
 5.0440	 5.0000
 5.0490	 4.9910
 5.0540	 4.9840
 5.0590	 4.9540
 5.0640	 4.9120
 5.0690	 4.9000
 5.0740	 4.9680
 5.0790	 5.0890
 5.0840	 5.1110
 5.0890	 5.0350
 5.0940	 4.9880
 5.0990	 4.9750
 5.1040	 5.0580
 5.1090	 5.0430
 5.1140	 5.0120
 5.1190	 4.9760
 5.1240	 5.0440
 5.1290	 5.0610
 5.1340	 5.0720
 5.1390	 5.0770
 5.1440	 5.0700
 5.1490	 5.0250
 5.1540	 4.9820
 5.1600	 4.9680
 5.1650	 5.0530
 5.1700	 5.0310
 5.1750	 5.0010
 5.1800	 4.9960
 5.1850	 5.0110
 5.1910	 4.9340
 5.1960	 5.0180
 5.2010	 5.0540
 5.2060	 5.0030
 5.2110	 5.0220
 5.2170	 5.0070
 5.2220	 4.9860
 5.2270	 4.9670
 5.2320	 4.8820
 5.2380	 4.8710
 5.2430	 4.9020
 5.2480	 4.9790
 5.2540	 4.9870
 5.2590	 5.0510
 5.2640	 5.0160
 5.2700	 4.9830
 5.2750	 4.8830
 5.2800	 4.8450
 5.2860	 4.9020
 5.2910	 4.9730
 5.2970	 4.9390
 5.3020	 4.9890
 5.3070	 5.0120
 5.3130	 5.0260
 5.3180	 5.0360
 5.3240	 5.0230
 5.3290	 4.9740
 5.3350	 4.8970
 5.3400	 4.8330
 5.3460	 4.9390
 5.3510	 4.9250
 5.3570	 4.9050
 5.3620	 4.8400
 5.3680	 4.7920
 5.3730	 4.8180
 5.3790	 4.9420
 5.3850	 4.8560
 5.3900	 4.8070
 5.3960	 4.8270
 5.4010	 4.8180
 5.4070	 4.7890
 5.4130	 4.8190
 5.4180	 4.8400
 5.4240	 4.8480
 5.4300	 4.8300
 5.4350	 4.8300
