Name: Betula papyrifera
Type: Vegetation
Class: Tree
Genus: Betula
Species: papyrifera
Sample No.: BEPA-1-31
Owner: UCSB
Wavelength Range: VSWIR
Origin: USA; Massachusetts; Harvard Forest
Collection Date: 7/8/2013
Description: Samples were collected as part of NSF Macrosystem Biology proposal titled: Collaborative Research: Thermal controls on ecosystem metabolism and function: scaling from leaves to canopies to regions. Samples were collected and overnighted to JPL facilities for processing. The same leaves were processed in the Nicolet and then measured using the ASD.
Measurement: Bidirectional reflectance
First Column: X
Second Column: Y
X Units: Wavelength (micrometers)
Y Units: Reflectance (percentage)
First X Value: 0.35
Last X Value: 2.5
Number of X Values: 2151
Additional Information: vegetation.tree.betula.papyrifera.vswir.bepa-1-31.ucsb.asd.ancillary.txt

 0.3500	 5.0270
 0.3510	 5.0030
 0.3520	 4.9010
 0.3530	 4.8130
 0.3540	 4.7640
 0.3550	 4.5760
 0.3560	 4.4600
 0.3570	 4.5100
 0.3580	 4.7070
 0.3590	 4.7040
 0.3600	 4.6780
 0.3610	 4.7110
 0.3620	 4.6740
 0.3630	 4.6680
 0.3640	 4.6810
 0.3650	 4.6690
 0.3660	 4.5730
 0.3670	 4.5820
 0.3680	 4.6650
 0.3690	 4.6590
 0.3700	 4.6930
 0.3710	 4.7480
 0.3720	 4.7640
 0.3730	 4.6300
 0.3740	 4.5850
 0.3750	 4.6320
 0.3760	 4.6790
 0.3770	 4.6070
 0.3780	 4.5340
 0.3790	 4.5320
 0.3800	 4.6170
 0.3810	 4.6410
 0.3820	 4.5390
 0.3830	 4.3840
 0.3840	 4.5260
 0.3850	 4.5700
 0.3860	 4.5470
 0.3870	 4.6000
 0.3880	 4.5050
 0.3890	 4.4720
 0.3900	 4.5330
 0.3910	 4.5100
 0.3920	 4.5270
 0.3930	 4.5740
 0.3940	 4.6110
 0.3950	 4.5940
 0.3960	 4.5430
 0.3970	 4.5270
 0.3980	 4.6110
 0.3990	 4.6400
 0.4000	 4.6110
 0.4010	 4.5550
 0.4020	 4.5220
 0.4030	 4.5260
 0.4040	 4.5550
 0.4050	 4.5750
 0.4060	 4.5240
 0.4070	 4.5140
 0.4080	 4.5410
 0.4090	 4.5330
 0.4100	 4.5020
 0.4110	 4.5080
 0.4120	 4.5580
 0.4130	 4.5440
 0.4140	 4.5330
 0.4150	 4.5510
 0.4160	 4.5900
 0.4170	 4.5690
 0.4180	 4.5430
 0.4190	 4.5380
 0.4200	 4.5470
 0.4210	 4.5860
 0.4220	 4.6120
 0.4230	 4.6000
 0.4240	 4.6110
 0.4250	 4.6030
 0.4260	 4.5950
 0.4270	 4.6220
 0.4280	 4.6300
 0.4290	 4.6450
 0.4300	 4.6740
 0.4310	 4.6860
 0.4320	 4.6890
 0.4330	 4.6930
 0.4340	 4.7000
 0.4350	 4.6910
 0.4360	 4.6800
 0.4370	 4.6780
 0.4380	 4.6890
 0.4390	 4.6810
 0.4400	 4.6790
 0.4410	 4.6970
 0.4420	 4.7030
 0.4430	 4.6880
 0.4440	 4.6760
 0.4450	 4.6910
 0.4460	 4.6800
 0.4470	 4.6840
 0.4480	 4.7110
 0.4490	 4.7310
 0.4500	 4.7330
 0.4510	 4.7320
 0.4520	 4.7380
 0.4530	 4.7340
 0.4540	 4.7320
 0.4550	 4.7380
 0.4560	 4.7520
 0.4570	 4.7450
 0.4580	 4.7490
 0.4590	 4.7740
 0.4600	 4.7650
 0.4610	 4.7610
 0.4620	 4.7640
 0.4630	 4.7650
 0.4640	 4.7650
 0.4650	 4.7670
 0.4660	 4.7700
 0.4670	 4.7720
 0.4680	 4.7660
 0.4690	 4.7650
 0.4700	 4.7730
 0.4710	 4.7770
 0.4720	 4.7720
 0.4730	 4.7660
 0.4740	 4.7640
 0.4750	 4.7520
 0.4760	 4.7540
 0.4770	 4.7720
 0.4780	 4.7630
 0.4790	 4.7690
 0.4800	 4.7800
 0.4810	 4.7750
 0.4820	 4.7720
 0.4830	 4.7720
 0.4840	 4.7780
 0.4850	 4.7970
 0.4860	 4.8020
 0.4870	 4.8020
 0.4880	 4.8050
 0.4890	 4.8090
 0.4900	 4.8140
 0.4910	 4.8160
 0.4920	 4.8110
 0.4930	 4.8320
 0.4940	 4.8520
 0.4950	 4.8600
 0.4960	 4.8720
 0.4970	 4.8740
 0.4980	 4.8840
 0.4990	 4.9170
 0.5000	 4.9390
 0.5010	 4.9580
 0.5020	 4.9770
 0.5030	 4.9960
 0.5040	 5.0230
 0.5050	 5.0580
 0.5060	 5.1000
 0.5070	 5.1460
 0.5080	 5.1960
 0.5090	 5.2510
 0.5100	 5.3110
 0.5110	 5.3720
 0.5120	 5.4430
 0.5130	 5.5310
 0.5140	 5.6380
 0.5150	 5.7440
 0.5160	 5.8550
 0.5170	 5.9830
 0.5180	 6.1260
 0.5190	 6.2790
 0.5200	 6.4370
 0.5210	 6.6000
 0.5220	 6.7710
 0.5230	 6.9430
 0.5240	 7.1110
 0.5250	 7.2870
 0.5260	 7.4550
 0.5270	 7.6130
 0.5280	 7.7610
 0.5290	 7.8960
 0.5300	 8.0240
 0.5310	 8.1440
 0.5320	 8.2580
 0.5330	 8.3520
 0.5340	 8.4430
 0.5350	 8.5360
 0.5360	 8.5950
 0.5370	 8.6570
 0.5380	 8.7220
 0.5390	 8.7610
 0.5400	 8.8030
 0.5410	 8.8490
 0.5420	 8.8980
 0.5430	 8.9470
 0.5440	 8.9910
 0.5450	 9.0300
 0.5460	 9.0670
 0.5470	 9.0840
 0.5480	 9.0910
 0.5490	 9.1000
 0.5500	 9.1160
 0.5510	 9.1270
 0.5520	 9.1290
 0.5530	 9.1220
 0.5540	 9.1070
 0.5550	 9.0770
 0.5560	 9.0300
 0.5570	 8.9730
 0.5580	 8.9100
 0.5590	 8.8350
 0.5600	 8.7480
 0.5610	 8.6590
 0.5620	 8.5710
 0.5630	 8.4750
 0.5640	 8.3630
 0.5650	 8.2510
 0.5660	 8.1380
 0.5670	 8.0240
 0.5680	 7.9070
 0.5690	 7.7810
 0.5700	 7.6570
 0.5710	 7.5430
 0.5720	 7.4300
 0.5730	 7.3160
 0.5740	 7.2060
 0.5750	 7.1100
 0.5760	 7.0260
 0.5770	 6.9470
 0.5780	 6.8720
 0.5790	 6.8000
 0.5800	 6.7330
 0.5810	 6.6700
 0.5820	 6.6130
 0.5830	 6.5650
 0.5840	 6.5190
 0.5850	 6.4740
 0.5860	 6.4370
 0.5870	 6.4110
 0.5880	 6.3860
 0.5890	 6.3520
 0.5900	 6.3140
 0.5910	 6.2820
 0.5920	 6.2540
 0.5930	 6.2290
 0.5940	 6.2120
 0.5950	 6.1970
 0.5960	 6.1790
 0.5970	 6.1620
 0.5980	 6.1470
 0.5990	 6.1330
 0.6000	 6.1180
 0.6010	 6.1020
 0.6020	 6.0790
 0.6030	 6.0500
 0.6040	 6.0240
 0.6050	 5.9940
 0.6060	 5.9600
 0.6070	 5.9240
 0.6080	 5.8900
 0.6090	 5.8560
 0.6100	 5.8230
 0.6110	 5.7910
 0.6120	 5.7580
 0.6130	 5.7130
 0.6140	 5.6600
 0.6150	 5.6250
 0.6160	 5.5890
 0.6170	 5.5580
 0.6180	 5.5360
 0.6190	 5.5070
 0.6200	 5.4820
 0.6210	 5.4630
 0.6220	 5.4440
 0.6230	 5.4300
 0.6240	 5.4190
 0.6250	 5.4090
 0.6260	 5.4000
 0.6270	 5.3930
 0.6280	 5.3870
 0.6290	 5.3820
 0.6300	 5.3760
 0.6310	 5.3710
 0.6320	 5.3660
 0.6330	 5.3620
 0.6340	 5.3510
 0.6350	 5.3330
 0.6360	 5.3150
 0.6370	 5.3030
 0.6380	 5.2840
 0.6390	 5.2570
 0.6400	 5.2310
 0.6410	 5.2090
 0.6420	 5.1840
 0.6430	 5.1570
 0.6440	 5.1300
 0.6450	 5.1030
 0.6460	 5.0790
 0.6470	 5.0590
 0.6480	 5.0410
 0.6490	 5.0250
 0.6500	 5.0100
 0.6510	 4.9930
 0.6520	 4.9810
 0.6530	 4.9730
 0.6540	 4.9650
 0.6550	 4.9480
 0.6560	 4.9360
 0.6570	 4.9280
 0.6580	 4.9160
 0.6590	 4.9010
 0.6600	 4.8860
 0.6610	 4.8740
 0.6620	 4.8700
 0.6630	 4.8600
 0.6640	 4.8510
 0.6650	 4.8470
 0.6660	 4.8430
 0.6670	 4.8440
 0.6680	 4.8500
 0.6690	 4.8580
 0.6700	 4.8620
 0.6710	 4.8680
 0.6720	 4.8820
 0.6730	 4.8980
 0.6740	 4.9130
 0.6750	 4.9300
 0.6760	 4.9530
 0.6770	 4.9820
 0.6780	 5.0080
 0.6790	 5.0320
 0.6800	 5.0630
 0.6810	 5.0940
 0.6820	 5.1260
 0.6830	 5.1620
 0.6840	 5.2020
 0.6850	 5.2400
 0.6860	 5.2790
 0.6870	 5.3240
 0.6880	 5.3840
 0.6890	 5.4520
 0.6900	 5.5340
 0.6910	 5.6450
 0.6920	 5.7860
 0.6930	 5.9670
 0.6940	 6.1980
 0.6950	 6.4850
 0.6960	 6.8320
 0.6970	 7.2470
 0.6980	 7.7370
 0.6990	 8.2930
 0.7000	 8.9130
 0.7010	 9.5930
 0.7020	10.3290
 0.7030	11.1070
 0.7040	11.9280
 0.7050	12.7900
 0.7060	13.6640
 0.7070	14.5620
 0.7080	15.4810
 0.7090	16.4120
 0.7100	17.3520
 0.7110	18.3040
 0.7120	19.2630
 0.7130	20.2150
 0.7140	21.1780
 0.7150	22.1360
 0.7160	23.0790
 0.7170	24.0210
 0.7180	24.9500
 0.7190	25.8650
 0.7200	26.7660
 0.7210	27.6460
 0.7220	28.5070
 0.7230	29.3490
 0.7240	30.1710
 0.7250	30.9530
 0.7260	31.6990
 0.7270	32.4130
 0.7280	33.0970
 0.7290	33.7620
 0.7300	34.3990
 0.7310	34.9920
 0.7320	35.5530
 0.7330	36.0860
 0.7340	36.5870
 0.7350	37.0410
 0.7360	37.4750
 0.7370	37.8910
 0.7380	38.2880
 0.7390	38.6660
 0.7400	38.9980
 0.7410	39.2930
 0.7420	39.5740
 0.7430	39.8410
 0.7440	40.0820
 0.7450	40.3040
 0.7460	40.5320
 0.7470	40.7120
 0.7480	40.8670
 0.7490	41.0180
 0.7500	41.1560
 0.7510	41.2700
 0.7520	41.3770
 0.7530	41.4950
 0.7540	41.5890
 0.7550	41.6730
 0.7560	41.7480
 0.7570	41.8080
 0.7580	41.8630
 0.7590	41.9160
 0.7600	41.9650
 0.7610	42.0020
 0.7620	42.0450
 0.7630	42.0800
 0.7640	42.0980
 0.7650	42.1270
 0.7660	42.1540
 0.7670	42.1720
 0.7680	42.1840
 0.7690	42.1980
 0.7700	42.2100
 0.7710	42.2250
 0.7720	42.2510
 0.7730	42.2520
 0.7740	42.2390
 0.7750	42.2370
 0.7760	42.2530
 0.7770	42.2770
 0.7780	42.2970
 0.7790	42.3040
 0.7800	42.3080
 0.7810	42.3000
 0.7820	42.2980
 0.7830	42.3360
 0.7840	42.3340
 0.7850	42.3340
 0.7860	42.3580
 0.7870	42.3480
 0.7880	42.3410
 0.7890	42.3490
 0.7900	42.3690
 0.7910	42.3770
 0.7920	42.3810
 0.7930	42.3840
 0.7940	42.3900
 0.7950	42.3960
 0.7960	42.3980
 0.7970	42.4010
 0.7980	42.4130
 0.7990	42.4140
 0.8000	42.4070
 0.8010	42.3980
 0.8020	42.3900
 0.8030	42.4020
 0.8040	42.4210
 0.8050	42.4210
 0.8060	42.4190
 0.8070	42.4180
 0.8080	42.4160
 0.8090	42.4090
 0.8100	42.4050
 0.8110	42.4000
 0.8120	42.3940
 0.8130	42.3980
 0.8140	42.3960
 0.8150	42.3920
 0.8160	42.3900
 0.8170	42.3840
 0.8180	42.3720
 0.8190	42.3670
 0.8200	42.3790
 0.8210	42.3620
 0.8220	42.3390
 0.8230	42.3330
 0.8240	42.3510
 0.8250	42.3380
 0.8260	42.3250
 0.8270	42.3290
 0.8280	42.3170
 0.8290	42.3180
 0.8300	42.3200
 0.8310	42.3100
 0.8320	42.2930
 0.8330	42.2860
 0.8340	42.2830
 0.8350	42.2760
 0.8360	42.2790
 0.8370	42.2890
 0.8380	42.2890
 0.8390	42.2630
 0.8400	42.2650
 0.8410	42.2680
 0.8420	42.2620
 0.8430	42.2650
 0.8440	42.2630
 0.8450	42.2510
 0.8460	42.2380
 0.8470	42.2530
 0.8480	42.2550
 0.8490	42.2530
 0.8500	42.2620
 0.8510	42.2540
 0.8520	42.2460
 0.8530	42.2390
 0.8540	42.2210
 0.8550	42.2340
 0.8560	42.2390
 0.8570	42.2320
 0.8580	42.2470
 0.8590	42.2520
 0.8600	42.2600
 0.8610	42.2720
 0.8620	42.2560
 0.8630	42.2550
 0.8640	42.2620
 0.8650	42.2620
 0.8660	42.2580
 0.8670	42.2530
 0.8680	42.2580
 0.8690	42.2760
 0.8700	42.2740
 0.8710	42.2700
 0.8720	42.2720
 0.8730	42.2760
 0.8740	42.2700
 0.8750	42.2770
 0.8760	42.2870
 0.8770	42.2640
 0.8780	42.2670
 0.8790	42.2830
 0.8800	42.2950
 0.8810	42.2940
 0.8820	42.2870
 0.8830	42.2950
 0.8840	42.3160
 0.8850	42.2930
 0.8860	42.2980
 0.8870	42.3040
 0.8880	42.2880
 0.8890	42.3270
 0.8900	42.3340
 0.8910	42.3200
 0.8920	42.3300
 0.8930	42.3300
 0.8940	42.3460
 0.8950	42.3620
 0.8960	42.3430
 0.8970	42.3330
 0.8980	42.3310
 0.8990	42.3280
 0.9000	42.3130
 0.9010	42.3410
 0.9020	42.3550
 0.9030	42.3430
 0.9040	42.3650
 0.9050	42.3550
 0.9060	42.3470
 0.9070	42.3620
 0.9080	42.3590
 0.9090	42.3560
 0.9100	42.3670
 0.9110	42.3870
 0.9120	42.3750
 0.9130	42.3640
 0.9140	42.3610
 0.9150	42.3610
 0.9160	42.3550
 0.9170	42.3530
 0.9180	42.3600
 0.9190	42.3740
 0.9200	42.3610
 0.9210	42.3400
 0.9220	42.3390
 0.9230	42.3690
 0.9240	42.3740
 0.9250	42.3820
 0.9260	42.3830
 0.9270	42.3450
 0.9280	42.3340
 0.9290	42.3240
 0.9300	42.3000
 0.9310	42.2690
 0.9320	42.2950
 0.9330	42.2950
 0.9340	42.2550
 0.9350	42.2590
 0.9360	42.2550
 0.9370	42.2340
 0.9380	42.2070
 0.9390	42.2000
 0.9400	42.2060
 0.9410	42.1920
 0.9420	42.1530
 0.9430	42.1350
 0.9440	42.1310
 0.9450	42.1250
 0.9460	42.1050
 0.9470	42.0730
 0.9480	42.0290
 0.9490	41.9860
 0.9500	41.9570
 0.9510	41.9630
 0.9520	41.9320
 0.9530	41.8820
 0.9540	41.8460
 0.9550	41.8010
 0.9560	41.7700
 0.9570	41.7340
 0.9580	41.6820
 0.9590	41.6540
 0.9600	41.6330
 0.9610	41.6090
 0.9620	41.5770
 0.9630	41.5510
 0.9640	41.5380
 0.9650	41.5300
 0.9660	41.5120
 0.9670	41.5080
 0.9680	41.4870
 0.9690	41.4610
 0.9700	41.4540
 0.9710	41.4640
 0.9720	41.4550
 0.9730	41.4430
 0.9740	41.4550
 0.9750	41.4440
 0.9760	41.4440
 0.9770	41.4490
 0.9780	41.4430
 0.9790	41.4630
 0.9800	41.4510
 0.9810	41.4180
 0.9820	41.4090
 0.9830	41.4340
 0.9840	41.4320
 0.9850	41.4120
 0.9860	41.4140
 0.9870	41.3970
 0.9880	41.4010
 0.9890	41.4450
 0.9900	41.5120
 0.9910	41.4950
 0.9920	41.5130
 0.9930	41.5320
 0.9940	41.5500
 0.9950	41.5690
 0.9960	41.5870
 0.9970	41.6060
 0.9980	41.6240
 0.9990	41.6430
 1.0000	41.6610
 1.0010	41.6800
 1.0020	41.6980
 1.0030	41.7170
 1.0040	41.7350
 1.0050	41.7540
 1.0060	41.7720
 1.0070	41.7910
 1.0080	41.8090
 1.0090	41.8280
 1.0100	41.8280
 1.0110	41.8410
 1.0120	41.8530
 1.0130	41.8650
 1.0140	41.8730
 1.0150	41.8740
 1.0160	41.8870
 1.0170	41.8920
 1.0180	41.8880
 1.0190	41.9000
 1.0200	41.9100
 1.0210	41.9240
 1.0220	41.9450
 1.0230	41.9590
 1.0240	41.9720
 1.0250	41.9830
 1.0260	41.9910
 1.0270	41.9990
 1.0280	42.0060
 1.0290	42.0130
 1.0300	42.0160
 1.0310	42.0260
 1.0320	42.0390
 1.0330	42.0550
 1.0340	42.0690
 1.0350	42.0820
 1.0360	42.0910
 1.0370	42.0900
 1.0380	42.0910
 1.0390	42.0900
 1.0400	42.0920
 1.0410	42.0930
 1.0420	42.0970
 1.0430	42.1050
 1.0440	42.1100
 1.0450	42.1150
 1.0460	42.1210
 1.0470	42.1260
 1.0480	42.1320
 1.0490	42.1410
 1.0500	42.1480
 1.0510	42.1530
 1.0520	42.1620
 1.0530	42.1670
 1.0540	42.1710
 1.0550	42.1740
 1.0560	42.1740
 1.0570	42.1760
 1.0580	42.1740
 1.0590	42.1780
 1.0600	42.1900
 1.0610	42.1940
 1.0620	42.1980
 1.0630	42.2020
 1.0640	42.1960
 1.0650	42.1970
 1.0660	42.2040
 1.0670	42.2070
 1.0680	42.2100
 1.0690	42.2140
 1.0700	42.2180
 1.0710	42.2230
 1.0720	42.2270
 1.0730	42.2370
 1.0740	42.2350
 1.0750	42.2260
 1.0760	42.2180
 1.0770	42.2000
 1.0780	42.1950
 1.0790	42.1990
 1.0800	42.1970
 1.0810	42.1960
 1.0820	42.1950
 1.0830	42.1860
 1.0840	42.1820
 1.0850	42.1840
 1.0860	42.1850
 1.0870	42.1810
 1.0880	42.1780
 1.0890	42.1740
 1.0900	42.1660
 1.0910	42.1600
 1.0920	42.1540
 1.0930	42.1470
 1.0940	42.1340
 1.0950	42.1270
 1.0960	42.1230
 1.0970	42.1200
 1.0980	42.1240
 1.0990	42.1210
 1.1000	42.1160
 1.1010	42.1100
 1.1020	42.0970
 1.1030	42.0870
 1.1040	42.0840
 1.1050	42.0750
 1.1060	42.0680
 1.1070	42.0640
 1.1080	42.0580
 1.1090	42.0520
 1.1100	42.0420
 1.1110	42.0320
 1.1120	42.0190
 1.1130	41.9950
 1.1140	41.9820
 1.1150	41.9760
 1.1160	41.9630
 1.1170	41.9550
 1.1180	41.9420
 1.1190	41.9210
 1.1200	41.9020
 1.1210	41.8820
 1.1220	41.8560
 1.1230	41.8320
 1.1240	41.8080
 1.1250	41.7820
 1.1260	41.7600
 1.1270	41.7290
 1.1280	41.6940
 1.1290	41.6550
 1.1300	41.6110
 1.1310	41.5640
 1.1320	41.5140
 1.1330	41.4580
 1.1340	41.3970
 1.1350	41.3350
 1.1360	41.2680
 1.1370	41.1960
 1.1380	41.1260
 1.1390	41.0510
 1.1400	40.9750
 1.1410	40.8980
 1.1420	40.8180
 1.1430	40.7320
 1.1440	40.6460
 1.1450	40.5530
 1.1460	40.4660
 1.1470	40.3770
 1.1480	40.2940
 1.1490	40.2120
 1.1500	40.1390
 1.1510	40.0710
 1.1520	40.0070
 1.1530	39.9470
 1.1540	39.8930
 1.1550	39.8420
 1.1560	39.7980
 1.1570	39.7590
 1.1580	39.7230
 1.1590	39.6870
 1.1600	39.6560
 1.1610	39.6280
 1.1620	39.6010
 1.1630	39.5760
 1.1640	39.5530
 1.1650	39.5330
 1.1660	39.5150
 1.1670	39.5040
 1.1680	39.4990
 1.1690	39.4910
 1.1700	39.4860
 1.1710	39.4800
 1.1720	39.4700
 1.1730	39.4640
 1.1740	39.4630
 1.1750	39.4600
 1.1760	39.4530
 1.1770	39.4450
 1.1780	39.4340
 1.1790	39.4250
 1.1800	39.4190
 1.1810	39.4100
 1.1820	39.3980
 1.1830	39.3900
 1.1840	39.3810
 1.1850	39.3720
 1.1860	39.3670
 1.1870	39.3590
 1.1880	39.3520
 1.1890	39.3480
 1.1900	39.3410
 1.1910	39.3310
 1.1920	39.3240
 1.1930	39.3170
 1.1940	39.3110
 1.1950	39.3060
 1.1960	39.3040
 1.1970	39.3020
 1.1980	39.2980
 1.1990	39.3000
 1.2000	39.3030
 1.2010	39.3050
 1.2020	39.3070
 1.2030	39.3110
 1.2040	39.3190
 1.2050	39.3270
 1.2060	39.3330
 1.2070	39.3420
 1.2080	39.3530
 1.2090	39.3640
 1.2100	39.3770
 1.2110	39.3920
 1.2120	39.4090
 1.2130	39.4240
 1.2140	39.4410
 1.2150	39.4580
 1.2160	39.4730
 1.2170	39.4860
 1.2180	39.5030
 1.2190	39.5160
 1.2200	39.5310
 1.2210	39.5480
 1.2220	39.5660
 1.2230	39.5860
 1.2240	39.6070
 1.2250	39.6270
 1.2260	39.6450
 1.2270	39.6630
 1.2280	39.6810
 1.2290	39.6960
 1.2300	39.7120
 1.2310	39.7290
 1.2320	39.7470
 1.2330	39.7640
 1.2340	39.7760
 1.2350	39.7830
 1.2360	39.7920
 1.2370	39.7970
 1.2380	39.8040
 1.2390	39.8180
 1.2400	39.8340
 1.2410	39.8460
 1.2420	39.8560
 1.2430	39.8660
 1.2440	39.8730
 1.2450	39.8810
 1.2460	39.8900
 1.2470	39.9010
 1.2480	39.9100
 1.2490	39.9190
 1.2500	39.9300
 1.2510	39.9370
 1.2520	39.9420
 1.2530	39.9450
 1.2540	39.9470
 1.2550	39.9530
 1.2560	39.9600
 1.2570	39.9660
 1.2580	39.9700
 1.2590	39.9710
 1.2600	39.9680
 1.2610	39.9650
 1.2620	39.9610
 1.2630	39.9590
 1.2640	39.9580
 1.2650	39.9530
 1.2660	39.9500
 1.2670	39.9460
 1.2680	39.9410
 1.2690	39.9360
 1.2700	39.9330
 1.2710	39.9270
 1.2720	39.9170
 1.2730	39.9120
 1.2740	39.9060
 1.2750	39.8990
 1.2760	39.8910
 1.2770	39.8810
 1.2780	39.8660
 1.2790	39.8530
 1.2800	39.8420
 1.2810	39.8300
 1.2820	39.8210
 1.2830	39.8100
 1.2840	39.7950
 1.2850	39.7790
 1.2860	39.7610
 1.2870	39.7440
 1.2880	39.7250
 1.2890	39.7100
 1.2900	39.6930
 1.2910	39.6730
 1.2920	39.6560
 1.2930	39.6330
 1.2940	39.6020
 1.2950	39.5780
 1.2960	39.5510
 1.2970	39.5180
 1.2980	39.4880
 1.2990	39.4580
 1.3000	39.4250
 1.3010	39.3890
 1.3020	39.3550
 1.3030	39.3220
 1.3040	39.2840
 1.3050	39.2450
 1.3060	39.2050
 1.3070	39.1620
 1.3080	39.1130
 1.3090	39.0600
 1.3100	39.0080
 1.3110	38.9550
 1.3120	38.9010
 1.3130	38.8480
 1.3140	38.7900
 1.3150	38.7300
 1.3160	38.6650
 1.3170	38.5970
 1.3180	38.5270
 1.3190	38.4570
 1.3200	38.3850
 1.3210	38.3100
 1.3220	38.2320
 1.3230	38.1470
 1.3240	38.0570
 1.3250	37.9720
 1.3260	37.8870
 1.3270	37.7990
 1.3280	37.7130
 1.3290	37.6210
 1.3300	37.5250
 1.3310	37.4310
 1.3320	37.3350
 1.3330	37.2410
 1.3340	37.1450
 1.3350	37.0450
 1.3360	36.9460
 1.3370	36.8450
 1.3380	36.7440
 1.3390	36.6450
 1.3400	36.5500
 1.3410	36.4530
 1.3420	36.3530
 1.3430	36.2520
 1.3440	36.1510
 1.3450	36.0500
 1.3460	35.9490
 1.3470	35.8490
 1.3480	35.7470
 1.3490	35.6460
 1.3500	35.5450
 1.3510	35.4440
 1.3520	35.3390
 1.3530	35.2380
 1.3540	35.1350
 1.3550	35.0310
 1.3560	34.9280
 1.3570	34.8250
 1.3580	34.7210
 1.3590	34.6180
 1.3600	34.5110
 1.3610	34.4030
 1.3620	34.2930
 1.3630	34.1780
 1.3640	34.0600
 1.3650	33.9390
 1.3660	33.8110
 1.3670	33.6810
 1.3680	33.5420
 1.3690	33.3950
 1.3700	33.2390
 1.3710	33.0680
 1.3720	32.8820
 1.3730	32.6830
 1.3740	32.4700
 1.3750	32.2400
 1.3760	31.9920
 1.3770	31.7250
 1.3780	31.4350
 1.3790	31.1270
 1.3800	30.8020
 1.3810	30.4580
 1.3820	30.0950
 1.3830	29.7140
 1.3840	29.3150
 1.3850	28.8950
 1.3860	28.4620
 1.3870	28.0100
 1.3880	27.5510
 1.3890	27.0800
 1.3900	26.5970
 1.3910	26.1090
 1.3920	25.6140
 1.3930	25.1090
 1.3940	24.6050
 1.3950	24.0990
 1.3960	23.5990
 1.3970	23.1080
 1.3980	22.6210
 1.3990	22.1480
 1.4000	21.6880
 1.4010	21.2360
 1.4020	20.8030
 1.4030	20.3830
 1.4040	19.9790
 1.4050	19.5940
 1.4060	19.2280
 1.4070	18.8860
 1.4080	18.5640
 1.4090	18.2590
 1.4100	17.9740
 1.4110	17.7060
 1.4120	17.4540
 1.4130	17.2230
 1.4140	17.0100
 1.4150	16.8150
 1.4160	16.6370
 1.4170	16.4730
 1.4180	16.3230
 1.4190	16.1870
 1.4200	16.0630
 1.4210	15.9510
 1.4220	15.8480
 1.4230	15.7550
 1.4240	15.6680
 1.4250	15.5900
 1.4260	15.5220
 1.4270	15.4610
 1.4280	15.4100
 1.4290	15.3620
 1.4300	15.3200
 1.4310	15.2820
 1.4320	15.2490
 1.4330	15.2230
 1.4340	15.2050
 1.4350	15.1890
 1.4360	15.1760
 1.4370	15.1690
 1.4380	15.1650
 1.4390	15.1640
 1.4400	15.1640
 1.4410	15.1700
 1.4420	15.1770
 1.4430	15.1840
 1.4440	15.1960
 1.4450	15.2100
 1.4460	15.2230
 1.4470	15.2390
 1.4480	15.2580
 1.4490	15.2780
 1.4500	15.2990
 1.4510	15.3220
 1.4520	15.3430
 1.4530	15.3670
 1.4540	15.3940
 1.4550	15.4200
 1.4560	15.4500
 1.4570	15.4850
 1.4580	15.5190
 1.4590	15.5550
 1.4600	15.5970
 1.4610	15.6410
 1.4620	15.6890
 1.4630	15.7440
 1.4640	15.8050
 1.4650	15.8680
 1.4660	15.9370
 1.4670	16.0110
 1.4680	16.0890
 1.4690	16.1730
 1.4700	16.2620
 1.4710	16.3530
 1.4720	16.4480
