Name: Umbellularia californica 1
Type: vegetation
Class: Shrub
Genus: Umbellularia
Species: californica
Sample No.: VH235
Owner: UCSB
Wavelength Range: VSWIR
Origin: 34.5074; -119.7634; WGS84
Collection Date: 10/13/2013
Description: Samples were collected as part of the HyspIRI Airborne Campaign. 48 individual plants were sampled in three times in 2013 - spring  summer  and fall. The name of the sample includes a 1  2  or 3 which references a different individual of the species. Samples were taken to JPL and processed within 48 hours of collection. The same leaves were processed in the Nicolet and then measured using the ASD.
Measurement: Bidirectional reflectance
First Column: X
Second Column: Y
X Units: Wavelength (micrometers)
Y Units: Reflectance (percentage)
First X Value: 0.35
Last X Value: 2.5
Number of X Values: 2151
Additional Information: vegetation.shrub.umbellularia.californica.vswir.vh235.ucsb.asd.ancillary.txt

 0.3500	 6.7480
 0.3510	 7.0370
 0.3520	 6.8390
 0.3530	 6.5100
 0.3540	 6.4720
 0.3550	 6.7000
 0.3560	 6.6650
 0.3570	 6.5360
 0.3580	 6.7520
 0.3590	 6.6440
 0.3600	 6.5320
 0.3610	 6.5370
 0.3620	 6.3740
 0.3630	 6.4040
 0.3640	 6.5180
 0.3650	 6.5540
 0.3660	 6.6280
 0.3670	 6.5220
 0.3680	 6.3380
 0.3690	 6.3730
 0.3700	 6.4240
 0.3710	 6.4710
 0.3720	 6.4950
 0.3730	 6.4220
 0.3740	 6.3870
 0.3750	 6.4230
 0.3760	 6.4940
 0.3770	 6.4000
 0.3780	 6.4590
 0.3790	 6.6100
 0.3800	 6.4880
 0.3810	 6.3960
 0.3820	 6.4040
 0.3830	 6.4800
 0.3840	 6.4780
 0.3850	 6.3960
 0.3860	 6.3590
 0.3870	 6.4700
 0.3880	 6.4130
 0.3890	 6.3950
 0.3900	 6.4660
 0.3910	 6.4860
 0.3920	 6.4750
 0.3930	 6.4650
 0.3940	 6.4670
 0.3950	 6.3930
 0.3960	 6.3900
 0.3970	 6.4730
 0.3980	 6.5730
 0.3990	 6.5500
 0.4000	 6.4640
 0.4010	 6.4070
 0.4020	 6.4840
 0.4030	 6.5410
 0.4040	 6.5680
 0.4050	 6.5840
 0.4060	 6.5650
 0.4070	 6.5730
 0.4080	 6.6070
 0.4090	 6.6290
 0.4100	 6.6700
 0.4110	 6.7220
 0.4120	 6.7710
 0.4130	 6.7930
 0.4140	 6.8010
 0.4150	 6.8320
 0.4160	 6.9080
 0.4170	 6.9520
 0.4180	 7.0090
 0.4190	 7.0750
 0.4200	 7.1050
 0.4210	 7.1700
 0.4220	 7.2440
 0.4230	 7.3020
 0.4240	 7.3690
 0.4250	 7.4460
 0.4260	 7.5070
 0.4270	 7.5250
 0.4280	 7.5880
 0.4290	 7.6710
 0.4300	 7.7440
 0.4310	 7.7900
 0.4320	 7.8390
 0.4330	 7.8850
 0.4340	 7.9200
 0.4350	 7.9820
 0.4360	 8.0490
 0.4370	 8.1080
 0.4380	 8.1570
 0.4390	 8.1900
 0.4400	 8.2300
 0.4410	 8.2830
 0.4420	 8.3210
 0.4430	 8.3550
 0.4440	 8.3950
 0.4450	 8.4470
 0.4460	 8.4890
 0.4470	 8.5310
 0.4480	 8.5740
 0.4490	 8.6060
 0.4500	 8.6380
 0.4510	 8.6730
 0.4520	 8.7090
 0.4530	 8.7420
 0.4540	 8.7760
 0.4550	 8.8070
 0.4560	 8.8290
 0.4570	 8.8530
 0.4580	 8.8720
 0.4590	 8.8860
 0.4600	 8.9180
 0.4610	 8.9370
 0.4620	 8.9430
 0.4630	 8.9520
 0.4640	 8.9850
 0.4650	 9.0080
 0.4660	 9.0110
 0.4670	 9.0050
 0.4680	 9.0050
 0.4690	 9.0220
 0.4700	 9.0520
 0.4710	 9.0600
 0.4720	 9.0540
 0.4730	 9.0540
 0.4740	 9.0760
 0.4750	 9.0810
 0.4760	 9.0770
 0.4770	 9.0760
 0.4780	 9.0790
 0.4790	 9.0770
 0.4800	 9.0860
 0.4810	 9.1190
 0.4820	 9.1330
 0.4830	 9.1380
 0.4840	 9.1470
 0.4850	 9.1780
 0.4860	 9.2030
 0.4870	 9.2310
 0.4880	 9.2690
 0.4890	 9.3020
 0.4900	 9.3400
 0.4910	 9.3880
 0.4920	 9.4480
 0.4930	 9.5110
 0.4940	 9.5760
 0.4950	 9.6440
 0.4960	 9.7120
 0.4970	 9.8010
 0.4980	 9.9020
 0.4990	10.0030
 0.5000	10.1180
 0.5010	10.2350
 0.5020	10.3570
 0.5030	10.4930
 0.5040	10.6400
 0.5050	10.7990
 0.5060	10.9730
 0.5070	11.1600
 0.5080	11.3600
 0.5090	11.5700
 0.5100	11.7890
 0.5110	12.0180
 0.5120	12.2620
 0.5130	12.5230
 0.5140	12.8070
 0.5150	13.0950
 0.5160	13.3880
 0.5170	13.6930
 0.5180	14.0070
 0.5190	14.3280
 0.5200	14.6570
 0.5210	14.9920
 0.5220	15.3320
 0.5230	15.6710
 0.5240	16.0010
 0.5250	16.3220
 0.5260	16.6420
 0.5270	16.9540
 0.5280	17.2480
 0.5290	17.5400
 0.5300	17.8160
 0.5310	18.0710
 0.5320	18.3140
 0.5330	18.5430
 0.5340	18.7600
 0.5350	18.9660
 0.5360	19.1550
 0.5370	19.3300
 0.5380	19.4920
 0.5390	19.6460
 0.5400	19.7930
 0.5410	19.9280
 0.5420	20.0520
 0.5430	20.1760
 0.5440	20.2940
 0.5450	20.4070
 0.5460	20.5130
 0.5470	20.6020
 0.5480	20.6840
 0.5490	20.7620
 0.5500	20.8280
 0.5510	20.8780
 0.5520	20.9140
 0.5530	20.9370
 0.5540	20.9400
 0.5550	20.9200
 0.5560	20.8770
 0.5570	20.8140
 0.5580	20.7370
 0.5590	20.6420
 0.5600	20.5260
 0.5610	20.4030
 0.5620	20.2590
 0.5630	20.0980
 0.5640	19.9310
 0.5650	19.7500
 0.5660	19.5640
 0.5670	19.3750
 0.5680	19.1790
 0.5690	18.9690
 0.5700	18.7560
 0.5710	18.5530
 0.5720	18.3550
 0.5730	18.1670
 0.5740	17.9870
 0.5750	17.8050
 0.5760	17.6350
 0.5770	17.4800
 0.5780	17.3360
 0.5790	17.1980
 0.5800	17.0630
 0.5810	16.9360
 0.5820	16.8200
 0.5830	16.6990
 0.5840	16.5850
 0.5850	16.4810
 0.5860	16.3840
 0.5870	16.2900
 0.5880	16.2040
 0.5890	16.1290
 0.5900	16.0580
 0.5910	15.9840
 0.5920	15.9130
 0.5930	15.8570
 0.5940	15.8060
 0.5950	15.7590
 0.5960	15.7140
 0.5970	15.6680
 0.5980	15.6220
 0.5990	15.5780
 0.6000	15.5300
 0.6010	15.4750
 0.6020	15.4060
 0.6030	15.3240
 0.6040	15.2450
 0.6050	15.1620
 0.6060	15.0670
 0.6070	14.9580
 0.6080	14.8540
 0.6090	14.7450
 0.6100	14.6310
 0.6110	14.5160
 0.6120	14.4070
 0.6130	14.2970
 0.6140	14.1860
 0.6150	14.0790
 0.6160	13.9780
 0.6170	13.8810
 0.6180	13.7860
 0.6190	13.7040
 0.6200	13.6310
 0.6210	13.5660
 0.6220	13.5060
 0.6230	13.4590
 0.6240	13.4210
 0.6250	13.3900
 0.6260	13.3630
 0.6270	13.3460
 0.6280	13.3320
 0.6290	13.3150
 0.6300	13.3050
 0.6310	13.2900
 0.6320	13.2650
 0.6330	13.2370
 0.6340	13.1990
 0.6350	13.1480
 0.6360	13.0830
 0.6370	13.0010
 0.6380	12.9000
 0.6390	12.7860
 0.6400	12.6610
 0.6410	12.5250
 0.6420	12.3840
 0.6430	12.2410
 0.6440	12.0910
 0.6450	11.9500
 0.6460	11.8130
 0.6470	11.6730
 0.6480	11.5440
 0.6490	11.4350
 0.6500	11.3420
 0.6510	11.2520
 0.6520	11.1740
 0.6530	11.1030
 0.6540	11.0320
 0.6550	10.9660
 0.6560	10.8800
 0.6570	10.7790
 0.6580	10.6810
 0.6590	10.5810
 0.6600	10.4670
 0.6610	10.3420
 0.6620	10.2290
 0.6630	10.1120
 0.6640	 9.9970
 0.6650	 9.8970
 0.6660	 9.8060
 0.6670	 9.7250
 0.6680	 9.6540
 0.6690	 9.5980
 0.6700	 9.5480
 0.6710	 9.5100
 0.6720	 9.4870
 0.6730	 9.4780
 0.6740	 9.4680
 0.6750	 9.4630
 0.6760	 9.4740
 0.6770	 9.4960
 0.6780	 9.5250
 0.6790	 9.5630
 0.6800	 9.6160
 0.6810	 9.6860
 0.6820	 9.7810
 0.6830	 9.9040
 0.6840	10.0550
 0.6850	10.2420
 0.6860	10.4760
 0.6870	10.7670
 0.6880	11.1210
 0.6890	11.5430
 0.6900	12.0370
 0.6910	12.6120
 0.6920	13.2710
 0.6930	14.0220
 0.6940	14.8630
 0.6950	15.7830
 0.6960	16.7860
 0.6970	17.8670
 0.6980	19.0170
 0.6990	20.2290
 0.7000	21.4920
 0.7010	22.7900
 0.7020	24.1050
 0.7030	25.4330
 0.7040	26.7640
 0.7050	28.0880
 0.7060	29.4050
 0.7070	30.6980
 0.7080	31.9630
 0.7090	33.2050
 0.7100	34.4280
 0.7110	35.6250
 0.7120	36.7880
 0.7130	37.9050
 0.7140	39.0050
 0.7150	40.0810
 0.7160	41.1230
 0.7170	42.1300
 0.7180	43.1050
 0.7190	44.0530
 0.7200	44.9710
 0.7210	45.8480
 0.7220	46.6970
 0.7230	47.5160
 0.7240	48.2900
 0.7250	49.0300
 0.7260	49.7420
 0.7270	50.4260
 0.7280	51.0700
 0.7290	51.6740
 0.7300	52.2540
 0.7310	52.8240
 0.7320	53.3340
 0.7330	53.8280
 0.7340	54.3060
 0.7350	54.7280
 0.7360	55.1300
 0.7370	55.5210
 0.7380	55.8990
 0.7390	56.2370
 0.7400	56.5470
 0.7410	56.8350
 0.7420	57.1080
 0.7430	57.3710
 0.7440	57.6110
 0.7450	57.8310
 0.7460	58.0400
 0.7470	58.2400
 0.7480	58.4180
 0.7490	58.5720
 0.7500	58.7180
 0.7510	58.8560
 0.7520	58.9750
 0.7530	59.0690
 0.7540	59.1860
 0.7550	59.2840
 0.7560	59.3550
 0.7570	59.4220
 0.7580	59.4900
 0.7590	59.5570
 0.7600	59.6150
 0.7610	59.6540
 0.7620	59.6850
 0.7630	59.7220
 0.7640	59.7710
 0.7650	59.7990
 0.7660	59.8280
 0.7670	59.8530
 0.7680	59.8530
 0.7690	59.8690
 0.7700	59.8940
 0.7710	59.9150
 0.7720	59.9200
 0.7730	59.9310
 0.7740	59.9410
 0.7750	59.9440
 0.7760	59.9580
 0.7770	59.9700
 0.7780	59.9690
 0.7790	59.9550
 0.7800	59.9740
 0.7810	59.9790
 0.7820	59.9700
 0.7830	60.0000
 0.7840	59.9970
 0.7850	59.9880
 0.7860	59.9950
 0.7870	59.9980
 0.7880	60.0000
 0.7890	60.0070
 0.7900	60.0190
 0.7910	60.0140
 0.7920	60.0170
 0.7930	60.0250
 0.7940	60.0240
 0.7950	60.0180
 0.7960	60.0190
 0.7970	60.0290
 0.7980	60.0340
 0.7990	60.0310
 0.8000	60.0300
 0.8010	60.0350
 0.8020	60.0360
 0.8030	60.0360
 0.8040	60.0390
 0.8050	60.0470
 0.8060	60.0650
 0.8070	60.0590
 0.8080	60.0420
 0.8090	60.0580
 0.8100	60.0540
 0.8110	60.0530
 0.8120	60.0700
 0.8130	60.0860
 0.8140	60.0770
 0.8150	60.0650
 0.8160	60.0720
 0.8170	60.0830
 0.8180	60.0930
 0.8190	60.1000
 0.8200	60.1010
 0.8210	60.0930
 0.8220	60.1070
 0.8230	60.1350
 0.8240	60.1320
 0.8250	60.1290
 0.8260	60.1270
 0.8270	60.1300
 0.8280	60.1460
 0.8290	60.1560
 0.8300	60.1580
 0.8310	60.1530
 0.8320	60.1490
 0.8330	60.1510
 0.8340	60.1560
 0.8350	60.1580
 0.8360	60.1540
 0.8370	60.1640
 0.8380	60.1800
 0.8390	60.1780
 0.8400	60.2050
 0.8410	60.2240
 0.8420	60.2180
 0.8430	60.2210
 0.8440	60.2260
 0.8450	60.2350
 0.8460	60.2470
 0.8470	60.2570
 0.8480	60.2600
 0.8490	60.2690
 0.8500	60.2870
 0.8510	60.2720
 0.8520	60.2620
 0.8530	60.2650
 0.8540	60.2720
 0.8550	60.2870
 0.8560	60.2980
 0.8570	60.2990
 0.8580	60.2980
 0.8590	60.3050
 0.8600	60.3100
 0.8610	60.3100
 0.8620	60.3170
 0.8630	60.3380
 0.8640	60.3440
 0.8650	60.3260
 0.8660	60.3370
 0.8670	60.3390
 0.8680	60.3300
 0.8690	60.3200
 0.8700	60.3090
 0.8710	60.3350
 0.8720	60.3640
 0.8730	60.3390
 0.8740	60.3190
 0.8750	60.3180
 0.8760	60.3290
 0.8770	60.3330
 0.8780	60.3300
 0.8790	60.3290
 0.8800	60.3320
 0.8810	60.3310
 0.8820	60.3230
 0.8830	60.3150
 0.8840	60.3130
 0.8850	60.3160
 0.8860	60.3270
 0.8870	60.3230
 0.8880	60.2940
 0.8890	60.3010
 0.8900	60.3010
 0.8910	60.3020
 0.8920	60.3180
 0.8930	60.3000
 0.8940	60.2850
 0.8950	60.2760
 0.8960	60.2560
 0.8970	60.2560
 0.8980	60.2620
 0.8990	60.2640
 0.9000	60.2580
 0.9010	60.2510
 0.9020	60.2390
 0.9030	60.2250
 0.9040	60.2200
 0.9050	60.2190
 0.9060	60.2160
 0.9070	60.2070
 0.9080	60.1960
 0.9090	60.1810
 0.9100	60.1730
 0.9110	60.1750
 0.9120	60.1560
 0.9130	60.1420
 0.9140	60.1420
 0.9150	60.1500
 0.9160	60.1490
 0.9170	60.1350
 0.9180	60.1350
 0.9190	60.1610
 0.9200	60.1160
 0.9210	60.0850
 0.9220	60.0840
 0.9230	60.0810
 0.9240	60.0850
 0.9250	60.0740
 0.9260	60.0530
 0.9270	60.0390
 0.9280	60.0120
 0.9290	59.9950
 0.9300	59.9910
 0.9310	59.9790
 0.9320	59.9610
 0.9330	59.9420
 0.9340	59.9290
 0.9350	59.9320
 0.9360	59.9200
 0.9370	59.8830
 0.9380	59.8350
 0.9390	59.8170
 0.9400	59.8100
 0.9410	59.7930
 0.9420	59.7610
 0.9430	59.7320
 0.9440	59.7090
 0.9450	59.6850
 0.9460	59.6530
 0.9470	59.6150
 0.9480	59.5670
 0.9490	59.5180
 0.9500	59.4770
 0.9510	59.4390
 0.9520	59.4020
 0.9530	59.3560
 0.9540	59.2970
 0.9550	59.2330
 0.9560	59.1720
 0.9570	59.1190
 0.9580	59.0730
 0.9590	59.0330
 0.9600	59.0130
 0.9610	58.9890
 0.9620	58.9390
 0.9630	58.9070
 0.9640	58.8720
 0.9650	58.8520
 0.9660	58.8580
 0.9670	58.8350
 0.9680	58.8230
 0.9690	58.8200
 0.9700	58.8020
 0.9710	58.7780
 0.9720	58.7830
 0.9730	58.7930
 0.9740	58.7710
 0.9750	58.7780
 0.9760	58.7600
 0.9770	58.7400
 0.9780	58.7590
 0.9790	58.7570
 0.9800	58.7680
 0.9810	58.7890
 0.9820	58.7910
 0.9830	58.7500
 0.9840	58.7560
 0.9850	58.7950
 0.9860	58.8070
 0.9870	58.8200
 0.9880	58.8610
 0.9890	58.8990
 0.9900	58.8920
 0.9910	58.9100
 0.9920	58.9670
 0.9930	59.0240
 0.9940	59.0820
 0.9950	59.1390
 0.9960	59.1960
 0.9970	59.2540
 0.9980	59.3110
 0.9990	59.3680
 1.0000	59.4260
 1.0010	59.4830
 1.0020	59.5400
 1.0030	59.5980
 1.0040	59.6550
 1.0050	59.7120
 1.0060	59.7700
 1.0070	59.8270
 1.0080	59.8840
 1.0090	59.9420
 1.0100	59.9420
 1.0110	59.9560
 1.0120	59.9690
 1.0130	59.9840
 1.0140	60.0030
 1.0150	60.0230
 1.0160	60.0370
 1.0170	60.0590
 1.0180	60.0780
 1.0190	60.0890
 1.0200	60.1100
 1.0210	60.1390
 1.0220	60.1590
 1.0230	60.1730
 1.0240	60.1840
 1.0250	60.1950
 1.0260	60.1970
 1.0270	60.2080
 1.0280	60.2260
 1.0290	60.2440
 1.0300	60.2630
 1.0310	60.2790
 1.0320	60.2970
 1.0330	60.3150
 1.0340	60.3310
 1.0350	60.3540
 1.0360	60.3740
 1.0370	60.3800
 1.0380	60.3900
 1.0390	60.3970
 1.0400	60.4000
 1.0410	60.3990
 1.0420	60.4030
 1.0430	60.4020
 1.0440	60.4060
 1.0450	60.4150
 1.0460	60.4290
 1.0470	60.4540
 1.0480	60.4660
 1.0490	60.4760
 1.0500	60.4850
 1.0510	60.4870
 1.0520	60.4830
 1.0530	60.4870
 1.0540	60.4980
 1.0550	60.5060
 1.0560	60.5180
 1.0570	60.5180
 1.0580	60.5100
 1.0590	60.5090
 1.0600	60.5010
 1.0610	60.5000
 1.0620	60.5090
 1.0630	60.5120
 1.0640	60.5120
 1.0650	60.5090
 1.0660	60.4990
 1.0670	60.4950
 1.0680	60.4910
 1.0690	60.4880
 1.0700	60.4830
 1.0710	60.4790
 1.0720	60.4760
 1.0730	60.4690
 1.0740	60.4650
 1.0750	60.4660
 1.0760	60.4620
 1.0770	60.4540
 1.0780	60.4490
 1.0790	60.4420
 1.0800	60.4400
 1.0810	60.4450
 1.0820	60.4440
 1.0830	60.4450
 1.0840	60.4430
 1.0850	60.4350
 1.0860	60.4270
 1.0870	60.4130
 1.0880	60.3920
 1.0890	60.3800
 1.0900	60.3680
 1.0910	60.3530
 1.0920	60.3440
 1.0930	60.3330
 1.0940	60.3170
 1.0950	60.3020
 1.0960	60.2850
 1.0970	60.2720
 1.0980	60.2570
 1.0990	60.2440
 1.1000	60.2380
 1.1010	60.2280
 1.1020	60.2180
 1.1030	60.1990
 1.1040	60.1760
 1.1050	60.1650
 1.1060	60.1520
 1.1070	60.1420
 1.1080	60.1280
 1.1090	60.1220
 1.1100	60.1010
 1.1110	60.0660
 1.1120	60.0430
 1.1130	60.0210
 1.1140	59.9950
 1.1150	59.9740
 1.1160	59.9480
 1.1170	59.9100
 1.1180	59.8810
 1.1190	59.8650
 1.1200	59.8350
 1.1210	59.7990
 1.1220	59.7640
 1.1230	59.7240
 1.1240	59.6840
 1.1250	59.6400
 1.1260	59.6070
 1.1270	59.5480
 1.1280	59.4710
 1.1290	59.3990
 1.1300	59.3170
 1.1310	59.2380
 1.1320	59.1680
 1.1330	59.0820
 1.1340	58.9910
 1.1350	58.8860
 1.1360	58.7680
 1.1370	58.6440
 1.1380	58.5150
 1.1390	58.3830
 1.1400	58.2450
 1.1410	58.1050
 1.1420	57.9640
 1.1430	57.8170
 1.1440	57.6760
 1.1450	57.5370
 1.1460	57.4040
 1.1470	57.2740
 1.1480	57.1470
 1.1490	57.0270
 1.1500	56.9090
 1.1510	56.7860
 1.1520	56.6800
 1.1530	56.5790
 1.1540	56.4920
 1.1550	56.4170
 1.1560	56.3520
 1.1570	56.2960
 1.1580	56.2420
 1.1590	56.1930
 1.1600	56.1480
 1.1610	56.1060
 1.1620	56.0740
 1.1630	56.0400
 1.1640	56.0050
 1.1650	55.9730
 1.1660	55.9380
 1.1670	55.9110
 1.1680	55.8920
 1.1690	55.8710
 1.1700	55.8550
 1.1710	55.8350
 1.1720	55.8190
 1.1730	55.7950
 1.1740	55.7670
 1.1750	55.7390
 1.1760	55.7070
 1.1770	55.6720
 1.1780	55.6460
 1.1790	55.6220
 1.1800	55.5940
 1.1810	55.5690
 1.1820	55.5380
 1.1830	55.5050
 1.1840	55.4760
 1.1850	55.4420
 1.1860	55.4050
 1.1870	55.3750
 1.1880	55.3490
 1.1890	55.3280
 1.1900	55.3090
 1.1910	55.2950
 1.1920	55.2800
 1.1930	55.2670
 1.1940	55.2530
 1.1950	55.2380
 1.1960	55.2330
 1.1970	55.2340
 1.1980	55.2360
 1.1990	55.2430
 1.2000	55.2530
 1.2010	55.2610
 1.2020	55.2730
 1.2030	55.2910
 1.2040	55.3050
 1.2050	55.3230
 1.2060	55.3430
 1.2070	55.3640
 1.2080	55.3900
 1.2090	55.4180
 1.2100	55.4400
 1.2110	55.4660
 1.2120	55.4910
 1.2130	55.5240
 1.2140	55.5610
 1.2150	55.5990
 1.2160	55.6430
 1.2170	55.6880
 1.2180	55.7260
 1.2190	55.7670
 1.2200	55.8170
 1.2210	55.8630
 1.2220	55.9080
 1.2230	55.9580
 1.2240	56.0050
 1.2250	56.0460
 1.2260	56.0890
 1.2270	56.1340
 1.2280	56.1750
 1.2290	56.2110
 1.2300	56.2480
 1.2310	56.2820
 1.2320	56.3140
 1.2330	56.3500
 1.2340	56.3850
 1.2350	56.4260
 1.2360	56.4570
 1.2370	56.4840
 1.2380	56.5090
 1.2390	56.5340
 1.2400	56.5530
 1.2410	56.5730
 1.2420	56.6000
 1.2430	56.6200
 1.2440	56.6410
 1.2450	56.6640
 1.2460	56.6770
 1.2470	56.6910
 1.2480	56.7050
 1.2490	56.7190
 1.2500	56.7360
 1.2510	56.7490
 1.2520	56.7570
 1.2530	56.7650
 1.2540	56.7720
 1.2550	56.7790
 1.2560	56.7890
 1.2570	56.7990
 1.2580	56.8050
 1.2590	56.8100
 1.2600	56.8120
 1.2610	56.8170
 1.2620	56.8220
 1.2630	56.8250
 1.2640	56.8310
 1.2650	56.8290
 1.2660	56.8210
 1.2670	56.8210
 1.2680	56.8190
 1.2690	56.8140
 1.2700	56.8100
 1.2710	56.8010
 1.2720	56.7880
 1.2730	56.7810
 1.2740	56.7750
 1.2750	56.7710
 1.2760	56.7660
 1.2770	56.7520
 1.2780	56.7360
 1.2790	56.7190
 1.2800	56.6930
 1.2810	56.6690
 1.2820	56.6490
 1.2830	56.6220
 1.2840	56.5950
 1.2850	56.5720
 1.2860	56.5460
 1.2870	56.5190
 1.2880	56.4930
 1.2890	56.4680
 1.2900	56.4380
 1.2910	56.4090
 1.2920	56.3780
 1.2930	56.3450
 1.2940	56.3080
 1.2950	56.2630
 1.2960	56.2160
 1.2970	56.1690
 1.2980	56.1230
 1.2990	56.0760
 1.3000	56.0320
 1.3010	55.9800
 1.3020	55.9210
 1.3030	55.8620
 1.3040	55.7930
 1.3050	55.7260
 1.3060	55.6630
 1.3070	55.5920
 1.3080	55.5230
 1.3090	55.4520
 1.3100	55.3800
 1.3110	55.3020
 1.3120	55.2240
 1.3130	55.1410
 1.3140	55.0550
 1.3150	54.9640
 1.3160	54.8730
 1.3170	54.7810
 1.3180	54.6860
 1.3190	54.5860
 1.3200	54.4760
 1.3210	54.3620
 1.3220	54.2470
 1.3230	54.1280
 1.3240	54.0140
 1.3250	53.9000
 1.3260	53.7810
 1.3270	53.6610
 1.3280	53.5360
 1.3290	53.4060
 1.3300	53.2740
 1.3310	53.1390
 1.3320	53.0030
 1.3330	52.8630
 1.3340	52.7250
 1.3350	52.5880
 1.3360	52.4450
 1.3370	52.3040
 1.3380	52.1640
 1.3390	52.0190
 1.3400	51.8690
 1.3410	51.7170
 1.3420	51.5680
 1.3430	51.4230
 1.3440	51.2810
 1.3450	51.1410
 1.3460	51.0060
 1.3470	50.8690
 1.3480	50.7320
 1.3490	50.5960
 1.3500	50.4630
 1.3510	50.3280
 1.3520	50.1880
 1.3530	50.0500
 1.3540	49.9100
 1.3550	49.7680
 1.3560	49.6290
 1.3570	49.4870
 1.3580	49.3430
 1.3590	49.1980
 1.3600	49.0490
 1.3610	48.8960
 1.3620	48.7380
 1.3630	48.5760
 1.3640	48.4040
 1.3650	48.2250
 1.3660	48.0400
 1.3670	47.8390
 1.3680	47.6310
 1.3690	47.4150
 1.3700	47.1810
 1.3710	46.9380
 1.3720	46.6810
 1.3730	46.4030
 1.3740	46.1060
 1.3750	45.7880
 1.3760	45.4460
 1.3770	45.0810
 1.3780	44.6890
 1.3790	44.2780
 1.3800	43.8410
 1.3810	43.3800
 1.3820	42.8970
 1.3830	42.3920
 1.3840	41.8650
 1.3850	41.3150
 1.3860	40.7470
 1.3870	40.1540
 1.3880	39.5560
 1.3890	38.9430
 1.3900	38.3180
 1.3910	37.6900
 1.3920	37.0510
 1.3930	36.4050
 1.3940	35.7610
 1.3950	35.1150
 1.3960	34.4760
 1.3970	33.8470
 1.3980	33.2260
 1.3990	32.6250
 1.4000	32.0420
 1.4010	31.4720
 1.4020	30.9250
 1.4030	30.3970
 1.4040	29.8890
 1.4050	29.4030
 1.4060	28.9380
 1.4070	28.5000
 1.4080	28.0840
 1.4090	27.6920
 1.4100	27.3270
 1.4110	26.9840
 1.4120	26.6630
 1.4130	26.3670
 1.4140	26.0930
 1.4150	25.8400
 1.4160	25.6080
 1.4170	25.3970
 1.4180	25.2040
 1.4190	25.0270
 1.4200	24.8650
 1.4210	24.7140
 1.4220	24.5760
 1.4230	24.4540
 1.4240	24.3460
 1.4250	24.2500
 1.4260	24.1730
 1.4270	24.0980
 1.4280	24.0330
 1.4290	23.9720
 1.4300	23.9170
 1.4310	23.8710
 1.4320	23.8340
 1.4330	23.8020
 1.4340	23.7790
 1.4350	23.7610
 1.4360	23.7480
 1.4370	23.7410
 1.4380	23.7380
 1.4390	23.7410
 1.4400	23.7460
 1.4410	23.7560
 1.4420	23.7690
 1.4430	23.7820
 1.4440	23.8000
 1.4450	23.8200
 1.4460	23.8430
 1.4470	23.8710
 1.4480	23.9000
 1.4490	23.9300
 1.4500	23.9610
 1.4510	23.9920
 1.4520	24.0270
 1.4530	24.0640
 1.4540	24.1010
 1.4550	24.1410
 1.4560	24.1840
 1.4570	24.2270
 1.4580	24.2740
 1.4590	24.3250
 1.4600	24.3800
 1.4610	24.4410
 1.4620	24.5080
 1.4630	24.5820
 1.4640	24.6600
 1.4650	24.7420
 1.4660	24.8300
 1.4670	24.9230
 1.4680	25.0240
 1.4690	25.1290
