Name: Podocarpus gracilior
Type: vegetation
Class: Tree
Genus: Podocarpus
Species: gracilior
Sample No.: JPL155
Owner: JPL
Wavelength Range: VSWIR
Origin: 34.12605; -118.11517; WGS84
Collection Date: 9/14/2016
Description: Samples were collected at the Huntington Garden in San Marino California as part of a JPL Subcontract studying HyTES imagery. Samples were taken to JPL and processed within 48 hours of collection. The same leaves were processed in the Nicolet and then measured using the ASD.
Measurement: Bidirectional reflectance
First Column: X
Second Column: Y
X Units: Wavelength (micrometer)
Y Units: Reflectance (percentage)
First X Value: 0.35
Last X Value: 2.5
Number of X Values: 2151
Additional Information: vegetation.tree.podocarpus.gracilior.vswir.jpl155.jpl.asd.ancillary.txt

 0.3500	 6.7910
 0.3510	 6.8890
 0.3520	 6.9960
 0.3530	 6.9530
 0.3540	 6.7510
 0.3550	 6.7580
 0.3560	 6.8360
 0.3570	 6.8830
 0.3580	 6.8340
 0.3590	 6.7230
 0.3600	 6.6890
 0.3610	 6.7580
 0.3620	 6.7850
 0.3630	 6.7710
 0.3640	 6.7570
 0.3650	 6.7770
 0.3660	 6.7740
 0.3670	 6.7560
 0.3680	 6.7140
 0.3690	 6.6460
 0.3700	 6.7090
 0.3710	 6.7620
 0.3720	 6.7250
 0.3730	 6.6840
 0.3740	 6.6560
 0.3750	 6.6500
 0.3760	 6.6640
 0.3770	 6.6910
 0.3780	 6.6750
 0.3790	 6.6350
 0.3800	 6.6470
 0.3810	 6.6640
 0.3820	 6.6650
 0.3830	 6.6560
 0.3840	 6.6860
 0.3850	 6.6500
 0.3860	 6.6020
 0.3870	 6.6330
 0.3880	 6.6860
 0.3890	 6.6990
 0.3900	 6.6730
 0.3910	 6.6690
 0.3920	 6.6950
 0.3930	 6.7290
 0.3940	 6.7390
 0.3950	 6.6880
 0.3960	 6.6960
 0.3970	 6.7220
 0.3980	 6.6730
 0.3990	 6.6740
 0.4000	 6.6810
 0.4010	 6.6830
 0.4020	 6.7270
 0.4030	 6.7270
 0.4040	 6.7190
 0.4050	 6.7410
 0.4060	 6.7350
 0.4070	 6.7350
 0.4080	 6.7490
 0.4090	 6.7670
 0.4100	 6.7780
 0.4110	 6.7850
 0.4120	 6.7880
 0.4130	 6.7830
 0.4140	 6.7960
 0.4150	 6.8180
 0.4160	 6.8290
 0.4170	 6.8460
 0.4180	 6.8610
 0.4190	 6.8740
 0.4200	 6.8860
 0.4210	 6.8790
 0.4220	 6.8840
 0.4230	 6.9160
 0.4240	 6.9260
 0.4250	 6.9320
 0.4260	 6.9410
 0.4270	 6.9530
 0.4280	 6.9580
 0.4290	 6.9590
 0.4300	 6.9610
 0.4310	 6.9630
 0.4320	 6.9610
 0.4330	 6.9550
 0.4340	 6.9490
 0.4350	 6.9580
 0.4360	 6.9710
 0.4370	 6.9840
 0.4380	 6.9980
 0.4390	 7.0220
 0.4400	 7.0510
 0.4410	 7.0790
 0.4420	 7.1000
 0.4430	 7.1150
 0.4440	 7.1250
 0.4450	 7.1350
 0.4460	 7.1440
 0.4470	 7.1530
 0.4480	 7.1630
 0.4490	 7.1700
 0.4500	 7.1780
 0.4510	 7.1920
 0.4520	 7.2080
 0.4530	 7.2160
 0.4540	 7.2170
 0.4550	 7.2180
 0.4560	 7.2260
 0.4570	 7.2390
 0.4580	 7.2490
 0.4590	 7.2540
 0.4600	 7.2590
 0.4610	 7.2690
 0.4620	 7.2780
 0.4630	 7.2790
 0.4640	 7.2760
 0.4650	 7.2820
 0.4660	 7.2950
 0.4670	 7.2950
 0.4680	 7.2960
 0.4690	 7.3050
 0.4700	 7.3210
 0.4710	 7.3220
 0.4720	 7.3240
 0.4730	 7.3250
 0.4740	 7.3210
 0.4750	 7.3290
 0.4760	 7.3420
 0.4770	 7.3500
 0.4780	 7.3500
 0.4790	 7.3500
 0.4800	 7.3510
 0.4810	 7.3530
 0.4820	 7.3580
 0.4830	 7.3610
 0.4840	 7.3600
 0.4850	 7.3540
 0.4860	 7.3510
 0.4870	 7.3540
 0.4880	 7.3620
 0.4890	 7.3740
 0.4900	 7.3840
 0.4910	 7.3940
 0.4920	 7.4090
 0.4930	 7.4310
 0.4940	 7.4510
 0.4950	 7.4640
 0.4960	 7.4770
 0.4970	 7.4900
 0.4980	 7.5070
 0.4990	 7.5300
 0.5000	 7.5530
 0.5010	 7.5750
 0.5020	 7.5980
 0.5030	 7.6220
 0.5040	 7.6540
 0.5050	 7.6870
 0.5060	 7.7180
 0.5070	 7.7460
 0.5080	 7.7780
 0.5090	 7.8160
 0.5100	 7.8630
 0.5110	 7.9070
 0.5120	 7.9550
 0.5130	 8.0120
 0.5140	 8.0750
 0.5150	 8.1380
 0.5160	 8.2080
 0.5170	 8.2860
 0.5180	 8.3690
 0.5190	 8.4560
 0.5200	 8.5470
 0.5210	 8.6410
 0.5220	 8.7370
 0.5230	 8.8350
 0.5240	 8.9360
 0.5250	 9.0400
 0.5260	 9.1370
 0.5270	 9.2310
 0.5280	 9.3290
 0.5290	 9.4110
 0.5300	 9.4860
 0.5310	 9.5620
 0.5320	 9.6340
 0.5330	 9.6980
 0.5340	 9.7560
 0.5350	 9.8100
 0.5360	 9.8560
 0.5370	 9.8910
 0.5380	 9.9190
 0.5390	 9.9440
 0.5400	 9.9560
 0.5410	 9.9560
 0.5420	 9.9520
 0.5430	 9.9540
 0.5440	 9.9680
 0.5450	 9.9990
 0.5460	10.0460
 0.5470	10.0960
 0.5480	10.1430
 0.5490	10.1790
 0.5500	10.2030
 0.5510	10.2220
 0.5520	10.2360
 0.5530	10.2480
 0.5540	10.2530
 0.5550	10.2500
 0.5560	10.2380
 0.5570	10.2170
 0.5580	10.1900
 0.5590	10.1550
 0.5600	10.1140
 0.5610	10.0720
 0.5620	10.0260
 0.5630	 9.9760
 0.5640	 9.9210
 0.5650	 9.8680
 0.5660	 9.8130
 0.5670	 9.7560
 0.5680	 9.7000
 0.5690	 9.6440
 0.5700	 9.5890
 0.5710	 9.5320
 0.5720	 9.4790
 0.5730	 9.4290
 0.5740	 9.3820
 0.5750	 9.3370
 0.5760	 9.2960
 0.5770	 9.2560
 0.5780	 9.2180
 0.5790	 9.1850
 0.5800	 9.1570
 0.5810	 9.1320
 0.5820	 9.1120
 0.5830	 9.0890
 0.5840	 9.0700
 0.5850	 9.0570
 0.5860	 9.0490
 0.5870	 9.0410
 0.5880	 9.0330
 0.5890	 9.0280
 0.5900	 9.0220
 0.5910	 9.0130
 0.5920	 9.0050
 0.5930	 9.0040
 0.5940	 9.0050
 0.5950	 9.0100
 0.5960	 9.0180
 0.5970	 9.0270
 0.5980	 9.0330
 0.5990	 9.0340
 0.6000	 9.0340
 0.6010	 9.0330
 0.6020	 9.0320
 0.6030	 9.0290
 0.6040	 9.0190
 0.6050	 9.0030
 0.6060	 8.9850
 0.6070	 8.9680
 0.6080	 8.9460
 0.6090	 8.9130
 0.6100	 8.8630
 0.6110	 8.8020
 0.6120	 8.7830
 0.6130	 8.7870
 0.6140	 8.7950
 0.6150	 8.7870
 0.6160	 8.7790
 0.6170	 8.7720
 0.6180	 8.7610
 0.6190	 8.7490
 0.6200	 8.7400
 0.6210	 8.7360
 0.6220	 8.7340
 0.6230	 8.7300
 0.6240	 8.7300
 0.6250	 8.7350
 0.6260	 8.7390
 0.6270	 8.7430
 0.6280	 8.7480
 0.6290	 8.7530
 0.6300	 8.7560
 0.6310	 8.7600
 0.6320	 8.7670
 0.6330	 8.7800
 0.6340	 8.7880
 0.6350	 8.7920
 0.6360	 8.7920
 0.6370	 8.7910
 0.6380	 8.7880
 0.6390	 8.7820
 0.6400	 8.7760
 0.6410	 8.7710
 0.6420	 8.7640
 0.6430	 8.7560
 0.6440	 8.7480
 0.6450	 8.7420
 0.6460	 8.7380
 0.6470	 8.7330
 0.6480	 8.7300
 0.6490	 8.7270
 0.6500	 8.7270
 0.6510	 8.7300
 0.6520	 8.7350
 0.6530	 8.7420
 0.6540	 8.7470
 0.6550	 8.7500
 0.6560	 8.7540
 0.6570	 8.7570
 0.6580	 8.7570
 0.6590	 8.7580
 0.6600	 8.7610
 0.6610	 8.7630
 0.6620	 8.7630
 0.6630	 8.7640
 0.6640	 8.7700
 0.6650	 8.7810
 0.6660	 8.7910
 0.6670	 8.8030
 0.6680	 8.8180
 0.6690	 8.8400
 0.6700	 8.8650
 0.6710	 8.8910
 0.6720	 8.9180
 0.6730	 8.9500
 0.6740	 8.9860
 0.6750	 9.0270
 0.6760	 9.0710
 0.6770	 9.1150
 0.6780	 9.1620
 0.6790	 9.2130
 0.6800	 9.2700
 0.6810	 9.3300
 0.6820	 9.3910
 0.6830	 9.4520
 0.6840	 9.5170
 0.6850	 9.5830
 0.6860	 9.6480
 0.6870	 9.7130
 0.6880	 9.7820
 0.6890	 9.8570
 0.6900	 9.9410
 0.6910	10.0400
 0.6920	10.1560
 0.6930	10.2950
 0.6940	10.4650
 0.6950	10.6700
 0.6960	10.9160
 0.6970	11.2050
 0.6980	11.5330
 0.6990	11.9040
 0.7000	12.3150
 0.7010	12.7660
 0.7020	13.2510
 0.7030	13.7620
 0.7040	14.2980
 0.7050	14.8560
 0.7060	15.4310
 0.7070	16.0220
 0.7080	16.6270
 0.7090	17.2470
 0.7100	17.8800
 0.7110	18.5250
 0.7120	19.1790
 0.7130	19.8450
 0.7140	20.5190
 0.7150	21.2000
 0.7160	21.8880
 0.7170	22.5810
 0.7180	23.2770
 0.7190	23.9720
 0.7200	24.6650
 0.7210	25.3570
 0.7220	26.0440
 0.7230	26.7220
 0.7240	27.3920
 0.7250	28.0490
 0.7260	28.6910
 0.7270	29.3170
 0.7280	29.9240
 0.7290	30.5120
 0.7300	31.0810
 0.7310	31.6300
 0.7320	32.1560
 0.7330	32.6600
 0.7340	33.1420
 0.7350	33.6000
 0.7360	34.0360
 0.7370	34.4490
 0.7380	34.8400
 0.7390	35.2080
 0.7400	35.5540
 0.7410	35.8780
 0.7420	36.1830
 0.7430	36.4670
 0.7440	36.7290
 0.7450	36.9720
 0.7460	37.2000
 0.7470	37.4070
 0.7480	37.5970
 0.7490	37.7730
 0.7500	37.9320
 0.7510	38.0780
 0.7520	38.2140
 0.7530	38.3400
 0.7540	38.4530
 0.7550	38.5590
 0.7560	38.6580
 0.7570	38.7460
 0.7580	38.8260
 0.7590	38.9010
 0.7600	38.9720
 0.7610	39.0390
 0.7620	39.0980
 0.7630	39.1520
 0.7640	39.2030
 0.7650	39.2530
 0.7660	39.2980
 0.7670	39.3380
 0.7680	39.3730
 0.7690	39.4080
 0.7700	39.4420
 0.7710	39.4720
 0.7720	39.5010
 0.7730	39.5300
 0.7740	39.5570
 0.7750	39.5830
 0.7760	39.6090
 0.7770	39.6340
 0.7780	39.6570
 0.7790	39.6790
 0.7800	39.7010
 0.7810	39.7250
 0.7820	39.7490
 0.7830	39.7690
 0.7840	39.7900
 0.7850	39.8090
 0.7860	39.8250
 0.7870	39.8410
 0.7880	39.8580
 0.7890	39.8750
 0.7900	39.8900
 0.7910	39.9030
 0.7920	39.9150
 0.7930	39.9270
 0.7940	39.9400
 0.7950	39.9520
 0.7960	39.9610
 0.7970	39.9680
 0.7980	39.9740
 0.7990	39.9810
 0.8000	39.9880
 0.8010	39.9940
 0.8020	40.0000
 0.8030	40.0050
 0.8040	40.0080
 0.8050	40.0090
 0.8060	40.0100
 0.8070	40.0120
 0.8080	40.0120
 0.8090	40.0110
 0.8100	40.0120
 0.8110	40.0110
 0.8120	40.0060
 0.8130	40.0050
 0.8140	40.0020
 0.8150	39.9980
 0.8160	39.9970
 0.8170	39.9930
 0.8180	39.9870
 0.8190	39.9820
 0.8200	39.9790
 0.8210	39.9750
 0.8220	39.9690
 0.8230	39.9600
 0.8240	39.9520
 0.8250	39.9490
 0.8260	39.9470
 0.8270	39.9430
 0.8280	39.9340
 0.8290	39.9250
 0.8300	39.9190
 0.8310	39.9160
 0.8320	39.9130
 0.8330	39.9070
 0.8340	39.9010
 0.8350	39.8970
 0.8360	39.8930
 0.8370	39.8900
 0.8380	39.8890
 0.8390	39.8870
 0.8400	39.8830
 0.8410	39.8810
 0.8420	39.8820
 0.8430	39.8830
 0.8440	39.8830
 0.8450	39.8830
 0.8460	39.8840
 0.8470	39.8850
 0.8480	39.8890
 0.8490	39.8930
 0.8500	39.8930
 0.8510	39.8970
 0.8520	39.9030
 0.8530	39.9100
 0.8540	39.9170
 0.8550	39.9190
 0.8560	39.9200
 0.8570	39.9250
 0.8580	39.9380
 0.8590	39.9490
 0.8600	39.9590
 0.8610	39.9670
 0.8620	39.9750
 0.8630	39.9820
 0.8640	39.9950
 0.8650	40.0140
 0.8660	40.0260
 0.8670	40.0360
 0.8680	40.0470
 0.8690	40.0610
 0.8700	40.0730
 0.8710	40.0870
 0.8720	40.1040
 0.8730	40.1230
 0.8740	40.1340
 0.8750	40.1510
 0.8760	40.1710
 0.8770	40.1850
 0.8780	40.2010
 0.8790	40.2170
 0.8800	40.2310
 0.8810	40.2460
 0.8820	40.2650
 0.8830	40.2840
 0.8840	40.3020
 0.8850	40.3150
 0.8860	40.3290
 0.8870	40.3460
 0.8880	40.3620
 0.8890	40.3820
 0.8900	40.3940
 0.8910	40.4060
 0.8920	40.4300
 0.8930	40.4500
 0.8940	40.4680
 0.8950	40.4810
 0.8960	40.4860
 0.8970	40.5030
 0.8980	40.5220
 0.8990	40.5380
 0.9000	40.5500
 0.9010	40.5670
 0.9020	40.5840
 0.9030	40.6000
 0.9040	40.6120
 0.9050	40.6220
 0.9060	40.6320
 0.9070	40.6440
 0.9080	40.6550
 0.9090	40.6610
 0.9100	40.6670
 0.9110	40.6780
 0.9120	40.6960
 0.9130	40.7060
 0.9140	40.7130
 0.9150	40.7230
 0.9160	40.7300
 0.9170	40.7360
 0.9180	40.7410
 0.9190	40.7430
 0.9200	40.7460
 0.9210	40.7540
 0.9220	40.7600
 0.9230	40.7610
 0.9240	40.7660
 0.9250	40.7700
 0.9260	40.7680
 0.9270	40.7600
 0.9280	40.7590
 0.9290	40.7570
 0.9300	40.7510
 0.9310	40.7460
 0.9320	40.7420
 0.9330	40.7350
 0.9340	40.7290
 0.9350	40.7240
 0.9360	40.7140
 0.9370	40.7040
 0.9380	40.6960
 0.9390	40.6920
 0.9400	40.6830
 0.9410	40.6730
 0.9420	40.6640
 0.9430	40.6460
 0.9440	40.6270
 0.9450	40.6180
 0.9460	40.6120
 0.9470	40.5750
 0.9480	40.5530
 0.9490	40.5360
 0.9500	40.5100
 0.9510	40.4830
 0.9520	40.4540
 0.9530	40.4300
 0.9540	40.4130
 0.9550	40.3890
 0.9560	40.3570
 0.9570	40.3290
 0.9580	40.3120
 0.9590	40.2820
 0.9600	40.2550
 0.9610	40.2360
 0.9620	40.2200
 0.9630	40.1940
 0.9640	40.1770
 0.9650	40.1640
 0.9660	40.1460
 0.9670	40.1320
 0.9680	40.1170
 0.9690	40.1070
 0.9700	40.1090
 0.9710	40.0950
 0.9720	40.0760
 0.9730	40.0620
 0.9740	40.0590
 0.9750	40.0500
 0.9760	40.0380
 0.9770	40.0320
 0.9780	40.0360
 0.9790	40.0250
 0.9800	40.0190
 0.9810	40.0180
 0.9820	40.0140
 0.9830	40.0100
 0.9840	40.0030
 0.9850	39.9980
 0.9860	40.0000
 0.9870	39.9960
 0.9880	40.0020
 0.9890	40.0160
 0.9900	40.0270
 0.9910	40.0120
 0.9920	40.0030
 0.9930	40.0080
 0.9940	40.0200
 0.9950	40.0160
 0.9960	40.0130
 0.9970	40.0180
 0.9980	40.0230
 0.9990	40.0180
 1.0000	40.0170
 1.0010	40.8590
 1.0020	40.8610
 1.0030	40.8690
 1.0040	40.8680
 1.0050	40.8700
 1.0060	40.8740
 1.0070	40.8750
 1.0080	40.8810
 1.0090	40.8910
 1.0100	40.8960
 1.0110	40.8990
 1.0120	40.9030
 1.0130	40.9050
 1.0140	40.9100
 1.0150	40.9180
 1.0160	40.9260
 1.0170	40.9340
 1.0180	40.9370
 1.0190	40.9420
 1.0200	40.9480
 1.0210	40.9500
 1.0220	40.9550
 1.0230	40.9620
 1.0240	40.9680
 1.0250	40.9750
 1.0260	40.9890
 1.0270	40.9970
 1.0280	41.0010
 1.0290	41.0070
 1.0300	41.0120
 1.0310	41.0190
 1.0320	41.0270
 1.0330	41.0340
 1.0340	41.0410
 1.0350	41.0470
 1.0360	41.0520
 1.0370	41.0590
 1.0380	41.0680
 1.0390	41.0810
 1.0400	41.0880
 1.0410	41.0930
 1.0420	41.1010
 1.0430	41.1060
 1.0440	41.1130
 1.0450	41.1230
 1.0460	41.1310
 1.0470	41.1350
 1.0480	41.1400
 1.0490	41.1450
 1.0500	41.1500
 1.0510	41.1540
 1.0520	41.1560
 1.0530	41.1590
 1.0540	41.1630
 1.0550	41.1680
 1.0560	41.1750
 1.0570	41.1800
 1.0580	41.1850
 1.0590	41.1900
 1.0600	41.1950
 1.0610	41.1980
 1.0620	41.2010
 1.0630	41.2040
 1.0640	41.2050
 1.0650	41.2070
 1.0660	41.2100
 1.0670	41.2120
 1.0680	41.2130
 1.0690	41.2110
 1.0700	41.2120
 1.0710	41.2120
 1.0720	41.2150
 1.0730	41.2210
 1.0740	41.2220
 1.0750	41.2220
 1.0760	41.2220
 1.0770	41.2170
 1.0780	41.2160
 1.0790	41.2180
 1.0800	41.2180
 1.0810	41.2170
 1.0820	41.2170
 1.0830	41.2180
 1.0840	41.2170
 1.0850	41.2160
 1.0860	41.2140
 1.0870	41.2130
 1.0880	41.2100
 1.0890	41.2100
 1.0900	41.2140
 1.0910	41.2140
 1.0920	41.2130
 1.0930	41.2100
 1.0940	41.2050
 1.0950	41.2020
 1.0960	41.2010
 1.0970	41.1980
 1.0980	41.1950
 1.0990	41.1920
 1.1000	41.1890
 1.1010	41.1870
 1.1020	41.1860
 1.1030	41.1840
 1.1040	41.1820
 1.1050	41.1800
 1.1060	41.1770
 1.1070	41.1720
 1.1080	41.1690
 1.1090	41.1650
 1.1100	41.1620
 1.1110	41.1610
 1.1120	41.1570
 1.1130	41.1510
 1.1140	41.1460
 1.1150	41.1390
 1.1160	41.1320
 1.1170	41.1280
 1.1180	41.1210
 1.1190	41.1110
 1.1200	41.1000
 1.1210	41.0870
 1.1220	41.0740
 1.1230	41.0580
 1.1240	41.0420
 1.1250	41.0250
 1.1260	41.0090
 1.1270	40.9880
 1.1280	40.9660
 1.1290	40.9390
 1.1300	40.9080
 1.1310	40.8740
 1.1320	40.8390
 1.1330	40.7990
 1.1340	40.7550
 1.1350	40.7090
 1.1360	40.6600
 1.1370	40.6080
 1.1380	40.5530
 1.1390	40.4970
 1.1400	40.4380
 1.1410	40.3780
 1.1420	40.3160
 1.1430	40.2520
 1.1440	40.1880
 1.1450	40.1230
 1.1460	40.0590
 1.1470	39.9940
 1.1480	39.9310
 1.1490	39.8680
 1.1500	39.8090
 1.1510	39.7490
 1.1520	39.6950
 1.1530	39.6430
 1.1540	39.5950
 1.1550	39.5510
 1.1560	39.5090
 1.1570	39.4670
 1.1580	39.4280
 1.1590	39.3930
 1.1600	39.3600
 1.1610	39.3300
 1.1620	39.3040
 1.1630	39.2790
 1.1640	39.2540
 1.1650	39.2310
 1.1660	39.2090
 1.1670	39.1890
 1.1680	39.1700
 1.1690	39.1520
 1.1700	39.1380
 1.1710	39.1210
 1.1720	39.1040
 1.1730	39.0880
 1.1740	39.0700
 1.1750	39.0540
 1.1760	39.0400
 1.1770	39.0240
 1.1780	39.0070
 1.1790	38.9890
 1.1800	38.9710
 1.1810	38.9540
 1.1820	38.9390
 1.1830	38.9260
 1.1840	38.9100
 1.1850	38.8940
 1.1860	38.8780
 1.1870	38.8630
 1.1880	38.8500
 1.1890	38.8390
 1.1900	38.8280
 1.1910	38.8170
 1.1920	38.8060
 1.1930	38.7960
 1.1940	38.7870
 1.1950	38.7790
 1.1960	38.7720
 1.1970	38.7680
 1.1980	38.7640
 1.1990	38.7610
 1.2000	38.7570
 1.2010	38.7540
 1.2020	38.7500
 1.2030	38.7480
 1.2040	38.7480
 1.2050	38.7490
 1.2060	38.7510
 1.2070	38.7550
 1.2080	38.7610
 1.2090	38.7660
 1.2100	38.7710
 1.2110	38.7770
 1.2120	38.7830
 1.2130	38.7920
 1.2140	38.8040
 1.2150	38.8150
 1.2160	38.8270
 1.2170	38.8390
 1.2180	38.8510
 1.2190	38.8640
 1.2200	38.8810
 1.2210	38.8990
 1.2220	38.9150
 1.2230	38.9330
 1.2240	38.9510
 1.2250	38.9660
 1.2260	38.9810
 1.2270	38.9980
 1.2280	39.0130
 1.2290	39.0300
 1.2300	39.0460
 1.2310	39.0610
 1.2320	39.0750
 1.2330	39.0870
 1.2340	39.0990
 1.2350	39.1100
 1.2360	39.1200
 1.2370	39.1290
 1.2380	39.1370
 1.2390	39.1440
 1.2400	39.1510
 1.2410	39.1590
 1.2420	39.1670
 1.2430	39.1780
 1.2440	39.1860
 1.2450	39.1940
 1.2460	39.2020
 1.2470	39.2070
 1.2480	39.2110
 1.2490	39.2170
 1.2500	39.2190
 1.2510	39.2230
 1.2520	39.2280
 1.2530	39.2330
 1.2540	39.2370
 1.2550	39.2410
 1.2560	39.2430
 1.2570	39.2450
 1.2580	39.2460
 1.2590	39.2460
 1.2600	39.2460
 1.2610	39.2450
 1.2620	39.2440
 1.2630	39.2420
 1.2640	39.2400
 1.2650	39.2380
 1.2660	39.2360
 1.2670	39.2330
 1.2680	39.2300
 1.2690	39.2260
 1.2700	39.2220
 1.2710	39.2170
 1.2720	39.2130
 1.2730	39.2090
 1.2740	39.2040
 1.2750	39.2000
 1.2760	39.1930
 1.2770	39.1860
 1.2780	39.1780
 1.2790	39.1690
 1.2800	39.1600
 1.2810	39.1500
 1.2820	39.1420
 1.2830	39.1310
 1.2840	39.1170
 1.2850	39.1040
 1.2860	39.0910
 1.2870	39.0750
 1.2880	39.0590
 1.2890	39.0420
 1.2900	39.0240
 1.2910	39.0020
 1.2920	38.9810
 1.2930	38.9590
 1.2940	38.9350
 1.2950	38.9100
 1.2960	38.8820
 1.2970	38.8530
 1.2980	38.8240
 1.2990	38.7960
 1.3000	38.7670
 1.3010	38.7340
 1.3020	38.7000
 1.3030	38.6620
 1.3040	38.6250
 1.3050	38.5900
 1.3060	38.5530
 1.3070	38.5140
 1.3080	38.4750
 1.3090	38.4330
 1.3100	38.3900
 1.3110	38.3490
 1.3120	38.3050
 1.3130	38.2610
 1.3140	38.2160
 1.3150	38.1690
 1.3160	38.1210
 1.3170	38.0730
 1.3180	38.0230
 1.3190	37.9710
 1.3200	37.9180
 1.3210	37.8640
 1.3220	37.8080
 1.3230	37.7520
 1.3240	37.6960
 1.3250	37.6380
 1.3260	37.5780
 1.3270	37.5160
 1.3280	37.4540
 1.3290	37.3890
 1.3300	37.3250
 1.3310	37.2590
 1.3320	37.1910
 1.3330	37.1240
 1.3340	37.0560
 1.3350	36.9890
 1.3360	36.9200
 1.3370	36.8500
 1.3380	36.7800
 1.3390	36.7110
 1.3400	36.6420
 1.3410	36.5720
 1.3420	36.5020
 1.3430	36.4320
 1.3440	36.3610
 1.3450	36.2920
 1.3460	36.2240
 1.3470	36.1560
 1.3480	36.0870
 1.3490	36.0210
 1.3500	35.9540
 1.3510	35.8880
 1.3520	35.8230
 1.3530	35.7590
 1.3540	35.6940
 1.3550	35.6280
 1.3560	35.5620
 1.3570	35.4940
 1.3580	35.4250
 1.3590	35.3550
 1.3600	35.2840
 1.3610	35.2110
 1.3620	35.1360
 1.3630	35.0580
 1.3640	34.9780
 1.3650	34.8940
 1.3660	34.8070
 1.3670	34.7150
 1.3680	34.6170
 1.3690	34.5120
 1.3700	34.4010
 1.3710	34.2820
 1.3720	34.1530
 1.3730	34.0140
 1.3740	33.8670
 1.3750	33.7070
 1.3760	33.5350
 1.3770	33.3490
 1.3780	33.1450
 1.3790	32.9270
 1.3800	32.6930
 1.3810	32.4400
 1.3820	32.1740
 1.3830	31.8930
 1.3840	31.5970
 1.3850	31.2860
 1.3860	30.9610
 1.3870	30.6190
 1.3880	30.2680
 1.3890	29.9030
 1.3900	29.5280
 1.3910	29.1500
 1.3920	28.7610
 1.3930	28.3650
 1.3940	27.9660
 1.3950	27.5590
 1.3960	27.1540
 1.3970	26.7520
 1.3980	26.3510
 1.3990	25.9580
 1.4000	25.5710
 1.4010	25.1890
 1.4020	24.8190
 1.4030	24.4570
 1.4040	24.1060
 1.4050	23.7670
 1.4060	23.4390
 1.4070	23.1280
 1.4080	22.8300
 1.4090	22.5450
 1.4100	22.2770
 1.4110	22.0190
 1.4120	21.7750
 1.4130	21.5450
 1.4140	21.3290
 1.4150	21.1290
 1.4160	20.9410
 1.4170	20.7630
 1.4180	20.5980
 1.4190	20.4420
 1.4200	20.2960
 1.4210	20.1610
 1.4220	20.0340
 1.4230	19.9170
 1.4240	19.8090
 1.4250	19.7080
 1.4260	19.6160
 1.4270	19.5300
 1.4280	19.4530
 1.4290	19.3800
 1.4300	19.3140
 1.4310	19.2530
 1.4320	19.1990
 1.4330	19.1500
 1.4340	19.1060
 1.4350	19.0670
 1.4360	19.0310
 1.4370	19.0000
 1.4380	18.9730
 1.4390	18.9500
 1.4400	18.9320
 1.4410	18.9160
 1.4420	18.9040
 1.4430	18.8940
 1.4440	18.8870
 1.4450	18.8820
 1.4460	18.8790
 1.4470	18.8790
 1.4480	18.8800
 1.4490	18.8830
 1.4500	18.8880
 1.4510	18.8950
 1.4520	18.9020
 1.4530	18.9120
 1.4540	18.9230
 1.4550	18.9370
 1.4560	18.9520
 1.4570	18.9700
 1.4580	18.9910
 1.4590	19.0150
 1.4600	19.0420
 1.4610	19.0740
 1.4620	19.1060
 1.4630	19.1430
 1.4640	19.1840
 1.4650	19.2280
 1.4660	19.2770
 1.4670	19.3300
 1.4680	19.3860
 1.4690	19.4470
 1.4700	19.5120
 1.4710	19.5800
 1.4720	19.6510
 1.4730	19.7240
 1.4740	19.8010
 1.4750	19.8810
 1.4760	19.9630
 1.4770	20.0480
