Name: Bambusa tuldoides
Type: vegetation
Class: Tree
Genus: Bambusa
Species: tuldoides
Sample No.: JPL147
Owner: JPL
Wavelength Range: VSWIR
Origin: 34.12526; -118.1174; WGS84
Collection Date: 9/14/2016
Description: Samples were collected at the Huntington Garden in San Marino California as part of a JPL Subcontract studying HyTES imagery. Samples were taken to JPL and processed within 48 hours of collection. The same leaves were processed in the Nicolet and then measured using the ASD.
Measurement: Bidirectional reflectance
First Column: X
Second Column: Y
X Units: Wavelength (micrometer)
Y Units: Reflectance (percentage)
First X Value: 0.35
Last X Value: 2.5
Number of X Values: 2151
Additional Information: vegetation.tree.bambusa.tuldoides.vswir.jpl147.jpl.asd.ancillary.txt

 0.3500	 5.2590
 0.3510	 5.3540
 0.3520	 5.3120
 0.3530	 5.2260
 0.3540	 5.2140
 0.3550	 5.2430
 0.3560	 5.2070
 0.3570	 5.1190
 0.3580	 5.0530
 0.3590	 5.0250
 0.3600	 5.0390
 0.3610	 5.0810
 0.3620	 5.1250
 0.3630	 5.1300
 0.3640	 5.0840
 0.3650	 5.0160
 0.3660	 5.0550
 0.3670	 5.0880
 0.3680	 5.0800
 0.3690	 5.0480
 0.3700	 4.9700
 0.3710	 4.9620
 0.3720	 5.0480
 0.3730	 5.0590
 0.3740	 5.0150
 0.3750	 4.9630
 0.3760	 4.9530
 0.3770	 4.9850
 0.3780	 4.9830
 0.3790	 4.9320
 0.3800	 4.8760
 0.3810	 4.9190
 0.3820	 4.9780
 0.3830	 4.9750
 0.3840	 4.8900
 0.3850	 4.8500
 0.3860	 4.8780
 0.3870	 4.9390
 0.3880	 4.9610
 0.3890	 4.9260
 0.3900	 4.8820
 0.3910	 4.9400
 0.3920	 4.9440
 0.3930	 4.9140
 0.3940	 4.8960
 0.3950	 4.9110
 0.3960	 4.9520
 0.3970	 4.9720
 0.3980	 4.9220
 0.3990	 4.9050
 0.4000	 4.9150
 0.4010	 4.9350
 0.4020	 4.9420
 0.4030	 4.9560
 0.4040	 4.9490
 0.4050	 4.9090
 0.4060	 4.9110
 0.4070	 4.9480
 0.4080	 4.9780
 0.4090	 4.9480
 0.4100	 4.9430
 0.4110	 4.9620
 0.4120	 4.9830
 0.4130	 4.9790
 0.4140	 4.9900
 0.4150	 4.9970
 0.4160	 4.9770
 0.4170	 4.9890
 0.4180	 5.0050
 0.4190	 5.0140
 0.4200	 5.0240
 0.4210	 5.0270
 0.4220	 5.0300
 0.4230	 5.0430
 0.4240	 5.0670
 0.4250	 5.0690
 0.4260	 5.0570
 0.4270	 5.0590
 0.4280	 5.0610
 0.4290	 5.0640
 0.4300	 5.0660
 0.4310	 5.0590
 0.4320	 5.0650
 0.4330	 5.0710
 0.4340	 5.0670
 0.4350	 5.0650
 0.4360	 5.0720
 0.4370	 5.0820
 0.4380	 5.0820
 0.4390	 5.0910
 0.4400	 5.1020
 0.4410	 5.1080
 0.4420	 5.1160
 0.4430	 5.1220
 0.4440	 5.1270
 0.4450	 5.1340
 0.4460	 5.1400
 0.4470	 5.1460
 0.4480	 5.1530
 0.4490	 5.1600
 0.4500	 5.1670
 0.4510	 5.1700
 0.4520	 5.1710
 0.4530	 5.1840
 0.4540	 5.1890
 0.4550	 5.1880
 0.4560	 5.1930
 0.4570	 5.2010
 0.4580	 5.2070
 0.4590	 5.2080
 0.4600	 5.2080
 0.4610	 5.2020
 0.4620	 5.2040
 0.4630	 5.2240
 0.4640	 5.2260
 0.4650	 5.2230
 0.4660	 5.2240
 0.4670	 5.2300
 0.4680	 5.2260
 0.4690	 5.2250
 0.4700	 5.2330
 0.4710	 5.2380
 0.4720	 5.2380
 0.4730	 5.2370
 0.4740	 5.2400
 0.4750	 5.2410
 0.4760	 5.2400
 0.4770	 5.2390
 0.4780	 5.2430
 0.4790	 5.2490
 0.4800	 5.2520
 0.4810	 5.2520
 0.4820	 5.2460
 0.4830	 5.2440
 0.4840	 5.2480
 0.4850	 5.2560
 0.4860	 5.2640
 0.4870	 5.2680
 0.4880	 5.2700
 0.4890	 5.2890
 0.4900	 5.3040
 0.4910	 5.3140
 0.4920	 5.3320
 0.4930	 5.3450
 0.4940	 5.3650
 0.4950	 5.3950
 0.4960	 5.4270
 0.4970	 5.4540
 0.4980	 5.4840
 0.4990	 5.5230
 0.5000	 5.5620
 0.5010	 5.6070
 0.5020	 5.6590
 0.5030	 5.7140
 0.5040	 5.7790
 0.5050	 5.8480
 0.5060	 5.9220
 0.5070	 6.0050
 0.5080	 6.1030
 0.5090	 6.2110
 0.5100	 6.3230
 0.5110	 6.4430
 0.5120	 6.5770
 0.5130	 6.7250
 0.5140	 6.8800
 0.5150	 7.0410
 0.5160	 7.2170
 0.5170	 7.4110
 0.5180	 7.6140
 0.5190	 7.8200
 0.5200	 8.0310
 0.5210	 8.2510
 0.5220	 8.4740
 0.5230	 8.6970
 0.5240	 8.9180
 0.5250	 9.1340
 0.5260	 9.3420
 0.5270	 9.5430
 0.5280	 9.7350
 0.5290	 9.9140
 0.5300	10.0810
 0.5310	10.2360
 0.5320	10.3810
 0.5330	10.5140
 0.5340	10.6340
 0.5350	10.7440
 0.5360	10.8400
 0.5370	10.9230
 0.5380	10.9960
 0.5390	11.0680
 0.5400	11.1350
 0.5410	11.1990
 0.5420	11.2610
 0.5430	11.3170
 0.5440	11.3630
 0.5450	11.4010
 0.5460	11.4340
 0.5470	11.4610
 0.5480	11.4890
 0.5490	11.5180
 0.5500	11.5410
 0.5510	11.5600
 0.5520	11.5700
 0.5530	11.5700
 0.5540	11.5570
 0.5550	11.5280
 0.5560	11.4870
 0.5570	11.4390
 0.5580	11.3770
 0.5590	11.3000
 0.5600	11.2070
 0.5610	11.1060
 0.5620	10.9940
 0.5630	10.8750
 0.5640	10.7530
 0.5650	10.6240
 0.5660	10.4950
 0.5670	10.3650
 0.5680	10.2320
 0.5690	10.1010
 0.5700	 9.9720
 0.5710	 9.8430
 0.5720	 9.7170
 0.5730	 9.5910
 0.5740	 9.4670
 0.5750	 9.3500
 0.5760	 9.2460
 0.5770	 9.1500
 0.5780	 9.0540
 0.5790	 8.9650
 0.5800	 8.8820
 0.5810	 8.8080
 0.5820	 8.7420
 0.5830	 8.6820
 0.5840	 8.6290
 0.5850	 8.5800
 0.5860	 8.5250
 0.5870	 8.4690
 0.5880	 8.4150
 0.5890	 8.3640
 0.5900	 8.3180
 0.5910	 8.2730
 0.5920	 8.2300
 0.5930	 8.1950
 0.5940	 8.1630
 0.5950	 8.1370
 0.5960	 8.1180
 0.5970	 8.1010
 0.5980	 8.0840
 0.5990	 8.0640
 0.6000	 8.0400
 0.6010	 8.0160
 0.6020	 7.9880
 0.6030	 7.9550
 0.6040	 7.9120
 0.6050	 7.8650
 0.6060	 7.8150
 0.6070	 7.7600
 0.6080	 7.7010
 0.6090	 7.6370
 0.6100	 7.5700
 0.6110	 7.5030
 0.6120	 7.4400
 0.6130	 7.3810
 0.6140	 7.3250
 0.6150	 7.2710
 0.6160	 7.2190
 0.6170	 7.1670
 0.6180	 7.1140
 0.6190	 7.0690
 0.6200	 7.0300
 0.6210	 6.9930
 0.6220	 6.9590
 0.6230	 6.9310
 0.6240	 6.9090
 0.6250	 6.8920
 0.6260	 6.8760
 0.6270	 6.8640
 0.6280	 6.8530
 0.6290	 6.8420
 0.6300	 6.8320
 0.6310	 6.8220
 0.6320	 6.8090
 0.6330	 6.7900
 0.6340	 6.7660
 0.6350	 6.7360
 0.6360	 6.7000
 0.6370	 6.6550
 0.6380	 6.6030
 0.6390	 6.5450
 0.6400	 6.4860
 0.6410	 6.4280
 0.6420	 6.3690
 0.6430	 6.3090
 0.6440	 6.2490
 0.6450	 6.1880
 0.6460	 6.1280
 0.6470	 6.0740
 0.6480	 6.0270
 0.6490	 5.9860
 0.6500	 5.9490
 0.6510	 5.9170
 0.6520	 5.8940
 0.6530	 5.8760
 0.6540	 5.8580
 0.6550	 5.8390
 0.6560	 5.8180
 0.6570	 5.7930
 0.6580	 5.7630
 0.6590	 5.7310
 0.6600	 5.6950
 0.6610	 5.6600
 0.6620	 5.6270
 0.6630	 5.5970
 0.6640	 5.5700
 0.6650	 5.5460
 0.6660	 5.5220
 0.6670	 5.5060
 0.6680	 5.4960
 0.6690	 5.4890
 0.6700	 5.4850
 0.6710	 5.4860
 0.6720	 5.4930
 0.6730	 5.5050
 0.6740	 5.5180
 0.6750	 5.5350
 0.6760	 5.5570
 0.6770	 5.5790
 0.6780	 5.6060
 0.6790	 5.6390
 0.6800	 5.6740
 0.6810	 5.7190
 0.6820	 5.7690
 0.6830	 5.8240
 0.6840	 5.8930
 0.6850	 5.9680
 0.6860	 6.0580
 0.6870	 6.1710
 0.6880	 6.3050
 0.6890	 6.4670
 0.6900	 6.6670
 0.6910	 6.9090
 0.6920	 7.2000
 0.6930	 7.5450
 0.6940	 7.9460
 0.6950	 8.4060
 0.6960	 8.9240
 0.6970	 9.4970
 0.6980	10.1190
 0.6990	10.7890
 0.7000	11.4940
 0.7010	12.2270
 0.7020	12.9820
 0.7030	13.7430
 0.7040	14.5090
 0.7050	15.2760
 0.7060	16.0370
 0.7070	16.7900
 0.7080	17.5340
 0.7090	18.2730
 0.7100	19.0060
 0.7110	19.7340
 0.7120	20.4560
 0.7130	21.1720
 0.7140	21.8810
 0.7150	22.5860
 0.7160	23.2910
 0.7170	23.9890
 0.7180	24.6810
 0.7190	25.3650
 0.7200	26.0410
 0.7210	26.7140
 0.7220	27.3770
 0.7230	28.0260
 0.7240	28.6630
 0.7250	29.2860
 0.7260	29.8940
 0.7270	30.4860
 0.7280	31.0580
 0.7290	31.6120
 0.7300	32.1480
 0.7310	32.6660
 0.7320	33.1620
 0.7330	33.6390
 0.7340	34.0950
 0.7350	34.5300
 0.7360	34.9420
 0.7370	35.3330
 0.7380	35.7040
 0.7390	36.0560
 0.7400	36.3870
 0.7410	36.6980
 0.7420	36.9880
 0.7430	37.2610
 0.7440	37.5130
 0.7450	37.7450
 0.7460	37.9620
 0.7470	38.1620
 0.7480	38.3460
 0.7490	38.5130
 0.7500	38.6640
 0.7510	38.8060
 0.7520	38.9360
 0.7530	39.0520
 0.7540	39.1590
 0.7550	39.2580
 0.7560	39.3470
 0.7570	39.4260
 0.7580	39.4990
 0.7590	39.5680
 0.7600	39.6290
 0.7610	39.6800
 0.7620	39.7290
 0.7630	39.7750
 0.7640	39.8150
 0.7650	39.8480
 0.7660	39.8770
 0.7670	39.9040
 0.7680	39.9300
 0.7690	39.9530
 0.7700	39.9730
 0.7710	39.9910
 0.7720	40.0050
 0.7730	40.0170
 0.7740	40.0280
 0.7750	40.0420
 0.7760	40.0510
 0.7770	40.0590
 0.7780	40.0670
 0.7790	40.0730
 0.7800	40.0790
 0.7810	40.0870
 0.7820	40.0940
 0.7830	40.0970
 0.7840	40.1020
 0.7850	40.1040
 0.7860	40.1040
 0.7870	40.1040
 0.7880	40.1050
 0.7890	40.1030
 0.7900	40.0980
 0.7910	40.0930
 0.7920	40.0910
 0.7930	40.0910
 0.7940	40.0870
 0.7950	40.0800
 0.7960	40.0710
 0.7970	40.0620
 0.7980	40.0570
 0.7990	40.0490
 0.8000	40.0380
 0.8010	40.0280
 0.8020	40.0190
 0.8030	40.0080
 0.8040	39.9970
 0.8050	39.9860
 0.8060	39.9730
 0.8070	39.9600
 0.8080	39.9470
 0.8090	39.9330
 0.8100	39.9210
 0.8110	39.9090
 0.8120	39.8920
 0.8130	39.8720
 0.8140	39.8550
 0.8150	39.8400
 0.8160	39.8280
 0.8170	39.8130
 0.8180	39.7950
 0.8190	39.7780
 0.8200	39.7650
 0.8210	39.7490
 0.8220	39.7310
 0.8230	39.7130
 0.8240	39.7000
 0.8250	39.6870
 0.8260	39.6740
 0.8270	39.6600
 0.8280	39.6430
 0.8290	39.6250
 0.8300	39.6090
 0.8310	39.5950
 0.8320	39.5810
 0.8330	39.5660
 0.8340	39.5500
 0.8350	39.5390
 0.8360	39.5290
 0.8370	39.5180
 0.8380	39.5060
 0.8390	39.4950
 0.8400	39.4860
 0.8410	39.4760
 0.8420	39.4660
 0.8430	39.4540
 0.8440	39.4470
 0.8450	39.4410
 0.8460	39.4340
 0.8470	39.4260
 0.8480	39.4180
 0.8490	39.4150
 0.8500	39.4150
 0.8510	39.4100
 0.8520	39.4080
 0.8530	39.4070
 0.8540	39.4030
 0.8550	39.3970
 0.8560	39.3930
 0.8570	39.3950
 0.8580	39.3980
 0.8590	39.3990
 0.8600	39.4010
 0.8610	39.4040
 0.8620	39.4010
 0.8630	39.4020
 0.8640	39.4090
 0.8650	39.4200
 0.8660	39.4260
 0.8670	39.4270
 0.8680	39.4300
 0.8690	39.4360
 0.8700	39.4390
 0.8710	39.4460
 0.8720	39.4560
 0.8730	39.4630
 0.8740	39.4720
 0.8750	39.4810
 0.8760	39.4900
 0.8770	39.5000
 0.8780	39.5020
 0.8790	39.5080
 0.8800	39.5200
 0.8810	39.5260
 0.8820	39.5360
 0.8830	39.5500
 0.8840	39.5620
 0.8850	39.5730
 0.8860	39.5790
 0.8870	39.5860
 0.8880	39.5970
 0.8890	39.6070
 0.8900	39.6170
 0.8910	39.6250
 0.8920	39.6300
 0.8930	39.6440
 0.8940	39.6560
 0.8950	39.6650
 0.8960	39.6730
 0.8970	39.6820
 0.8980	39.6910
 0.8990	39.6980
 0.9000	39.7060
 0.9010	39.7220
 0.9020	39.7340
 0.9030	39.7390
 0.9040	39.7440
 0.9050	39.7510
 0.9060	39.7550
 0.9070	39.7560
 0.9080	39.7640
 0.9090	39.7740
 0.9100	39.7810
 0.9110	39.7830
 0.9120	39.7840
 0.9130	39.7890
 0.9140	39.7950
 0.9150	39.7950
 0.9160	39.7990
 0.9170	39.8010
 0.9180	39.8010
 0.9190	39.8050
 0.9200	39.8060
 0.9210	39.8050
 0.9220	39.8050
 0.9230	39.8070
 0.9240	39.8060
 0.9250	39.8020
 0.9260	39.7970
 0.9270	39.7930
 0.9280	39.7810
 0.9290	39.7680
 0.9300	39.7630
 0.9310	39.7690
 0.9320	39.7650
 0.9330	39.7530
 0.9340	39.7370
 0.9350	39.7250
 0.9360	39.7100
 0.9370	39.7020
 0.9380	39.7010
 0.9390	39.6890
 0.9400	39.6720
 0.9410	39.6530
 0.9420	39.6410
 0.9430	39.6450
 0.9440	39.6330
 0.9450	39.6080
 0.9460	39.5820
 0.9470	39.5650
 0.9480	39.5500
 0.9490	39.5320
 0.9500	39.5100
 0.9510	39.4840
 0.9520	39.4550
 0.9530	39.4300
 0.9540	39.4090
 0.9550	39.3850
 0.9560	39.3580
 0.9570	39.3360
 0.9580	39.3220
 0.9590	39.3030
 0.9600	39.2740
 0.9610	39.2490
 0.9620	39.2400
 0.9630	39.2260
 0.9640	39.2130
 0.9650	39.1980
 0.9660	39.1760
 0.9670	39.1630
 0.9680	39.1570
 0.9690	39.1490
 0.9700	39.1350
 0.9710	39.1210
 0.9720	39.1050
 0.9730	39.0910
 0.9740	39.0840
 0.9750	39.0820
 0.9760	39.0740
 0.9770	39.0640
 0.9780	39.0610
 0.9790	39.0580
 0.9800	39.0500
 0.9810	39.0370
 0.9820	39.0300
 0.9830	39.0400
 0.9840	39.0370
 0.9850	39.0200
 0.9860	39.0080
 0.9870	39.0120
 0.9880	39.0220
 0.9890	39.0220
 0.9900	39.0080
 0.9910	38.9980
 0.9920	39.0020
 0.9930	39.0070
 0.9940	38.9960
 0.9950	38.9760
 0.9960	38.9850
 0.9970	39.0080
 0.9980	39.0130
 0.9990	39.0110
 1.0000	39.0060
 1.0010	39.7950
 1.0020	39.7930
 1.0030	39.7930
 1.0040	39.7890
 1.0050	39.7850
 1.0060	39.7900
 1.0070	39.7930
 1.0080	39.7930
 1.0090	39.7900
 1.0100	39.7900
 1.0110	39.7880
 1.0120	39.7860
 1.0130	39.7890
 1.0140	39.7870
 1.0150	39.7810
 1.0160	39.7800
 1.0170	39.7830
 1.0180	39.7820
 1.0190	39.7850
 1.0200	39.7880
 1.0210	39.7860
 1.0220	39.7860
 1.0230	39.7850
 1.0240	39.7820
 1.0250	39.7830
 1.0260	39.7890
 1.0270	39.7880
 1.0280	39.7840
 1.0290	39.7840
 1.0300	39.7840
 1.0310	39.7830
 1.0320	39.7830
 1.0330	39.7880
 1.0340	39.7920
 1.0350	39.7900
 1.0360	39.7890
 1.0370	39.7890
 1.0380	39.7900
 1.0390	39.7880
 1.0400	39.7880
 1.0410	39.7900
 1.0420	39.7900
 1.0430	39.7880
 1.0440	39.7890
 1.0450	39.7940
 1.0460	39.7960
 1.0470	39.7980
 1.0480	39.7990
 1.0490	39.8000
 1.0500	39.8000
 1.0510	39.7980
 1.0520	39.7970
 1.0530	39.7960
 1.0540	39.7930
 1.0550	39.7950
 1.0560	39.8020
 1.0570	39.8020
 1.0580	39.8030
 1.0590	39.8020
 1.0600	39.7940
 1.0610	39.7910
 1.0620	39.7930
 1.0630	39.7910
 1.0640	39.7900
 1.0650	39.7880
 1.0660	39.7860
 1.0670	39.7840
 1.0680	39.7810
 1.0690	39.7790
 1.0700	39.7780
 1.0710	39.7770
 1.0720	39.7760
 1.0730	39.7790
 1.0740	39.7780
 1.0750	39.7750
 1.0760	39.7730
 1.0770	39.7690
 1.0780	39.7670
 1.0790	39.7660
 1.0800	39.7650
 1.0810	39.7630
 1.0820	39.7630
 1.0830	39.7630
 1.0840	39.7620
 1.0850	39.7610
 1.0860	39.7610
 1.0870	39.7600
 1.0880	39.7580
 1.0890	39.7550
 1.0900	39.7500
 1.0910	39.7470
 1.0920	39.7420
 1.0930	39.7380
 1.0940	39.7360
 1.0950	39.7330
 1.0960	39.7320
 1.0970	39.7290
 1.0980	39.7250
 1.0990	39.7220
 1.1000	39.7190
 1.1010	39.7150
 1.1020	39.7130
 1.1030	39.7110
 1.1040	39.7060
 1.1050	39.7000
 1.1060	39.6960
 1.1070	39.6920
 1.1080	39.6890
 1.1090	39.6880
 1.1100	39.6830
 1.1110	39.6760
 1.1120	39.6700
 1.1130	39.6640
 1.1140	39.6570
 1.1150	39.6510
 1.1160	39.6430
 1.1170	39.6350
 1.1180	39.6260
 1.1190	39.6180
 1.1200	39.6060
 1.1210	39.5950
 1.1220	39.5840
 1.1230	39.5720
 1.1240	39.5580
 1.1250	39.5420
 1.1260	39.5230
 1.1270	39.5030
 1.1280	39.4820
 1.1290	39.4580
 1.1300	39.4330
 1.1310	39.4050
 1.1320	39.3730
 1.1330	39.3410
 1.1340	39.3080
 1.1350	39.2710
 1.1360	39.2310
 1.1370	39.1900
 1.1380	39.1450
 1.1390	39.0960
 1.1400	39.0480
 1.1410	38.9990
 1.1420	38.9480
 1.1430	38.8990
 1.1440	38.8480
 1.1450	38.7950
 1.1460	38.7440
 1.1470	38.6910
 1.1480	38.6420
 1.1490	38.5940
 1.1500	38.5490
 1.1510	38.5070
 1.1520	38.4650
 1.1530	38.4230
 1.1540	38.3860
 1.1550	38.3500
 1.1560	38.3190
 1.1570	38.2890
 1.1580	38.2620
 1.1590	38.2360
 1.1600	38.2110
 1.1610	38.1880
 1.1620	38.1690
 1.1630	38.1500
 1.1640	38.1340
 1.1650	38.1200
 1.1660	38.1100
 1.1670	38.0970
 1.1680	38.0860
 1.1690	38.0740
 1.1700	38.0630
 1.1710	38.0520
 1.1720	38.0440
 1.1730	38.0340
 1.1740	38.0250
 1.1750	38.0150
 1.1760	38.0040
 1.1770	37.9930
 1.1780	37.9830
 1.1790	37.9720
 1.1800	37.9620
 1.1810	37.9510
 1.1820	37.9390
 1.1830	37.9260
 1.1840	37.9140
 1.1850	37.9030
 1.1860	37.8900
 1.1870	37.8800
 1.1880	37.8700
 1.1890	37.8580
 1.1900	37.8480
 1.1910	37.8410
 1.1920	37.8320
 1.1930	37.8240
 1.1940	37.8160
 1.1950	37.8090
 1.1960	37.8020
 1.1970	37.7960
 1.1980	37.7900
 1.1990	37.7840
 1.2000	37.7810
 1.2010	37.7780
 1.2020	37.7750
 1.2030	37.7730
 1.2040	37.7710
 1.2050	37.7700
 1.2060	37.7710
 1.2070	37.7710
 1.2080	37.7730
 1.2090	37.7740
 1.2100	37.7750
 1.2110	37.7760
 1.2120	37.7760
 1.2130	37.7780
 1.2140	37.7810
 1.2150	37.7840
 1.2160	37.7890
 1.2170	37.7940
 1.2180	37.7960
 1.2190	37.7980
 1.2200	37.8020
 1.2210	37.8070
 1.2220	37.8120
 1.2230	37.8190
 1.2240	37.8250
 1.2250	37.8310
 1.2260	37.8370
 1.2270	37.8430
 1.2280	37.8470
 1.2290	37.8510
 1.2300	37.8560
 1.2310	37.8610
 1.2320	37.8670
 1.2330	37.8730
 1.2340	37.8780
 1.2350	37.8820
 1.2360	37.8850
 1.2370	37.8870
 1.2380	37.8890
 1.2390	37.8920
 1.2400	37.8940
 1.2410	37.8960
 1.2420	37.8970
 1.2430	37.8970
 1.2440	37.8980
 1.2450	37.8990
 1.2460	37.9020
 1.2470	37.9030
 1.2480	37.9030
 1.2490	37.9040
 1.2500	37.9040
 1.2510	37.9050
 1.2520	37.9050
 1.2530	37.9030
 1.2540	37.9010
 1.2550	37.8990
 1.2560	37.8970
 1.2570	37.8940
 1.2580	37.8920
 1.2590	37.8890
 1.2600	37.8850
 1.2610	37.8820
 1.2620	37.8790
 1.2630	37.8750
 1.2640	37.8700
 1.2650	37.8650
 1.2660	37.8590
 1.2670	37.8540
 1.2680	37.8470
 1.2690	37.8400
 1.2700	37.8320
 1.2710	37.8240
 1.2720	37.8170
 1.2730	37.8100
 1.2740	37.8030
 1.2750	37.7950
 1.2760	37.7860
 1.2770	37.7760
 1.2780	37.7650
 1.2790	37.7540
 1.2800	37.7420
 1.2810	37.7310
 1.2820	37.7200
 1.2830	37.7090
 1.2840	37.6960
 1.2850	37.6830
 1.2860	37.6680
 1.2870	37.6530
 1.2880	37.6360
 1.2890	37.6190
 1.2900	37.6010
 1.2910	37.5810
 1.2920	37.5610
 1.2930	37.5400
 1.2940	37.5200
 1.2950	37.4980
 1.2960	37.4770
 1.2970	37.4560
 1.2980	37.4320
 1.2990	37.4070
 1.3000	37.3830
 1.3010	37.3580
 1.3020	37.3330
 1.3030	37.3090
 1.3040	37.2820
 1.3050	37.2530
 1.3060	37.2220
 1.3070	37.1910
 1.3080	37.1620
 1.3090	37.1320
 1.3100	37.1010
 1.3110	37.0670
 1.3120	37.0310
 1.3130	36.9950
 1.3140	36.9590
 1.3150	36.9230
 1.3160	36.8840
 1.3170	36.8450
 1.3180	36.8050
 1.3190	36.7630
 1.3200	36.7220
 1.3210	36.6800
 1.3220	36.6360
 1.3230	36.5900
 1.3240	36.5430
 1.3250	36.4940
 1.3260	36.4460
 1.3270	36.3990
 1.3280	36.3490
 1.3290	36.2990
 1.3300	36.2460
 1.3310	36.1910
 1.3320	36.1340
 1.3330	36.0780
 1.3340	36.0210
 1.3350	35.9630
 1.3360	35.9060
 1.3370	35.8500
 1.3380	35.7930
 1.3390	35.7380
 1.3400	35.6810
 1.3410	35.6240
 1.3420	35.5660
 1.3430	35.5080
 1.3440	35.4510
 1.3450	35.3930
 1.3460	35.3350
 1.3470	35.2790
 1.3480	35.2220
 1.3490	35.1660
 1.3500	35.1120
 1.3510	35.0570
 1.3520	34.9990
 1.3530	34.9420
 1.3540	34.8850
 1.3550	34.8260
 1.3560	34.7680
 1.3570	34.7090
 1.3580	34.6490
 1.3590	34.5870
 1.3600	34.5240
 1.3610	34.4600
 1.3620	34.3950
 1.3630	34.3280
 1.3640	34.2580
 1.3650	34.1840
 1.3660	34.1080
 1.3670	34.0270
 1.3680	33.9410
 1.3690	33.8510
 1.3700	33.7520
 1.3710	33.6470
 1.3720	33.5350
 1.3730	33.4130
 1.3740	33.2840
 1.3750	33.1440
 1.3760	32.9920
 1.3770	32.8260
 1.3780	32.6430
 1.3790	32.4480
 1.3800	32.2390
 1.3810	32.0140
 1.3820	31.7740
 1.3830	31.5210
 1.3840	31.2520
 1.3850	30.9700
 1.3860	30.6730
 1.3870	30.3610
 1.3880	30.0390
 1.3890	29.7040
 1.3900	29.3580
 1.3910	29.0050
 1.3920	28.6420
 1.3930	28.2710
 1.3940	27.8960
 1.3950	27.5120
 1.3960	27.1290
 1.3970	26.7480
 1.3980	26.3670
 1.3990	25.9950
 1.4000	25.6280
 1.4010	25.2650
 1.4020	24.9120
 1.4030	24.5670
 1.4040	24.2350
 1.4050	23.9160
 1.4060	23.6060
 1.4070	23.3140
 1.4080	23.0340
 1.4090	22.7670
 1.4100	22.5170
 1.4110	22.2780
 1.4120	22.0530
 1.4130	21.8430
 1.4140	21.6440
 1.4150	21.4600
 1.4160	21.2900
 1.4170	21.1300
 1.4180	20.9810
 1.4190	20.8430
 1.4200	20.7150
 1.4210	20.5960
 1.4220	20.4850
 1.4230	20.3840
 1.4240	20.2910
 1.4250	20.2040
 1.4260	20.1260
 1.4270	20.0540
 1.4280	19.9900
 1.4290	19.9310
 1.4300	19.8800
 1.4310	19.8320
 1.4320	19.7900
 1.4330	19.7520
 1.4340	19.7190
 1.4350	19.6900
 1.4360	19.6660
 1.4370	19.6450
 1.4380	19.6280
 1.4390	19.6150
 1.4400	19.6030
 1.4410	19.5950
 1.4420	19.5900
 1.4430	19.5880
 1.4440	19.5870
 1.4450	19.5890
 1.4460	19.5910
 1.4470	19.5950
 1.4480	19.6000
 1.4490	19.6080
 1.4500	19.6170
 1.4510	19.6280
 1.4520	19.6410
 1.4530	19.6520
 1.4540	19.6660
 1.4550	19.6830
 1.4560	19.7020
 1.4570	19.7250
 1.4580	19.7490
 1.4590	19.7750
 1.4600	19.8060
 1.4610	19.8400
 1.4620	19.8780
 1.4630	19.9210
 1.4640	19.9660
 1.4650	20.0150
 1.4660	20.0690
 1.4670	20.1270
 1.4680	20.1890
 1.4690	20.2540
 1.4700	20.3210
 1.4710	20.3910
 1.4720	20.4650
 1.4730	20.5430
 1.4740	20.6260
 1.4750	20.7110
 1.4760	20.7980
 1.4770	20.8850
