Name: Calocedrus decrruens 1
Type: vegetation
Class: Tree
Genus: Calocedrus
Species: decurrens
Sample No.: VH145
Owner: UCSB
Wavelength Range: VSWIR
Origin: 37.0432; -119.304; WGS84
Collection Date: 6/8/2013
Description: Samples were collected as part of the HyspIRI Airborne Campaign. 48 individual plants were sampled in three times in 2013 - spring  summer  and fall. The name of the sample includes a 1  2  or 3 which references a different individual of the species. Samples were taken to JPL and processed within 48 hours of collection. The same leaves were processed in the Nicolet and then measured using the ASD.
Measurement: Bidirectional reflectance
First Column: X
Second Column: Y
X Units: Wavelength (micrometers)
Y Units: Reflectance (percentage)
First X Value: 0.35
Last X Value: 2.5
Number of X Values: 2151
Additional Information: vegetation.tree.calocedrus.decurrens.vswir.vh145.ucsb.asd.ancillary.txt

 0.3500	 3.7430
 0.3510	 3.7920
 0.3520	 3.7080
 0.3530	 3.6310
 0.3540	 3.7010
 0.3550	 3.8100
 0.3560	 3.7400
 0.3570	 3.5810
 0.3580	 3.5440
 0.3590	 3.5240
 0.3600	 3.4770
 0.3610	 3.4220
 0.3620	 3.4450
 0.3630	 3.4070
 0.3640	 3.3330
 0.3650	 3.3040
 0.3660	 3.4180
 0.3670	 3.4910
 0.3680	 3.4740
 0.3690	 3.4120
 0.3700	 3.3930
 0.3710	 3.4010
 0.3720	 3.4080
 0.3730	 3.3800
 0.3740	 3.3660
 0.3750	 3.3650
 0.3760	 3.3720
 0.3770	 3.4060
 0.3780	 3.3980
 0.3790	 3.3650
 0.3800	 3.4020
 0.3810	 3.4030
 0.3820	 3.4020
 0.3830	 3.4150
 0.3840	 3.3770
 0.3850	 3.3640
 0.3860	 3.3510
 0.3870	 3.3020
 0.3880	 3.3120
 0.3890	 3.3240
 0.3900	 3.3410
 0.3910	 3.4200
 0.3920	 3.4220
 0.3930	 3.3950
 0.3940	 3.3940
 0.3950	 3.3990
 0.3960	 3.4390
 0.3970	 3.4810
 0.3980	 3.4730
 0.3990	 3.5240
 0.4000	 3.5280
 0.4010	 3.4870
 0.4020	 3.5600
 0.4030	 3.6030
 0.4040	 3.6250
 0.4050	 3.6520
 0.4060	 3.6800
 0.4070	 3.6980
 0.4080	 3.7160
 0.4090	 3.7550
 0.4100	 3.7910
 0.4110	 3.8210
 0.4120	 3.8590
 0.4130	 3.9440
 0.4140	 3.9920
 0.4150	 4.0130
 0.4160	 4.0540
 0.4170	 4.0930
 0.4180	 4.1350
 0.4190	 4.1760
 0.4200	 4.1990
 0.4210	 4.2360
 0.4220	 4.2850
 0.4230	 4.3360
 0.4240	 4.3830
 0.4250	 4.4190
 0.4260	 4.4460
 0.4270	 4.4730
 0.4280	 4.4980
 0.4290	 4.5330
 0.4300	 4.5720
 0.4310	 4.5860
 0.4320	 4.6030
 0.4330	 4.6390
 0.4340	 4.6940
 0.4350	 4.7160
 0.4360	 4.7380
 0.4370	 4.7700
 0.4380	 4.8060
 0.4390	 4.8240
 0.4400	 4.8520
 0.4410	 4.8990
 0.4420	 4.9200
 0.4430	 4.9420
 0.4440	 4.9770
 0.4450	 5.0140
 0.4460	 5.0620
 0.4470	 5.0890
 0.4480	 5.1020
 0.4490	 5.1480
 0.4500	 5.1850
 0.4510	 5.2210
 0.4520	 5.2710
 0.4530	 5.2980
 0.4540	 5.3160
 0.4550	 5.3460
 0.4560	 5.3930
 0.4570	 5.4070
 0.4580	 5.4100
 0.4590	 5.4270
 0.4600	 5.4630
 0.4610	 5.4940
 0.4620	 5.5120
 0.4630	 5.5140
 0.4640	 5.5160
 0.4650	 5.5250
 0.4660	 5.5470
 0.4670	 5.5650
 0.4680	 5.5720
 0.4690	 5.5780
 0.4700	 5.5900
 0.4710	 5.5930
 0.4720	 5.6090
 0.4730	 5.6330
 0.4740	 5.6350
 0.4750	 5.6470
 0.4760	 5.6630
 0.4770	 5.6770
 0.4780	 5.6890
 0.4790	 5.7020
 0.4800	 5.7150
 0.4810	 5.7340
 0.4820	 5.7390
 0.4830	 5.7440
 0.4840	 5.7570
 0.4850	 5.7910
 0.4860	 5.8050
 0.4870	 5.8190
 0.4880	 5.8470
 0.4890	 5.8730
 0.4900	 5.9080
 0.4910	 5.9460
 0.4920	 5.9830
 0.4930	 6.0260
 0.4940	 6.0810
 0.4950	 6.1460
 0.4960	 6.2050
 0.4970	 6.2740
 0.4980	 6.3560
 0.4990	 6.4480
 0.5000	 6.5450
 0.5010	 6.6520
 0.5020	 6.7700
 0.5030	 6.8990
 0.5040	 7.0370
 0.5050	 7.1880
 0.5060	 7.3470
 0.5070	 7.5190
 0.5080	 7.7110
 0.5090	 7.9190
 0.5100	 8.1290
 0.5110	 8.3560
 0.5120	 8.6030
 0.5130	 8.8630
 0.5140	 9.1240
 0.5150	 9.4070
 0.5160	 9.6990
 0.5170	 9.9880
 0.5180	10.2760
 0.5190	10.5730
 0.5200	10.8750
 0.5210	11.1660
 0.5220	11.4480
 0.5230	11.7250
 0.5240	11.9960
 0.5250	12.2510
 0.5260	12.4890
 0.5270	12.7110
 0.5280	12.9220
 0.5290	13.1160
 0.5300	13.2880
 0.5310	13.4420
 0.5320	13.5900
 0.5330	13.7270
 0.5340	13.8480
 0.5350	13.9510
 0.5360	14.0490
 0.5370	14.1410
 0.5380	14.2260
 0.5390	14.3000
 0.5400	14.3730
 0.5410	14.4460
 0.5420	14.5170
 0.5430	14.5850
 0.5440	14.6490
 0.5450	14.7070
 0.5460	14.7610
 0.5470	14.8050
 0.5480	14.8420
 0.5490	14.8790
 0.5500	14.9170
 0.5510	14.9420
 0.5520	14.9580
 0.5530	14.9660
 0.5540	14.9620
 0.5550	14.9400
 0.5560	14.9010
 0.5570	14.8470
 0.5580	14.7870
 0.5590	14.7120
 0.5600	14.6190
 0.5610	14.5180
 0.5620	14.4070
 0.5630	14.2860
 0.5640	14.1560
 0.5650	14.0160
 0.5660	13.8740
 0.5670	13.7300
 0.5680	13.5730
 0.5690	13.4080
 0.5700	13.2400
 0.5710	13.0750
 0.5720	12.9160
 0.5730	12.7620
 0.5740	12.6140
 0.5750	12.4710
 0.5760	12.3380
 0.5770	12.2100
 0.5780	12.0870
 0.5790	11.9730
 0.5800	11.8590
 0.5810	11.7510
 0.5820	11.6550
 0.5830	11.5730
 0.5840	11.4970
 0.5850	11.4210
 0.5860	11.3420
 0.5870	11.2640
 0.5880	11.1940
 0.5890	11.1310
 0.5900	11.0700
 0.5910	11.0190
 0.5920	10.9740
 0.5930	10.9270
 0.5940	10.8890
 0.5950	10.8530
 0.5960	10.8160
 0.5970	10.7870
 0.5980	10.7500
 0.5990	10.7130
 0.6000	10.6790
 0.6010	10.6370
 0.6020	10.5910
 0.6030	10.5430
 0.6040	10.4920
 0.6050	10.4330
 0.6060	10.3650
 0.6070	10.2900
 0.6080	10.2130
 0.6090	10.1350
 0.6100	10.0550
 0.6110	 9.9810
 0.6120	 9.8890
 0.6130	 9.7920
 0.6140	 9.6990
 0.6150	 9.6130
 0.6160	 9.5270
 0.6170	 9.4430
 0.6180	 9.3640
 0.6190	 9.3000
 0.6200	 9.2430
 0.6210	 9.1900
 0.6220	 9.1460
 0.6230	 9.1080
 0.6240	 9.0770
 0.6250	 9.0540
 0.6260	 9.0330
 0.6270	 9.0170
 0.6280	 9.0050
 0.6290	 8.9990
 0.6300	 8.9890
 0.6310	 8.9800
 0.6320	 8.9650
 0.6330	 8.9360
 0.6340	 8.9030
 0.6350	 8.8600
 0.6360	 8.8030
 0.6370	 8.7240
 0.6380	 8.6350
 0.6390	 8.5370
 0.6400	 8.4290
 0.6410	 8.3140
 0.6420	 8.1920
 0.6430	 8.0670
 0.6440	 7.9340
 0.6450	 7.8040
 0.6460	 7.6840
 0.6470	 7.5690
 0.6480	 7.4650
 0.6490	 7.3740
 0.6500	 7.2990
 0.6510	 7.2330
 0.6520	 7.1760
 0.6530	 7.1260
 0.6540	 7.0770
 0.6550	 7.0210
 0.6560	 6.9650
 0.6570	 6.9010
 0.6580	 6.8300
 0.6590	 6.7450
 0.6600	 6.6530
 0.6610	 6.5630
 0.6620	 6.4720
 0.6630	 6.3840
 0.6640	 6.2950
 0.6650	 6.2130
 0.6660	 6.1410
 0.6670	 6.0790
 0.6680	 6.0260
 0.6690	 5.9860
 0.6700	 5.9480
 0.6710	 5.9180
 0.6720	 5.9010
 0.6730	 5.8920
 0.6740	 5.8880
 0.6750	 5.8890
 0.6760	 5.8980
 0.6770	 5.9130
 0.6780	 5.9320
 0.6790	 5.9640
 0.6800	 6.0040
 0.6810	 6.0590
 0.6820	 6.1280
 0.6830	 6.2210
 0.6840	 6.3360
 0.6850	 6.4840
 0.6860	 6.6730
 0.6870	 6.9080
 0.6880	 7.1930
 0.6890	 7.5420
 0.6900	 7.9630
 0.6910	 8.4540
 0.6920	 9.0260
 0.6930	 9.6660
 0.6940	10.3700
 0.6950	11.1370
 0.6960	11.9620
 0.6970	12.8370
 0.6980	13.7500
 0.6990	14.6970
 0.7000	15.6670
 0.7010	16.6550
 0.7020	17.6570
 0.7030	18.6630
 0.7040	19.6700
 0.7050	20.6740
 0.7060	21.6650
 0.7070	22.6480
 0.7080	23.6250
 0.7090	24.5930
 0.7100	25.5520
 0.7110	26.4990
 0.7120	27.4350
 0.7130	28.3650
 0.7140	29.2870
 0.7150	30.1990
 0.7160	31.0980
 0.7170	31.9830
 0.7180	32.8550
 0.7190	33.7140
 0.7200	34.5580
 0.7210	35.3840
 0.7220	36.1930
 0.7230	36.9820
 0.7240	37.7440
 0.7250	38.4770
 0.7260	39.1850
 0.7270	39.8700
 0.7280	40.5220
 0.7290	41.1470
 0.7300	41.7470
 0.7310	42.3190
 0.7320	42.8610
 0.7330	43.3750
 0.7340	43.8620
 0.7350	44.3210
 0.7360	44.7510
 0.7370	45.1560
 0.7380	45.5410
 0.7390	45.9070
 0.7400	46.2430
 0.7410	46.5520
 0.7420	46.8430
 0.7430	47.1220
 0.7440	47.3800
 0.7450	47.6150
 0.7460	47.8370
 0.7470	48.0380
 0.7480	48.2190
 0.7490	48.3820
 0.7500	48.5370
 0.7510	48.6820
 0.7520	48.8140
 0.7530	48.9310
 0.7540	49.0380
 0.7550	49.1390
 0.7560	49.2330
 0.7570	49.3150
 0.7580	49.3990
 0.7590	49.4760
 0.7600	49.5420
 0.7610	49.6030
 0.7620	49.6550
 0.7630	49.7030
 0.7640	49.7520
 0.7650	49.7970
 0.7660	49.8350
 0.7670	49.8700
 0.7680	49.9070
 0.7690	49.9420
 0.7700	49.9710
 0.7710	49.9990
 0.7720	50.0380
 0.7730	50.0660
 0.7740	50.0880
 0.7750	50.1110
 0.7760	50.1390
 0.7770	50.1640
 0.7780	50.1830
 0.7790	50.2030
 0.7800	50.2210
 0.7810	50.2400
 0.7820	50.2610
 0.7830	50.2860
 0.7840	50.3100
 0.7850	50.3360
 0.7860	50.3620
 0.7870	50.3780
 0.7880	50.3950
 0.7890	50.4160
 0.7900	50.4380
 0.7910	50.4500
 0.7920	50.4630
 0.7930	50.4830
 0.7940	50.5060
 0.7950	50.5150
 0.7960	50.5260
 0.7970	50.5460
 0.7980	50.5680
 0.7990	50.5850
 0.8000	50.5960
 0.8010	50.6040
 0.8020	50.6180
 0.8030	50.6340
 0.8040	50.6500
 0.8050	50.6640
 0.8060	50.6710
 0.8070	50.6830
 0.8080	50.6980
 0.8090	50.7010
 0.8100	50.7050
 0.8110	50.7150
 0.8120	50.7320
 0.8130	50.7430
 0.8140	50.7520
 0.8150	50.7610
 0.8160	50.7710
 0.8170	50.7790
 0.8180	50.7830
 0.8190	50.7900
 0.8200	50.8050
 0.8210	50.8180
 0.8220	50.8250
 0.8230	50.8280
 0.8240	50.8360
 0.8250	50.8430
 0.8260	50.8470
 0.8270	50.8500
 0.8280	50.8670
 0.8290	50.8720
 0.8300	50.8690
 0.8310	50.8670
 0.8320	50.8730
 0.8330	50.8730
 0.8340	50.8730
 0.8350	50.8850
 0.8360	50.8950
 0.8370	50.9030
 0.8380	50.9150
 0.8390	50.9360
 0.8400	50.9490
 0.8410	50.9580
 0.8420	50.9680
 0.8430	50.9810
 0.8440	50.9930
 0.8450	51.0050
 0.8460	51.0190
 0.8470	51.0320
 0.8480	51.0450
 0.8490	51.0580
 0.8500	51.0680
 0.8510	51.0870
 0.8520	51.0960
 0.8530	51.0980
 0.8540	51.1060
 0.8550	51.1290
 0.8560	51.1440
 0.8570	51.1490
 0.8580	51.1650
 0.8590	51.1840
 0.8600	51.1940
 0.8610	51.1970
 0.8620	51.2140
 0.8630	51.2350
 0.8640	51.2490
 0.8650	51.2530
 0.8660	51.2610
 0.8670	51.2680
 0.8680	51.2770
 0.8690	51.2930
 0.8700	51.3020
 0.8710	51.3080
 0.8720	51.3160
 0.8730	51.3310
 0.8740	51.3390
 0.8750	51.3440
 0.8760	51.3510
 0.8770	51.3710
 0.8780	51.3770
 0.8790	51.3820
 0.8800	51.3910
 0.8810	51.3940
 0.8820	51.3970
 0.8830	51.4010
 0.8840	51.4120
 0.8850	51.4310
 0.8860	51.4380
 0.8870	51.4380
 0.8880	51.4410
 0.8890	51.4470
 0.8900	51.4540
 0.8910	51.4550
 0.8920	51.4460
 0.8930	51.4520
 0.8940	51.4600
 0.8950	51.4630
 0.8960	51.4650
 0.8970	51.4660
 0.8980	51.4700
 0.8990	51.4780
 0.9000	51.4860
 0.9010	51.4720
 0.9020	51.4680
 0.9030	51.4780
 0.9040	51.4710
 0.9050	51.4600
 0.9060	51.4560
 0.9070	51.4650
 0.9080	51.4820
 0.9090	51.4920
 0.9100	51.4880
 0.9110	51.4710
 0.9120	51.4630
 0.9130	51.4640
 0.9140	51.4650
 0.9150	51.4600
 0.9160	51.4660
 0.9170	51.4740
 0.9180	51.4710
 0.9190	51.4530
 0.9200	51.4390
 0.9210	51.4330
 0.9220	51.4270
 0.9230	51.4100
 0.9240	51.4010
 0.9250	51.3900
 0.9260	51.3750
 0.9270	51.3590
 0.9280	51.3370
 0.9290	51.3190
 0.9300	51.3060
 0.9310	51.2910
 0.9320	51.2570
 0.9330	51.2270
 0.9340	51.2070
 0.9350	51.1750
 0.9360	51.1430
 0.9370	51.1120
 0.9380	51.0780
 0.9390	51.0280
 0.9400	50.9870
 0.9410	50.9480
 0.9420	50.9060
 0.9430	50.8680
 0.9440	50.8190
 0.9450	50.7680
 0.9460	50.7170
 0.9470	50.6450
 0.9480	50.5650
 0.9490	50.4810
 0.9500	50.3970
 0.9510	50.3250
 0.9520	50.2320
 0.9530	50.1220
 0.9540	50.0110
 0.9550	49.9240
 0.9560	49.8270
 0.9570	49.7210
 0.9580	49.6190
 0.9590	49.5360
 0.9600	49.4660
 0.9610	49.4070
 0.9620	49.3540
 0.9630	49.2820
 0.9640	49.2220
 0.9650	49.1850
 0.9660	49.1670
 0.9670	49.1400
 0.9680	49.1070
 0.9690	49.0780
 0.9700	49.0640
 0.9710	49.0430
 0.9720	49.0120
 0.9730	48.9880
 0.9740	48.9930
 0.9750	48.9930
 0.9760	48.9790
 0.9770	48.9610
 0.9780	48.9580
 0.9790	48.9760
 0.9800	48.9960
 0.9810	49.0020
 0.9820	48.9950
 0.9830	48.9960
 0.9840	49.0290
 0.9850	49.0750
 0.9860	49.1020
 0.9870	49.1300
 0.9880	49.1620
 0.9890	49.1920
 0.9900	49.2180
 0.9910	49.2610
 0.9920	49.2910
 0.9930	49.3180
 0.9940	49.3640
 0.9950	49.4020
 0.9960	49.4430
 0.9970	49.4890
 0.9980	49.5390
 0.9990	49.5590
 1.0000	49.5860
 1.0010	49.5890
 1.0020	49.6410
 1.0030	49.6910
 1.0040	49.7390
 1.0050	49.7890
 1.0060	49.8340
 1.0070	49.8800
 1.0080	49.9270
 1.0090	49.9760
 1.0100	50.0220
 1.0110	50.0690
 1.0120	50.1170
 1.0130	50.1650
 1.0140	50.2130
 1.0150	50.2630
 1.0160	50.3100
 1.0170	50.3540
 1.0180	50.4030
 1.0190	50.4510
 1.0200	50.4950
 1.0210	50.5380
 1.0220	50.5840
 1.0230	50.6300
 1.0240	50.6770
 1.0250	50.7240
 1.0260	50.7740
 1.0270	50.8200
 1.0280	50.8630
 1.0290	50.9080
 1.0300	50.9540
 1.0310	50.9960
 1.0320	51.0360
 1.0330	51.0740
 1.0340	51.1170
 1.0350	51.1510
 1.0360	51.1840
 1.0370	51.2240
 1.0380	51.2590
 1.0390	51.2860
 1.0400	51.3200
 1.0410	51.3570
 1.0420	51.3890
 1.0430	51.4190
 1.0440	51.4500
 1.0450	51.4790
 1.0460	51.5080
 1.0470	51.5400
 1.0480	51.5700
 1.0490	51.5960
 1.0500	51.6240
 1.0510	51.6550
 1.0520	51.6820
 1.0530	51.7070
 1.0540	51.7310
 1.0550	51.7550
 1.0560	51.7760
 1.0570	51.7990
 1.0580	51.8240
 1.0590	51.8470
 1.0600	51.8720
 1.0610	51.8920
 1.0620	51.9070
 1.0630	51.9270
 1.0640	51.9470
 1.0650	51.9630
 1.0660	51.9810
 1.0670	51.9980
 1.0680	52.0130
 1.0690	52.0230
 1.0700	52.0380
 1.0710	52.0550
 1.0720	52.0680
 1.0730	52.0790
 1.0740	52.0900
 1.0750	52.0970
 1.0760	52.1080
 1.0770	52.1200
 1.0780	52.1290
 1.0790	52.1400
 1.0800	52.1480
 1.0810	52.1570
 1.0820	52.1600
 1.0830	52.1560
 1.0840	52.1570
 1.0850	52.1580
 1.0860	52.1560
 1.0870	52.1570
 1.0880	52.1640
 1.0890	52.1620
 1.0900	52.1540
 1.0910	52.1490
 1.0920	52.1430
 1.0930	52.1350
 1.0940	52.1290
 1.0950	52.1180
 1.0960	52.0980
 1.0970	52.0860
 1.0980	52.0750
 1.0990	52.0630
 1.1000	52.0560
 1.1010	52.0450
 1.1020	52.0310
 1.1030	52.0150
 1.1040	51.9980
 1.1050	51.9810
 1.1060	51.9610
 1.1070	51.9400
 1.1080	51.9190
 1.1090	51.8970
 1.1100	51.8730
 1.1110	51.8490
 1.1120	51.8220
 1.1130	51.7940
 1.1140	51.7630
 1.1150	51.7310
 1.1160	51.6940
 1.1170	51.6540
 1.1180	51.6120
 1.1190	51.5670
 1.1200	51.5190
 1.1210	51.4640
 1.1220	51.4060
 1.1230	51.3390
 1.1240	51.2640
 1.1250	51.1820
 1.1260	51.0960
 1.1270	50.9950
 1.1280	50.8840
 1.1290	50.7610
 1.1300	50.6280
 1.1310	50.4830
 1.1320	50.3300
 1.1330	50.1630
 1.1340	49.9810
 1.1350	49.7910
 1.1360	49.5900
 1.1370	49.3810
 1.1380	49.1630
 1.1390	48.9410
 1.1400	48.7080
 1.1410	48.4690
 1.1420	48.2310
 1.1430	47.9880
 1.1440	47.7490
 1.1450	47.5060
 1.1460	47.2740
 1.1470	47.0410
 1.1480	46.8210
 1.1490	46.6060
 1.1500	46.4050
 1.1510	46.2150
 1.1520	46.0350
 1.1530	45.8640
 1.1540	45.7070
 1.1550	45.5610
 1.1560	45.4260
 1.1570	45.3040
 1.1580	45.1970
 1.1590	45.0980
 1.1600	45.0070
 1.1610	44.9270
 1.1620	44.8550
 1.1630	44.7890
 1.1640	44.7310
 1.1650	44.6760
 1.1660	44.6270
 1.1670	44.5830
 1.1680	44.5460
 1.1690	44.5080
 1.1700	44.4730
 1.1710	44.4390
 1.1720	44.4090
 1.1730	44.3750
 1.1740	44.3410
 1.1750	44.3100
 1.1760	44.2760
 1.1770	44.2390
 1.1780	44.2020
 1.1790	44.1640
 1.1800	44.1240
 1.1810	44.0830
 1.1820	44.0440
 1.1830	44.0060
 1.1840	43.9650
 1.1850	43.9260
 1.1860	43.8860
 1.1870	43.8450
 1.1880	43.8070
 1.1890	43.7680
 1.1900	43.7320
 1.1910	43.6970
 1.1920	43.6660
 1.1930	43.6380
 1.1940	43.6120
 1.1950	43.5890
 1.1960	43.5700
 1.1970	43.5540
 1.1980	43.5420
 1.1990	43.5340
 1.2000	43.5310
 1.2010	43.5330
 1.2020	43.5420
 1.2030	43.5570
 1.2040	43.5770
 1.2050	43.6010
 1.2060	43.6280
 1.2070	43.6620
 1.2080	43.6990
 1.2090	43.7390
 1.2100	43.7860
 1.2110	43.8370
 1.2120	43.8910
 1.2130	43.9490
 1.2140	44.0110
 1.2150	44.0760
 1.2160	44.1450
 1.2170	44.2170
 1.2180	44.2900
 1.2190	44.3660
 1.2200	44.4430
 1.2210	44.5200
 1.2220	44.5980
 1.2230	44.6760
 1.2240	44.7540
 1.2250	44.8300
 1.2260	44.9060
 1.2270	44.9800
 1.2280	45.0530
 1.2290	45.1230
 1.2300	45.1910
 1.2310	45.2570
 1.2320	45.3200
 1.2330	45.3810
 1.2340	45.4420
 1.2350	45.5020
 1.2360	45.5600
 1.2370	45.6170
 1.2380	45.6720
 1.2390	45.7250
 1.2400	45.7730
 1.2410	45.8230
 1.2420	45.8730
 1.2430	45.9170
 1.2440	45.9650
 1.2450	46.0110
 1.2460	46.0530
 1.2470	46.0950
 1.2480	46.1330
 1.2490	46.1680
 1.2500	46.2010
 1.2510	46.2320
 1.2520	46.2650
 1.2530	46.2950
 1.2540	46.3250
 1.2550	46.3520
 1.2560	46.3770
 1.2570	46.4040
 1.2580	46.4270
 1.2590	46.4490
 1.2600	46.4700
 1.2610	46.4890
 1.2620	46.5060
 1.2630	46.5210
 1.2640	46.5350
 1.2650	46.5460
 1.2660	46.5540
 1.2670	46.5620
 1.2680	46.5690
 1.2690	46.5760
 1.2700	46.5800
 1.2710	46.5810
 1.2720	46.5820
 1.2730	46.5790
 1.2740	46.5750
 1.2750	46.5690
 1.2760	46.5620
 1.2770	46.5510
 1.2780	46.5390
 1.2790	46.5250
 1.2800	46.5100
 1.2810	46.4920
 1.2820	46.4710
 1.2830	46.4460
 1.2840	46.4190
 1.2850	46.3890
 1.2860	46.3570
 1.2870	46.3240
 1.2880	46.2900
 1.2890	46.2520
 1.2900	46.2110
 1.2910	46.1680
 1.2920	46.1210
 1.2930	46.0700
 1.2940	46.0150
 1.2950	45.9590
 1.2960	45.8990
 1.2970	45.8370
 1.2980	45.7720
 1.2990	45.7030
 1.3000	45.6310
 1.3010	45.5540
 1.3020	45.4710
 1.3030	45.3860
 1.3040	45.2970
 1.3050	45.2050
 1.3060	45.1110
 1.3070	45.0120
 1.3080	44.9060
 1.3090	44.7950
 1.3100	44.6770
 1.3110	44.5540
 1.3120	44.4270
 1.3130	44.2950
 1.3140	44.1600
 1.3150	44.0220
 1.3160	43.8790
 1.3170	43.7320
 1.3180	43.5810
 1.3190	43.4230
 1.3200	43.2610
 1.3210	43.0920
 1.3220	42.9170
 1.3230	42.7420
 1.3240	42.5610
 1.3250	42.3790
 1.3260	42.1970
 1.3270	42.0070
 1.3280	41.8150
 1.3290	41.6200
 1.3300	41.4220
 1.3310	41.2230
 1.3320	41.0230
 1.3330	40.8210
 1.3340	40.6190
 1.3350	40.4170
 1.3360	40.2140
 1.3370	40.0110
 1.3380	39.8090
 1.3390	39.6080
 1.3400	39.4090
 1.3410	39.2130
 1.3420	39.0210
 1.3430	38.8300
 1.3440	38.6420
 1.3450	38.4580
 1.3460	38.2750
 1.3470	38.0950
 1.3480	37.9160
 1.3490	37.7420
 1.3500	37.5700
 1.3510	37.4020
 1.3520	37.2360
 1.3530	37.0700
 1.3540	36.9040
 1.3550	36.7390
 1.3560	36.5750
 1.3570	36.4090
 1.3580	36.2440
 1.3590	36.0740
 1.3600	35.8990
 1.3610	35.7220
 1.3620	35.5390
 1.3630	35.3510
 1.3640	35.1580
 1.3650	34.9550
 1.3660	34.7450
 1.3670	34.5270
 1.3680	34.2980
 1.3690	34.0590
 1.3700	33.8050
 1.3710	33.5400
 1.3720	33.2600
 1.3730	32.9640
 1.3740	32.6570
 1.3750	32.3320
 1.3760	31.9850
 1.3770	31.6190
 1.3780	31.2290
 1.3790	30.8170
 1.3800	30.3870
 1.3810	29.9320
 1.3820	29.4640
 1.3830	28.9790
 1.3840	28.4790
 1.3850	27.9610
 1.3860	27.4360
 1.3870	26.8950
 1.3880	26.3550
 1.3890	25.8090
 1.3900	25.2580
 1.3910	24.7130
 1.3920	24.1660
 1.3930	23.6210
 1.3940	23.0850
 1.3950	22.5500
 1.3960	22.0270
 1.3970	21.5180
 1.3980	21.0200
 1.3990	20.5430
 1.4000	20.0810
 1.4010	19.6330
 1.4020	19.2060
 1.4030	18.7940
 1.4040	18.4020
 1.4050	18.0310
 1.4060	17.6770
 1.4070	17.3460
 1.4080	17.0340
 1.4090	16.7390
 1.4100	16.4640
 1.4110	16.2040
 1.4120	15.9600
 1.4130	15.7350
 1.4140	15.5230
 1.4150	15.3290
 1.4160	15.1490
 1.4170	14.9810
 1.4180	14.8260
 1.4190	14.6820
 1.4200	14.5480
 1.4210	14.4250
 1.4220	14.3120
 1.4230	14.2090
 1.4240	14.1140
 1.4250	14.0270
 1.4260	13.9480
 1.4270	13.8750
 1.4280	13.8100
 1.4290	13.7500
 1.4300	13.6970
 1.4310	13.6490
 1.4320	13.6080
 1.4330	13.5710
 1.4340	13.5360
 1.4350	13.5070
 1.4360	13.4830
 1.4370	13.4630
 1.4380	13.4480
 1.4390	13.4370
 1.4400	13.4280
 1.4410	13.4210
 1.4420	13.4180
 1.4430	13.4180
 1.4440	13.4190
 1.4450	13.4230
 1.4460	13.4280
 1.4470	13.4340
 1.4480	13.4420
 1.4490	13.4520
 1.4500	13.4640
 1.4510	13.4770
 1.4520	13.4910
 1.4530	13.5080
 1.4540	13.5250
 1.4550	13.5440
 1.4560	13.5650
 1.4570	13.5890
 1.4580	13.6150
 1.4590	13.6440
 1.4600	13.6760
 1.4610	13.7100
 1.4620	13.7470
 1.4630	13.7890
 1.4640	13.8340
 1.4650	13.8840
 1.4660	13.9370
 1.4670	13.9930
 1.4680	14.0540
 1.4690	14.1180
 1.4700	14.1860
