Name: Heteromeles arbutifolia 1
Type: vegetation
Class: Shrub
Genus: Heteromeles
Species: arbutifolia
Sample No.: VH014
Owner: UCSB
Wavelength Range: TIR
Origin: 34.4907; -119.791; WGS84
Collection Date: 4/1/2013
Description: Samples were collected as part of the HyspIRI Airborne Campaign. 48 individual plants were sampled in three times in 2013 - spring  summer  and fall. The name of the sample includes a 1  2  or 3 which references a different individual of the species. Samples were taken to JPL and processed within 48 hours of collection. The same leaves were processed in the Nicolet and then measured using the ASD.
Measurement: Hemispherical reflectance
First Column: X
Second Column: Y
X Units: Wavelength (micrometers)
Y Units: Reflectance (percentage)
First X Value: 2.501
Last X Value: 15.387
Number of X Values: 1737
Additional Information: vegetation.shrub.heteromeles.arbutifolia.tir.vh014.ucsb.nicolet.ancillary.txt

 2.5010	 6.4040
 2.5030	 6.3260
 2.5040	 6.3430
 2.5050	 6.4440
 2.5060	 6.3830
 2.5070	 6.1960
 2.5090	 6.1010
 2.5100	 6.1530
 2.5110	 6.3460
 2.5120	 6.4030
 2.5140	 6.3800
 2.5150	 6.3040
 2.5160	 6.2880
 2.5170	 6.2390
 2.5180	 6.2670
 2.5200	 6.3740
 2.5210	 6.3640
 2.5220	 6.3410
 2.5230	 6.3200
 2.5250	 6.2630
 2.5260	 6.3120
 2.5270	 6.2260
 2.5280	 6.0840
 2.5290	 6.0900
 2.5310	 6.2150
 2.5320	 6.2810
 2.5330	 6.2510
 2.5340	 6.2880
 2.5360	 6.4180
 2.5370	 6.4580
 2.5380	 6.4430
 2.5390	 6.3230
 2.5410	 6.2600
 2.5420	 6.1700
 2.5430	 6.1440
 2.5440	 6.1750
 2.5460	 6.1690
 2.5470	 6.1790
 2.5480	 6.3260
 2.5490	 6.2760
 2.5510	 6.2580
 2.5520	 6.2880
 2.5530	 6.3080
 2.5540	 6.3030
 2.5560	 6.3950
 2.5570	 6.3670
 2.5580	 6.3090
 2.5590	 6.2740
 2.5610	 6.3370
 2.5620	 6.3240
 2.5630	 6.3630
 2.5640	 6.2700
 2.5660	 6.3190
 2.5670	 6.4080
 2.5680	 6.2770
 2.5700	 6.2030
 2.5710	 6.2860
 2.5720	 6.2890
 2.5730	 6.3770
 2.5750	 6.3810
 2.5760	 6.4180
 2.5770	 6.4680
 2.5790	 6.5520
 2.5800	 6.3370
 2.5810	 6.1750
 2.5820	 6.2150
 2.5840	 6.2880
 2.5850	 6.2480
 2.5860	 6.2550
 2.5880	 6.2650
 2.5890	 6.3080
 2.5900	 6.3630
 2.5910	 6.2880
 2.5930	 6.2010
 2.5940	 6.1870
 2.5950	 6.2030
 2.5970	 6.3150
 2.5980	 6.2890
 2.5990	 6.2470
 2.6000	 6.2030
 2.6020	 6.1840
 2.6030	 6.1740
 2.6040	 6.1790
 2.6060	 6.1480
 2.6070	 6.0790
 2.6080	 5.9390
 2.6100	 5.9790
 2.6110	 6.0710
 2.6120	 6.0870
 2.6140	 6.0700
 2.6150	 6.0730
 2.6160	 5.9420
 2.6180	 5.9720
 2.6190	 6.0420
 2.6200	 6.0370
 2.6220	 5.9090
 2.6230	 5.8810
 2.6240	 5.9360
 2.6260	 5.8590
 2.6270	 5.7520
 2.6280	 5.7790
 2.6300	 5.7600
 2.6310	 5.8240
 2.6320	 5.8040
 2.6340	 5.7620
 2.6350	 5.6380
 2.6360	 5.5800
 2.6380	 5.5210
 2.6390	 5.5570
 2.6400	 5.5720
 2.6420	 5.5060
 2.6430	 5.4430
 2.6440	 5.4740
 2.6460	 5.4150
 2.6470	 5.4590
 2.6480	 5.4580
 2.6500	 5.4290
 2.6510	 5.4390
 2.6520	 5.4180
 2.6540	 5.3790
 2.6550	 5.3640
 2.6560	 5.2700
 2.6580	 5.1960
 2.6590	 5.1830
 2.6610	 5.2400
 2.6620	 5.2970
 2.6630	 5.2490
 2.6650	 5.1510
 2.6660	 5.2430
 2.6670	 5.3020
 2.6690	 5.2950
 2.6700	 5.2420
 2.6720	 5.1440
 2.6730	 5.0410
 2.6740	 5.0480
 2.6760	 5.0420
 2.6770	 5.1090
 2.6780	 5.1260
 2.6800	 5.1410
 2.6810	 5.0340
 2.6830	 5.0370
 2.6840	 5.0940
 2.6850	 5.0930
 2.6870	 4.9580
 2.6880	 4.9750
 2.6900	 4.9770
 2.6910	 4.8770
 2.6920	 4.8650
 2.6940	 4.8920
 2.6950	 4.8370
 2.6970	 4.8160
 2.6980	 4.8300
 2.6990	 4.9190
 2.7010	 4.8640
 2.7020	 4.8680
 2.7040	 4.8810
 2.7050	 4.8100
 2.7060	 4.6590
 2.7080	 4.6650
 2.7090	 4.7160
 2.7110	 4.7930
 2.7120	 4.7520
 2.7130	 4.6630
 2.7150	 4.7120
 2.7160	 4.7460
 2.7180	 4.6920
 2.7190	 4.6480
 2.7210	 4.6930
 2.7220	 4.7780
 2.7230	 4.6310
 2.7250	 4.5350
 2.7260	 4.6590
 2.7280	 4.7450
 2.7290	 4.7050
 2.7310	 4.6690
 2.7320	 4.6210
 2.7330	 4.5620
 2.7350	 4.5100
 2.7360	 4.6800
 2.7380	 4.7560
 2.7390	 4.7370
 2.7410	 4.6930
 2.7420	 4.7200
 2.7440	 4.6430
 2.7450	 4.7150
 2.7470	 4.7030
 2.7480	 4.7160
 2.7490	 4.6240
 2.7510	 4.6170
 2.7520	 4.6520
 2.7540	 4.7650
 2.7550	 4.7440
 2.7570	 4.5930
 2.7580	 4.6440
 2.7600	 4.7540
 2.7610	 4.7960
 2.7630	 4.8900
 2.7640	 4.6930
 2.7660	 4.5800
 2.7670	 4.5990
 2.7680	 4.6110
 2.7700	 4.5330
 2.7710	 4.6370
 2.7730	 4.7180
 2.7740	 4.7450
 2.7760	 4.6770
 2.7770	 4.6330
 2.7790	 4.5190
 2.7800	 4.4610
 2.7820	 4.4530
 2.7830	 4.5770
 2.7850	 4.6560
 2.7860	 4.6990
 2.7880	 4.7090
 2.7890	 4.7590
 2.7910	 4.7920
 2.7920	 4.8860
 2.7940	 4.7690
 2.7950	 4.6190
 2.7970	 4.5980
 2.7980	 4.6750
 2.8000	 4.5730
 2.8010	 4.6750
 2.8030	 4.6590
 2.8040	 4.5730
 2.8060	 4.5670
 2.8070	 4.6220
 2.8090	 4.6320
 2.8110	 4.6300
 2.8120	 4.5300
 2.8140	 4.5640
 2.8150	 4.6220
 2.8170	 4.6330
 2.8180	 4.5690
 2.8200	 4.6160
 2.8210	 4.6070
 2.8230	 4.6450
 2.8240	 4.6100
 2.8260	 4.5600
 2.8270	 4.4550
 2.8290	 4.5100
 2.8300	 4.6100
 2.8320	 4.6620
 2.8340	 4.6300
 2.8350	 4.6460
 2.8370	 4.7170
 2.8380	 4.7550
 2.8400	 4.7310
 2.8410	 4.8250
 2.8430	 4.7570
 2.8440	 4.6640
 2.8460	 4.6370
 2.8480	 4.5930
 2.8490	 4.5590
 2.8510	 4.6150
 2.8520	 4.6430
 2.8540	 4.6680
 2.8550	 4.6450
 2.8570	 4.6420
 2.8590	 4.6340
 2.8600	 4.6350
 2.8620	 4.6700
 2.8630	 4.7100
 2.8650	 4.6300
 2.8660	 4.6810
 2.8680	 4.6970
 2.8700	 4.6860
 2.8710	 4.6220
 2.8730	 4.7260
 2.8740	 4.7000
 2.8760	 4.6550
 2.8780	 4.5380
 2.8790	 4.5740
 2.8810	 4.7830
 2.8820	 4.8690
 2.8840	 4.7490
 2.8860	 4.5730
 2.8870	 4.5220
 2.8890	 4.6500
 2.8900	 4.7240
 2.8920	 4.6980
 2.8940	 4.5830
 2.8950	 4.5870
 2.8970	 4.7180
 2.8980	 4.7480
 2.9000	 4.6470
 2.9020	 4.6280
 2.9030	 4.6270
 2.9050	 4.6610
 2.9070	 4.6500
 2.9080	 4.7020
 2.9100	 4.6790
 2.9120	 4.7080
 2.9130	 4.7130
 2.9150	 4.6270
 2.9160	 4.5840
 2.9180	 4.6340
 2.9200	 4.5820
 2.9210	 4.6280
 2.9230	 4.6080
 2.9250	 4.7010
 2.9260	 4.8110
 2.9280	 4.8820
 2.9300	 4.8870
 2.9310	 4.9130
 2.9330	 4.8560
 2.9350	 4.8190
 2.9360	 4.7790
 2.9380	 4.6680
 2.9400	 4.6720
 2.9410	 4.8010
 2.9430	 4.7190
 2.9450	 4.6510
 2.9460	 4.6060
 2.9480	 4.4930
 2.9500	 4.7210
 2.9510	 5.0680
 2.9530	 5.0050
 2.9550	 4.9670
 2.9560	 4.8410
 2.9580	 4.8000
 2.9600	 4.9980
 2.9610	 5.3290
 2.9630	 4.9540
 2.9650	 4.8700
 2.9660	 4.9580
 2.9680	 4.7550
 2.9700	 4.7270
 2.9720	 4.6630
 2.9730	 5.0090
 2.9750	 5.1110
 2.9770	 4.9590
 2.9780	 4.9230
 2.9800	 5.2820
 2.9820	 5.2680
 2.9840	 4.8640
 2.9850	 4.9170
 2.9870	 4.9660
 2.9890	 5.0190
 2.9900	 4.7980
 2.9920	 4.8610
 2.9940	 4.9970
 2.9960	 4.5550
 2.9970	 4.6150
 2.9990	 5.0550
 3.0010	 4.7370
 3.0030	 4.5110
 3.0040	 4.4200
 3.0060	 4.4560
 3.0080	 4.9380
 3.0100	 5.1410
 3.0110	 5.0810
 3.0130	 4.7410
 3.0150	 4.3660
 3.0170	 4.3740
 3.0180	 4.6090
 3.0200	 4.6630
 3.0220	 4.4870
 3.0240	 4.4540
 3.0250	 4.7450
 3.0270	 4.7470
 3.0290	 4.6230
 3.0310	 4.4730
 3.0320	 4.4590
 3.0340	 5.0430
 3.0360	 5.1860
 3.0380	 5.3230
 3.0400	 5.4360
 3.0410	 4.9870
 3.0430	 4.8380
 3.0450	 4.9970
 3.0470	 4.8470
 3.0480	 4.8300
 3.0500	 4.8810
 3.0520	 4.3130
 3.0540	 4.1270
 3.0560	 4.6060
 3.0570	 4.6910
 3.0590	 4.7650
 3.0610	 4.8440
 3.0630	 4.7470
 3.0650	 4.7460
 3.0660	 4.9720
 3.0680	 4.8220
 3.0700	 4.7760
 3.0720	 4.9320
 3.0740	 5.0670
 3.0760	 4.8400
 3.0770	 5.0580
 3.0790	 5.2150
 3.0810	 4.9840
 3.0830	 4.8430
 3.0850	 4.9610
 3.0870	 4.9410
 3.0880	 4.8690
 3.0900	 4.6810
 3.0920	 4.7640
 3.0940	 4.7360
 3.0960	 4.6950
 3.0980	 4.7890
 3.0990	 4.8800
 3.1010	 5.0550
 3.1030	 5.1410
 3.1050	 4.9680
 3.1070	 5.0170
 3.1090	 5.0050
 3.1110	 4.9380
 3.1120	 4.8120
 3.1140	 4.8270
 3.1160	 4.7710
 3.1180	 4.8020
 3.1200	 4.7820
 3.1220	 4.7290
 3.1240	 4.5790
 3.1260	 4.5900
 3.1270	 4.7880
 3.1290	 4.8490
 3.1310	 4.7670
 3.1330	 4.6990
 3.1350	 5.0170
 3.1370	 5.0720
 3.1390	 4.7510
 3.1410	 4.5640
 3.1430	 4.6070
 3.1450	 5.0760
 3.1460	 5.1080
 3.1480	 4.7870
 3.1500	 4.4890
 3.1520	 4.4750
 3.1540	 4.5290
 3.1560	 4.6990
 3.1580	 4.7970
 3.1600	 4.7320
 3.1620	 4.9570
 3.1640	 4.9870
 3.1660	 4.7240
 3.1680	 4.7200
 3.1700	 4.7290
 3.1710	 4.9630
 3.1730	 5.0130
 3.1750	 4.8900
 3.1770	 4.5650
 3.1790	 4.5100
 3.1810	 4.5690
 3.1830	 4.7320
 3.1850	 4.8530
 3.1870	 4.8030
 3.1890	 4.8050
 3.1910	 4.7790
 3.1930	 4.6980
 3.1950	 4.5960
 3.1970	 4.5300
 3.1990	 4.5450
 3.2010	 4.5480
 3.2030	 4.5860
 3.2050	 4.5680
 3.2070	 4.6640
 3.2090	 4.6950
 3.2110	 4.7060
 3.2130	 4.6630
 3.2150	 4.6000
 3.2170	 4.5570
 3.2190	 4.6280
 3.2210	 4.6530
 3.2230	 4.6210
 3.2250	 4.5360
 3.2270	 4.5690
 3.2290	 4.6690
 3.2310	 4.6860
 3.2330	 4.6060
 3.2350	 4.5870
 3.2370	 4.5210
 3.2390	 4.5850
 3.2410	 4.5990
 3.2430	 4.5400
 3.2450	 4.4740
 3.2470	 4.5720
 3.2490	 4.6320
 3.2510	 4.6080
 3.2530	 4.5350
 3.2550	 4.6350
 3.2570	 4.5940
 3.2590	 4.4990
 3.2610	 4.5260
 3.2630	 4.5830
 3.2650	 4.4810
 3.2670	 4.5190
 3.2690	 4.5810
 3.2720	 4.5920
 3.2740	 4.5590
 3.2760	 4.5330
 3.2780	 4.5490
 3.2800	 4.5820
 3.2820	 4.4960
 3.2840	 4.4050
 3.2860	 4.3790
 3.2880	 4.4370
 3.2900	 4.4430
 3.2920	 4.4880
 3.2940	 4.5000
 3.2960	 4.4590
 3.2990	 4.4640
 3.3010	 4.4920
 3.3030	 4.4070
 3.3050	 4.4000
 3.3070	 4.3880
 3.3090	 4.3470
 3.3110	 4.3220
 3.3130	 4.3510
 3.3150	 4.2720
 3.3180	 4.2230
 3.3200	 4.2290
 3.3220	 4.2640
 3.3240	 4.2590
 3.3260	 4.3010
 3.3280	 4.2640
 3.3300	 4.1610
 3.3330	 4.0500
 3.3350	 4.0840
 3.3370	 4.1140
 3.3390	 4.1790
 3.3410	 4.2340
 3.3430	 4.2730
 3.3450	 4.2140
 3.3480	 4.2110
 3.3500	 4.2030
 3.3520	 4.1170
 3.3540	 4.0170
 3.3560	 4.0500
 3.3580	 4.0640
 3.3610	 4.0940
 3.3630	 4.1010
 3.3650	 4.0760
 3.3670	 3.9850
 3.3690	 4.0030
 3.3720	 4.0230
 3.3740	 4.0910
 3.3760	 4.0710
 3.3780	 4.1550
 3.3800	 4.1380
 3.3830	 4.0930
 3.3850	 4.0870
 3.3870	 4.1110
 3.3890	 4.1390
 3.3910	 4.1090
 3.3940	 4.0470
 3.3960	 4.1030
 3.3980	 4.1040
 3.4000	 4.1270
 3.4020	 4.1560
 3.4050	 4.2600
 3.4070	 4.4340
 3.4090	 4.6060
 3.4110	 4.8020
 3.4140	 5.1340
 3.4160	 5.3970
 3.4180	 5.6960
 3.4200	 6.1380
 3.4230	 6.8700
 3.4250	 7.7140
 3.4270	 8.5460
 3.4290	 9.0170
 3.4320	 8.8180
 3.4340	 8.0630
 3.4360	 7.3190
 3.4390	 6.7960
 3.4410	 6.4750
 3.4430	 6.2400
 3.4450	 6.1270
 3.4480	 5.9830
 3.4500	 5.9410
 3.4520	 5.8100
 3.4550	 5.7500
 3.4570	 5.6880
 3.4590	 5.5850
 3.4620	 5.5590
 3.4640	 5.5350
 3.4660	 5.5130
 3.4680	 5.4910
 3.4710	 5.3320
 3.4730	 5.2720
 3.4750	 5.2370
 3.4780	 5.2110
 3.4800	 5.1450
 3.4820	 5.0860
 3.4850	 5.0850
 3.4870	 5.0720
 3.4890	 4.9360
 3.4920	 4.8910
 3.4940	 4.8820
 3.4970	 4.9630
 3.4990	 5.0660
 3.5010	 5.2790
 3.5040	 5.5380
 3.5060	 6.1290
 3.5080	 7.1910
 3.5110	 8.2140
 3.5130	 8.2050
 3.5160	 7.5660
 3.5180	 6.9330
 3.5200	 6.5060
 3.5230	 6.1850
 3.5250	 5.9670
 3.5270	 5.7710
 3.5300	 5.7220
 3.5320	 5.6800
 3.5350	 5.7070
 3.5370	 5.6560
 3.5400	 5.6230
 3.5420	 5.5770
 3.5440	 5.5200
 3.5470	 5.5050
 3.5490	 5.4710
 3.5520	 5.4140
 3.5540	 5.4280
 3.5570	 5.4410
 3.5590	 5.4220
 3.5610	 5.2650
 3.5640	 5.2430
 3.5660	 5.3040
 3.5690	 5.2510
 3.5710	 5.1180
 3.5740	 5.1420
 3.5760	 5.2430
 3.5790	 5.3390
 3.5810	 5.2850
 3.5840	 5.2020
 3.5860	 5.1910
 3.5890	 5.2400
 3.5910	 5.2010
 3.5930	 5.0830
 3.5960	 5.1490
 3.5980	 5.3190
 3.6010	 5.3300
 3.6030	 5.1980
 3.6060	 5.1000
 3.6080	 5.1380
 3.6110	 5.0790
 3.6140	 5.0670
 3.6160	 5.0870
 3.6190	 5.0980
 3.6210	 5.0870
 3.6240	 5.0670
 3.6260	 5.0550
 3.6290	 5.0990
 3.6310	 5.0790
 3.6340	 5.0440
 3.6360	 5.0910
 3.6390	 5.1010
 3.6410	 5.0930
 3.6440	 5.1530
 3.6470	 5.1270
 3.6490	 5.1400
 3.6520	 5.1740
 3.6540	 5.1090
 3.6570	 5.0550
 3.6590	 5.0830
 3.6620	 5.1030
 3.6650	 5.1090
 3.6670	 5.0360
 3.6700	 4.9850
 3.6720	 4.9880
 3.6750	 4.9850
 3.6780	 5.0010
 3.6800	 5.0750
 3.6830	 5.0620
 3.6850	 5.0240
 3.6880	 5.0010
 3.6910	 4.9720
 3.6930	 4.9820
 3.6960	 5.0070
 3.6990	 4.9930
 3.7010	 5.0160
 3.7040	 5.0130
 3.7060	 5.0500
 3.7090	 5.0420
 3.7120	 5.0480
 3.7140	 5.0520
 3.7170	 5.0820
 3.7200	 5.0300
 3.7220	 4.9660
 3.7250	 4.9160
 3.7280	 4.9490
 3.7300	 4.9820
 3.7330	 4.9760
 3.7360	 4.9580
 3.7390	 4.9330
 3.7410	 5.0140
 3.7440	 5.1310
 3.7470	 5.1220
 3.7490	 5.0410
 3.7520	 4.9400
 3.7550	 4.9650
 3.7580	 4.9970
 3.7600	 4.9810
 3.7630	 4.9070
 3.7660	 4.9070
 3.7680	 4.9570
 3.7710	 5.0240
 3.7740	 5.0470
 3.7770	 5.0160
 3.7790	 4.9690
 3.7820	 4.9370
 3.7850	 4.9280
 3.7880	 4.9500
 3.7900	 5.0250
 3.7930	 5.0490
 3.7960	 4.9630
 3.7990	 4.9240
 3.8020	 4.9400
 3.8040	 5.0050
 3.8070	 5.0200
 3.8100	 5.0130
 3.8130	 4.9930
 3.8160	 5.0060
 3.8180	 5.0360
 3.8210	 4.9870
 3.8240	 4.8760
 3.8270	 4.8980
 3.8300	 4.9600
 3.8330	 4.9700
 3.8350	 4.9910
 3.8380	 4.9740
 3.8410	 4.9440
 3.8440	 4.9250
 3.8470	 4.9460
 3.8500	 4.9980
 3.8520	 5.0080
 3.8550	 5.0040
 3.8580	 4.9640
 3.8610	 4.9480
 3.8640	 4.9940
 3.8670	 5.0200
 3.8700	 4.9430
 3.8730	 4.9290
 3.8750	 4.9860
 3.8780	 4.9380
 3.8810	 4.9400
 3.8840	 5.0390
 3.8870	 5.0520
 3.8900	 4.9910
 3.8930	 4.9850
 3.8960	 4.9490
 3.8990	 4.8940
 3.9020	 4.8980
 3.9050	 4.9330
 3.9080	 4.9580
 3.9110	 4.9460
 3.9140	 4.9880
 3.9160	 4.9780
 3.9190	 4.9930
 3.9220	 5.0240
 3.9250	 5.0510
 3.9280	 5.0360
 3.9310	 4.9720
 3.9340	 4.9470
 3.9370	 4.9870
 3.9400	 4.9810
 3.9430	 4.9610
 3.9460	 4.9860
 3.9490	 4.9940
 3.9520	 5.0100
 3.9550	 5.0050
 3.9580	 4.9590
 3.9610	 4.9590
 3.9640	 4.9510
 3.9670	 4.9670
 3.9700	 4.9940
 3.9730	 4.9510
 3.9770	 4.9300
 3.9800	 4.9370
 3.9830	 4.9280
 3.9860	 4.9600
 3.9890	 4.9700
 3.9920	 4.9490
 3.9950	 4.9710
 3.9980	 4.9940
 4.0010	 5.0020
 4.0040	 4.9920
 4.0070	 4.9580
 4.0100	 4.9390
 4.0130	 4.9340
 4.0170	 4.9420
 4.0200	 4.9590
 4.0230	 5.0030
 4.0260	 4.9780
 4.0290	 4.9700
 4.0320	 4.9570
 4.0350	 4.9480
 4.0380	 4.9800
 4.0420	 4.9890
 4.0450	 4.9870
 4.0480	 5.0240
 4.0510	 5.0570
 4.0540	 5.0700
 4.0570	 5.0300
 4.0610	 5.0150
 4.0640	 5.0280
 4.0670	 4.9730
 4.0700	 4.9600
 4.0730	 5.0030
 4.0770	 4.9940
 4.0800	 4.9410
 4.0830	 4.9400
 4.0860	 5.0230
 4.0890	 5.0250
 4.0930	 5.0210
 4.0960	 5.0290
 4.0990	 5.0000
 4.1020	 4.9710
 4.1060	 4.9930
 4.1090	 4.9920
 4.1120	 5.0220
 4.1150	 5.0310
 4.1190	 4.9820
 4.1220	 4.9580
 4.1250	 4.9430
 4.1280	 4.9590
 4.1320	 4.9460
 4.1350	 4.9850
 4.1380	 4.9920
 4.1420	 4.9640
 4.1450	 4.9300
 4.1480	 4.9290
 4.1520	 4.9520
 4.1550	 4.9100
 4.1580	 4.9060
 4.1620	 4.9260
 4.1650	 4.9620
 4.1680	 5.0570
 4.1720	 4.9950
 4.1750	 4.9250
 4.1780	 4.9250
 4.1820	 4.9250
 4.1850	 4.8890
 4.1890	 4.8790
 4.1920	 4.9210
 4.1950	 4.9450
 4.1990	 4.9310
 4.2020	 4.8940
 4.2060	 4.9000
 4.2090	 4.9670
 4.2120	 5.0420
 4.2160	 5.0110
 4.2190	 4.8610
 4.2230	 4.9530
 4.2260	 5.1520
 4.2300	 4.9990
 4.2330	 4.7430
 4.2360	 4.8830
 4.2400	 4.9950
 4.2430	 4.9520
 4.2470	 4.9460
 4.2500	 4.9220
 4.2540	 4.8900
 4.2570	 4.8700
 4.2610	 4.8580
 4.2640	 4.9030
 4.2680	 4.9420
 4.2710	 4.9150
 4.2750	 4.8950
 4.2780	 4.8830
 4.2820	 4.8280
 4.2850	 4.8290
 4.2890	 4.8240
 4.2930	 4.7800
 4.2960	 4.7270
 4.3000	 4.8360
 4.3030	 4.8310
 4.3070	 4.7700
 4.3100	 4.7830
 4.3140	 4.8470
 4.3180	 4.9190
 4.3210	 4.9490
 4.3250	 4.9200
 4.3280	 4.8790
 4.3320	 4.8880
 4.3360	 4.9080
 4.3390	 4.8690
 4.3430	 4.8480
 4.3470	 4.8590
 4.3500	 4.8520
 4.3540	 4.8360
 4.3570	 4.8210
 4.3610	 4.7830
 4.3650	 4.7890
 4.3680	 4.7930
 4.3720	 4.7890
 4.3760	 4.7950
 4.3800	 4.8600
 4.3830	 4.9260
 4.3870	 4.8530
 4.3910	 4.7840
 4.3940	 4.7550
 4.3980	 4.7570
 4.4020	 4.7650
 4.4060	 4.7800
 4.4090	 4.8160
 4.4130	 4.8020
 4.4170	 4.8170
 4.4210	 4.8220
 4.4240	 4.8290
 4.4280	 4.8020
 4.4320	 4.7340
 4.4360	 4.7730
 4.4400	 4.8730
 4.4430	 4.8560
 4.4470	 4.7340
 4.4510	 4.7030
 4.4550	 4.7720
 4.4590	 4.7780
 4.4620	 4.7480
 4.4660	 4.7240
 4.4700	 4.7860
 4.4740	 4.7910
 4.4780	 4.7690
 4.4820	 4.7430
 4.4860	 4.7600
 4.4900	 4.7720
 4.4930	 4.7370
 4.4970	 4.7770
 4.5010	 4.8460
 4.5050	 4.8170
 4.5090	 4.7310
 4.5130	 4.6940
 4.5170	 4.7510
 4.5210	 4.7540
 4.5250	 4.7100
 4.5290	 4.7000
 4.5330	 4.7790
 4.5370	 4.7720
 4.5410	 4.7100
 4.5450	 4.7250
 4.5490	 4.7620
 4.5530	 4.7250
 4.5570	 4.7180
 4.5610	 4.7480
 4.5650	 4.7860
 4.5690	 4.7260
 4.5730	 4.7190
 4.5770	 4.7560
 4.5810	 4.7900
 4.5850	 4.7610
 4.5890	 4.7290
 4.5930	 4.6750
 4.5970	 4.6920
 4.6010	 4.7530
 4.6050	 4.7570
 4.6090	 4.7600
 4.6130	 4.7820
 4.6170	 4.7530
 4.6220	 4.7110
 4.6260	 4.6750
 4.6300	 4.6670
 4.6340	 4.7140
 4.6380	 4.7840
 4.6420	 4.7740
 4.6460	 4.6890
 4.6510	 4.7060
 4.6550	 4.7570
 4.6590	 4.7830
 4.6630	 4.7670
 4.6670	 4.7270
 4.6720	 4.7500
 4.6760	 4.7300
 4.6800	 4.6580
 4.6840	 4.6210
 4.6880	 4.6600
 4.6930	 4.6680
 4.6970	 4.6500
 4.7010	 4.6870
 4.7050	 4.7180
 4.7100	 4.6930
 4.7140	 4.6740
 4.7180	 4.6900
 4.7230	 4.7100
 4.7270	 4.6640
 4.7310	 4.6740
 4.7360	 4.6600
 4.7400	 4.6770
 4.7440	 4.7220
 4.7490	 4.7450
 4.7530	 4.6740
 4.7570	 4.6400
 4.7620	 4.6390
 4.7660	 4.6620
 4.7700	 4.6490
 4.7750	 4.6540
 4.7790	 4.6580
 4.7840	 4.7000
 4.7880	 4.7060
 4.7920	 4.7510
 4.7970	 4.8020
 4.8010	 4.7670
 4.8060	 4.6960
 4.8100	 4.6970
 4.8150	 4.7240
 4.8190	 4.7010
 4.8240	 4.6570
 4.8280	 4.6430
 4.8330	 4.6380
 4.8370	 4.6640
 4.8420	 4.6580
 4.8460	 4.6820
 4.8510	 4.6410
 4.8550	 4.6270
 4.8600	 4.6480
 4.8640	 4.6840
 4.8690	 4.6420
 4.8730	 4.6630
 4.8780	 4.6760
 4.8830	 4.6710
 4.8870	 4.6540
 4.8920	 4.6480
 4.8960	 4.6300
 4.9010	 4.6090
 4.9060	 4.5930
 4.9100	 4.5880
 4.9150	 4.6080
 4.9200	 4.7040
 4.9240	 4.6820
 4.9290	 4.6390
 4.9340	 4.6160
 4.9380	 4.6530
 4.9430	 4.6360
 4.9480	 4.6360
 4.9530	 4.6790
 4.9570	 4.7140
 4.9620	 4.6630
 4.9670	 4.6600
 4.9720	 4.6460
 4.9760	 4.6720
 4.9810	 4.6470
 4.9860	 4.6600
 4.9910	 4.6360
 4.9960	 4.6440
 5.0000	 4.5680
 5.0050	 4.5370
 5.0100	 4.5680
 5.0150	 4.6660
 5.0200	 4.6430
 5.0250	 4.6560
 5.0290	 4.6760
 5.0340	 4.6790
 5.0390	 4.6410
 5.0440	 4.6510
 5.0490	 4.6730
 5.0540	 4.7040
 5.0590	 4.6480
 5.0640	 4.6330
 5.0690	 4.6360
 5.0740	 4.6730
 5.0790	 4.6240
 5.0840	 4.6700
 5.0890	 4.7040
 5.0940	 4.7220
 5.0990	 4.6990
 5.1040	 4.6800
 5.1090	 4.6180
 5.1140	 4.6810
 5.1190	 4.6920
 5.1240	 4.7140
 5.1290	 4.6920
 5.1340	 4.7170
 5.1390	 4.6620
 5.1440	 4.6600
 5.1490	 4.6830
 5.1540	 4.7550
 5.1600	 4.7600
 5.1650	 4.6850
 5.1700	 4.6100
 5.1750	 4.6170
 5.1800	 4.6030
 5.1850	 4.6100
 5.1910	 4.6470
 5.1960	 4.6920
 5.2010	 4.6650
 5.2060	 4.6710
 5.2110	 4.6230
 5.2170	 4.6360
 5.2220	 4.6470
 5.2270	 4.6430
 5.2320	 4.6250
 5.2380	 4.6530
 5.2430	 4.5980
 5.2480	 4.6190
 5.2540	 4.6350
 5.2590	 4.6460
 5.2640	 4.6340
 5.2700	 4.6660
 5.2750	 4.6920
 5.2800	 4.7320
 5.2860	 4.6870
 5.2910	 4.6740
 5.2970	 4.6340
 5.3020	 4.6200
 5.3070	 4.6220
 5.3130	 4.6370
 5.3180	 4.6420
 5.3240	 4.6300
 5.3290	 4.5860
 5.3350	 4.6580
 5.3400	 4.6430
 5.3460	 4.6150
 5.3510	 4.5990
 5.3570	 4.6290
 5.3620	 4.6190
 5.3680	 4.6220
 5.3730	 4.5980
 5.3790	 4.5600
 5.3850	 4.5190
 5.3900	 4.5820
 5.3960	 4.5470
 5.4010	 4.5470
 5.4070	 4.5690
 5.4130	 4.5800
 5.4180	 4.5240
 5.4240	 4.5490
 5.4300	 4.5360
 5.4350	 4.5780
