Name: Melaleuca linariifolia
Type: vegetation
Class: Tree
Genus: Melaleuca
Species: linariifolia
Sample No.: JPL197
Owner: JPL
Wavelength Range: VSWIR
Origin: 34.12556; -118.11365; WGS84
Collection Date: 10/3/2016
Description: Samples were collected at the Huntington Garden in San Marino California as part of a JPL Subcontract studying HyTES imagery. Samples were taken to JPL and processed within 48 hours of collection. The same leaves were processed in the Nicolet and then measured using the ASD.
Measurement: Bidirectional reflectance
First Column: X
Second Column: Y
X Units: Wavelength (micrometer)
Y Units: Reflectance (percentage)
First X Value: 0.35
Last X Value: 2.5
Number of X Values: 2151
Additional Information: vegetation.tree.melaleuca.linariifolia.vswir.jpl197.jpl.asd.ancillary.txt

 0.3500	 6.2060
 0.3510	 6.2900
 0.3520	 6.2480
 0.3530	 6.1440
 0.3540	 6.0750
 0.3550	 6.0740
 0.3560	 6.0820
 0.3570	 6.0760
 0.3580	 6.0610
 0.3590	 6.1240
 0.3600	 6.1520
 0.3610	 6.0820
 0.3620	 5.9420
 0.3630	 5.9220
 0.3640	 5.9530
 0.3650	 5.9220
 0.3660	 5.8220
 0.3670	 5.8080
 0.3680	 5.8330
 0.3690	 5.7360
 0.3700	 5.7540
 0.3710	 5.7640
 0.3720	 5.7170
 0.3730	 5.7810
 0.3740	 5.7950
 0.3750	 5.7640
 0.3760	 5.7380
 0.3770	 5.6800
 0.3780	 5.6980
 0.3790	 5.7440
 0.3800	 5.6540
 0.3810	 5.6260
 0.3820	 5.6720
 0.3830	 5.7370
 0.3840	 5.6850
 0.3850	 5.6440
 0.3860	 5.6360
 0.3870	 5.6380
 0.3880	 5.6540
 0.3890	 5.6280
 0.3900	 5.5810
 0.3910	 5.6070
 0.3920	 5.6170
 0.3930	 5.6170
 0.3940	 5.6190
 0.3950	 5.6090
 0.3960	 5.5960
 0.3970	 5.5810
 0.3980	 5.5620
 0.3990	 5.5800
 0.4000	 5.5950
 0.4010	 5.5880
 0.4020	 5.5780
 0.4030	 5.5880
 0.4040	 5.6090
 0.4050	 5.6240
 0.4060	 5.6300
 0.4070	 5.6360
 0.4080	 5.6440
 0.4090	 5.6530
 0.4100	 5.6910
 0.4110	 5.7120
 0.4120	 5.7060
 0.4130	 5.7400
 0.4140	 5.7610
 0.4150	 5.7810
 0.4160	 5.8230
 0.4170	 5.8780
 0.4180	 5.9160
 0.4190	 5.9360
 0.4200	 5.9620
 0.4210	 6.0030
 0.4220	 6.0470
 0.4230	 6.0850
 0.4240	 6.1230
 0.4250	 6.1550
 0.4260	 6.1870
 0.4270	 6.2290
 0.4280	 6.2750
 0.4290	 6.3160
 0.4300	 6.3530
 0.4310	 6.3920
 0.4320	 6.4350
 0.4330	 6.4730
 0.4340	 6.4960
 0.4350	 6.5320
 0.4360	 6.5700
 0.4370	 6.6030
 0.4380	 6.6320
 0.4390	 6.6550
 0.4400	 6.6800
 0.4410	 6.7110
 0.4420	 6.7340
 0.4430	 6.7630
 0.4440	 6.8030
 0.4450	 6.8520
 0.4460	 6.8940
 0.4470	 6.9270
 0.4480	 6.9600
 0.4490	 7.0110
 0.4500	 7.0530
 0.4510	 7.0910
 0.4520	 7.1310
 0.4530	 7.1600
 0.4540	 7.1940
 0.4550	 7.2300
 0.4560	 7.2530
 0.4570	 7.2680
 0.4580	 7.2840
 0.4590	 7.3040
 0.4600	 7.3180
 0.4610	 7.3330
 0.4620	 7.3430
 0.4630	 7.3440
 0.4640	 7.3530
 0.4650	 7.3620
 0.4660	 7.3680
 0.4670	 7.3720
 0.4680	 7.3800
 0.4690	 7.3820
 0.4700	 7.3770
 0.4710	 7.3780
 0.4720	 7.3820
 0.4730	 7.3850
 0.4740	 7.3810
 0.4750	 7.3820
 0.4760	 7.3850
 0.4770	 7.3880
 0.4780	 7.3920
 0.4790	 7.4000
 0.4800	 7.4060
 0.4810	 7.4110
 0.4820	 7.4180
 0.4830	 7.4280
 0.4840	 7.4410
 0.4850	 7.4530
 0.4860	 7.4790
 0.4870	 7.5090
 0.4880	 7.5360
 0.4890	 7.5680
 0.4900	 7.6050
 0.4910	 7.6490
 0.4920	 7.6990
 0.4930	 7.7560
 0.4940	 7.8230
 0.4950	 7.8990
 0.4960	 7.9770
 0.4970	 8.0630
 0.4980	 8.1560
 0.4990	 8.2540
 0.5000	 8.3660
 0.5010	 8.4900
 0.5020	 8.6220
 0.5030	 8.7620
 0.5040	 8.9110
 0.5050	 9.0700
 0.5060	 9.2420
 0.5070	 9.4270
 0.5080	 9.6180
 0.5090	 9.8130
 0.5100	10.0150
 0.5110	10.2280
 0.5120	10.4480
 0.5130	10.6760
 0.5140	10.9130
 0.5150	11.1560
 0.5160	11.4020
 0.5170	11.6520
 0.5180	11.8980
 0.5190	12.1540
 0.5200	12.4160
 0.5210	12.6640
 0.5220	12.9150
 0.5230	13.1620
 0.5240	13.3960
 0.5250	13.6200
 0.5260	13.8350
 0.5270	14.0390
 0.5280	14.2290
 0.5290	14.4130
 0.5300	14.5870
 0.5310	14.7460
 0.5320	14.8920
 0.5330	15.0320
 0.5340	15.1610
 0.5350	15.2750
 0.5360	15.3840
 0.5370	15.4890
 0.5380	15.5910
 0.5390	15.6950
 0.5400	15.8100
 0.5410	15.9370
 0.5420	16.0650
 0.5430	16.1680
 0.5440	16.2440
 0.5450	16.2930
 0.5460	16.3170
 0.5470	16.3230
 0.5480	16.3330
 0.5490	16.3570
 0.5500	16.3880
 0.5510	16.4160
 0.5520	16.4350
 0.5530	16.4430
 0.5540	16.4410
 0.5550	16.4290
 0.5560	16.4090
 0.5570	16.3820
 0.5580	16.3450
 0.5590	16.3010
 0.5600	16.2510
 0.5610	16.1980
 0.5620	16.1370
 0.5630	16.0690
 0.5640	15.9910
 0.5650	15.9030
 0.5660	15.8080
 0.5670	15.7060
 0.5680	15.5950
 0.5690	15.4780
 0.5700	15.3570
 0.5710	15.2360
 0.5720	15.1180
 0.5730	15.0050
 0.5740	14.8990
 0.5750	14.8040
 0.5760	14.7170
 0.5770	14.6350
 0.5780	14.5520
 0.5790	14.4740
 0.5800	14.4010
 0.5810	14.3300
 0.5820	14.2590
 0.5830	14.1960
 0.5840	14.1360
 0.5850	14.0750
 0.5860	14.0130
 0.5870	13.9530
 0.5880	13.8940
 0.5890	13.8370
 0.5900	13.7940
 0.5910	13.7620
 0.5920	13.7360
 0.5930	13.7110
 0.5940	13.6870
 0.5950	13.6620
 0.5960	13.6360
 0.5970	13.6130
 0.5980	13.5920
 0.5990	13.5670
 0.6000	13.5340
 0.6010	13.4960
 0.6020	13.4530
 0.6030	13.4070
 0.6040	13.3550
 0.6050	13.2930
 0.6060	13.2230
 0.6070	13.1480
 0.6080	13.0640
 0.6090	12.9890
 0.6100	12.9320
 0.6110	12.8890
 0.6120	12.7890
 0.6130	12.6510
 0.6140	12.5070
 0.6150	12.3910
 0.6160	12.2830
 0.6170	12.1800
 0.6180	12.0890
 0.6190	12.0070
 0.6200	11.9360
 0.6210	11.8730
 0.6220	11.8130
 0.6230	11.7580
 0.6240	11.7120
 0.6250	11.6770
 0.6260	11.6480
 0.6270	11.6250
 0.6280	11.6100
 0.6290	11.6010
 0.6300	11.5940
 0.6310	11.5830
 0.6320	11.5620
 0.6330	11.5310
 0.6340	11.4910
 0.6350	11.4400
 0.6360	11.3740
 0.6370	11.2890
 0.6380	11.1910
 0.6390	11.0800
 0.6400	10.9550
 0.6410	10.8150
 0.6420	10.6680
 0.6430	10.5150
 0.6440	10.3550
 0.6450	10.1950
 0.6460	10.0370
 0.6470	 9.8820
 0.6480	 9.7390
 0.6490	 9.6120
 0.6500	 9.5010
 0.6510	 9.4090
 0.6520	 9.3210
 0.6530	 9.2370
 0.6540	 9.1560
 0.6550	 9.0680
 0.6560	 8.9670
 0.6570	 8.8520
 0.6580	 8.7240
 0.6590	 8.5790
 0.6600	 8.4230
 0.6610	 8.2610
 0.6620	 8.0940
 0.6630	 7.9270
 0.6640	 7.7650
 0.6650	 7.6130
 0.6660	 7.4690
 0.6670	 7.3430
 0.6680	 7.2340
 0.6690	 7.1390
 0.6700	 7.0620
 0.6710	 7.0010
 0.6720	 6.9560
 0.6730	 6.9270
 0.6740	 6.9090
 0.6750	 6.9030
 0.6760	 6.9120
 0.6770	 6.9290
 0.6780	 6.9600
 0.6790	 7.0080
 0.6800	 7.0760
 0.6810	 7.1750
 0.6820	 7.3090
 0.6830	 7.4810
 0.6840	 7.6970
 0.6850	 7.9660
 0.6860	 8.2940
 0.6870	 8.6850
 0.6880	 9.1390
 0.6890	 9.6650
 0.6900	10.2600
 0.6910	10.9180
 0.6920	11.6360
 0.6930	12.4080
 0.6940	13.2280
 0.6950	14.0890
 0.6960	14.9800
 0.6970	15.8910
 0.6980	16.8160
 0.6990	17.7520
 0.7000	18.6890
 0.7010	19.6220
 0.7020	20.5460
 0.7030	21.4510
 0.7040	22.3380
 0.7050	23.2090
 0.7060	24.0640
 0.7070	24.8990
 0.7080	25.7140
 0.7090	26.5120
 0.7100	27.2930
 0.7110	28.0630
 0.7120	28.8240
 0.7130	29.5700
 0.7140	30.2990
 0.7150	31.0150
 0.7160	31.7190
 0.7170	32.4160
 0.7180	33.0930
 0.7190	33.7530
 0.7200	34.4000
 0.7210	35.0270
 0.7220	35.6350
 0.7230	36.2230
 0.7240	36.7890
 0.7250	37.3330
 0.7260	37.8550
 0.7270	38.3540
 0.7280	38.8260
 0.7290	39.2740
 0.7300	39.7000
 0.7310	40.1020
 0.7320	40.4870
 0.7330	40.8480
 0.7340	41.1840
 0.7350	41.5000
 0.7360	41.7950
 0.7370	42.0720
 0.7380	42.3340
 0.7390	42.5760
 0.7400	42.8010
 0.7410	43.0100
 0.7420	43.2040
 0.7430	43.3830
 0.7440	43.5460
 0.7450	43.6950
 0.7460	43.8340
 0.7470	43.9590
 0.7480	44.0730
 0.7490	44.1780
 0.7500	44.2740
 0.7510	44.3600
 0.7520	44.4380
 0.7530	44.5120
 0.7540	44.5760
 0.7550	44.6360
 0.7560	44.6940
 0.7570	44.7480
 0.7580	44.7970
 0.7590	44.8430
 0.7600	44.8870
 0.7610	44.9260
 0.7620	44.9610
 0.7630	44.9950
 0.7640	45.0270
 0.7650	45.0570
 0.7660	45.0850
 0.7670	45.1090
 0.7680	45.1320
 0.7690	45.1550
 0.7700	45.1800
 0.7710	45.2030
 0.7720	45.2190
 0.7730	45.2360
 0.7740	45.2560
 0.7750	45.2770
 0.7760	45.2920
 0.7770	45.3120
 0.7780	45.3340
 0.7790	45.3500
 0.7800	45.3650
 0.7810	45.3830
 0.7820	45.4030
 0.7830	45.4170
 0.7840	45.4340
 0.7850	45.4500
 0.7860	45.4620
 0.7870	45.4740
 0.7880	45.4860
 0.7890	45.4970
 0.7900	45.5070
 0.7910	45.5170
 0.7920	45.5270
 0.7930	45.5370
 0.7940	45.5460
 0.7950	45.5560
 0.7960	45.5620
 0.7970	45.5640
 0.7980	45.5690
 0.7990	45.5750
 0.8000	45.5770
 0.8010	45.5730
 0.8020	45.5790
 0.8030	45.5800
 0.8040	45.5780
 0.8050	45.5790
 0.8060	45.5770
 0.8070	45.5740
 0.8080	45.5710
 0.8090	45.5700
 0.8100	45.5650
 0.8110	45.5610
 0.8120	45.5570
 0.8130	45.5500
 0.8140	45.5420
 0.8150	45.5340
 0.8160	45.5270
 0.8170	45.5190
 0.8180	45.5120
 0.8190	45.5060
 0.8200	45.5020
 0.8210	45.4950
 0.8220	45.4850
 0.8230	45.4740
 0.8240	45.4650
 0.8250	45.4570
 0.8260	45.4500
 0.8270	45.4420
 0.8280	45.4330
 0.8290	45.4230
 0.8300	45.4120
 0.8310	45.4020
 0.8320	45.3920
 0.8330	45.3830
 0.8340	45.3740
 0.8350	45.3660
 0.8360	45.3630
 0.8370	45.3580
 0.8380	45.3510
 0.8390	45.3500
 0.8400	45.3510
 0.8410	45.3500
 0.8420	45.3450
 0.8430	45.3420
 0.8440	45.3400
 0.8450	45.3400
 0.8460	45.3410
 0.8470	45.3420
 0.8480	45.3420
 0.8490	45.3430
 0.8500	45.3460
 0.8510	45.3480
 0.8520	45.3500
 0.8530	45.3550
 0.8540	45.3630
 0.8550	45.3620
 0.8560	45.3620
 0.8570	45.3680
 0.8580	45.3720
 0.8590	45.3760
 0.8600	45.3810
 0.8610	45.3870
 0.8620	45.3950
 0.8630	45.4020
 0.8640	45.4070
 0.8650	45.4110
 0.8660	45.4200
 0.8670	45.4260
 0.8680	45.4300
 0.8690	45.4360
 0.8700	45.4430
 0.8710	45.4520
 0.8720	45.4620
 0.8730	45.4710
 0.8740	45.4810
 0.8750	45.4900
 0.8760	45.4990
 0.8770	45.5100
 0.8780	45.5180
 0.8790	45.5220
 0.8800	45.5250
 0.8810	45.5410
 0.8820	45.5540
 0.8830	45.5620
 0.8840	45.5680
 0.8850	45.5750
 0.8860	45.5820
 0.8870	45.5870
 0.8880	45.5940
 0.8890	45.5990
 0.8900	45.6070
 0.8910	45.6150
 0.8920	45.6190
 0.8930	45.6230
 0.8940	45.6300
 0.8950	45.6360
 0.8960	45.6380
 0.8970	45.6430
 0.8980	45.6490
 0.8990	45.6550
 0.9000	45.6600
 0.9010	45.6640
 0.9020	45.6670
 0.9030	45.6690
 0.9040	45.6730
 0.9050	45.6800
 0.9060	45.6860
 0.9070	45.6860
 0.9080	45.6850
 0.9090	45.6870
 0.9100	45.6890
 0.9110	45.6840
 0.9120	45.6840
 0.9130	45.6930
 0.9140	45.7000
 0.9150	45.6980
 0.9160	45.6960
 0.9170	45.6980
 0.9180	45.7000
 0.9190	45.6930
 0.9200	45.6910
 0.9210	45.6870
 0.9220	45.6850
 0.9230	45.6850
 0.9240	45.6750
 0.9250	45.6560
 0.9260	45.6380
 0.9270	45.6340
 0.9280	45.6200
 0.9290	45.6020
 0.9300	45.5840
 0.9310	45.5710
 0.9320	45.5590
 0.9330	45.5340
 0.9340	45.5010
 0.9350	45.4800
 0.9360	45.4590
 0.9370	45.4300
 0.9380	45.3950
 0.9390	45.3670
 0.9400	45.3450
 0.9410	45.3190
 0.9420	45.2790
 0.9430	45.2320
 0.9440	45.1930
 0.9450	45.1590
 0.9460	45.1190
 0.9470	45.0640
 0.9480	45.0070
 0.9490	44.9480
 0.9500	44.8880
 0.9510	44.8340
 0.9520	44.7660
 0.9530	44.6880
 0.9540	44.6130
 0.9550	44.5480
 0.9560	44.4860
 0.9570	44.4230
 0.9580	44.3610
 0.9590	44.2970
 0.9600	44.2470
 0.9610	44.2000
 0.9620	44.1440
 0.9630	44.0980
 0.9640	44.0580
 0.9650	44.0230
 0.9660	43.9880
 0.9670	43.9520
 0.9680	43.9240
 0.9690	43.9010
 0.9700	43.8780
 0.9710	43.8670
 0.9720	43.8590
 0.9730	43.8390
 0.9740	43.8040
 0.9750	43.7950
 0.9760	43.7860
 0.9770	43.7760
 0.9780	43.7760
 0.9790	43.7780
 0.9800	43.7630
 0.9810	43.7410
 0.9820	43.7390
 0.9830	43.7410
 0.9840	43.7390
 0.9850	43.7400
 0.9860	43.7560
 0.9870	43.7530
 0.9880	43.7580
 0.9890	43.7670
 0.9900	43.7610
 0.9910	43.7590
 0.9920	43.7750
 0.9930	43.7980
 0.9940	43.8100
 0.9950	43.8350
 0.9960	43.8400
 0.9970	43.8400
 0.9980	43.8620
 0.9990	43.8620
 1.0000	43.8860
 1.0010	44.3680
 1.0020	44.3850
 1.0030	44.4030
 1.0040	44.4240
 1.0050	44.4460
 1.0060	44.4700
 1.0070	44.4940
 1.0080	44.5140
 1.0090	44.5270
 1.0100	44.5460
 1.0110	44.5630
 1.0120	44.5830
 1.0130	44.6090
 1.0140	44.6320
 1.0150	44.6540
 1.0160	44.6770
 1.0170	44.7030
 1.0180	44.7220
 1.0190	44.7380
 1.0200	44.7580
 1.0210	44.7800
 1.0220	44.8030
 1.0230	44.8250
 1.0240	44.8490
 1.0250	44.8710
 1.0260	44.8900
 1.0270	44.9090
 1.0280	44.9280
 1.0290	44.9480
 1.0300	44.9680
 1.0310	44.9870
 1.0320	45.0060
 1.0330	45.0280
 1.0340	45.0500
 1.0350	45.0710
 1.0360	45.0950
 1.0370	45.1190
 1.0380	45.1390
 1.0390	45.1550
 1.0400	45.1720
 1.0410	45.1830
 1.0420	45.1990
 1.0430	45.2190
 1.0440	45.2340
 1.0450	45.2480
 1.0460	45.2630
 1.0470	45.2750
 1.0480	45.2880
 1.0490	45.3050
 1.0500	45.3200
 1.0510	45.3330
 1.0520	45.3450
 1.0530	45.3560
 1.0540	45.3660
 1.0550	45.3770
 1.0560	45.3890
 1.0570	45.3990
 1.0580	45.4080
 1.0590	45.4160
 1.0600	45.4220
 1.0610	45.4290
 1.0620	45.4360
 1.0630	45.4410
 1.0640	45.4460
 1.0650	45.4510
 1.0660	45.4530
 1.0670	45.4560
 1.0680	45.4590
 1.0690	45.4610
 1.0700	45.4630
 1.0710	45.4660
 1.0720	45.4660
 1.0730	45.4660
 1.0740	45.4650
 1.0750	45.4620
 1.0760	45.4620
 1.0770	45.4630
 1.0780	45.4600
 1.0790	45.4560
 1.0800	45.4530
 1.0810	45.4470
 1.0820	45.4420
 1.0830	45.4390
 1.0840	45.4340
 1.0850	45.4290
 1.0860	45.4210
 1.0870	45.4120
 1.0880	45.4030
 1.0890	45.3940
 1.0900	45.3830
 1.0910	45.3740
 1.0920	45.3670
 1.0930	45.3580
 1.0940	45.3500
 1.0950	45.3410
 1.0960	45.3320
 1.0970	45.3200
 1.0980	45.3060
 1.0990	45.2920
 1.1000	45.2760
 1.1010	45.2610
 1.1020	45.2450
 1.1030	45.2290
 1.1040	45.2150
 1.1050	45.2000
 1.1060	45.1840
 1.1070	45.1680
 1.1080	45.1520
 1.1090	45.1350
 1.1100	45.1160
 1.1110	45.0970
 1.1120	45.0780
 1.1130	45.0560
 1.1140	45.0330
 1.1150	45.0120
 1.1160	44.9860
 1.1170	44.9580
 1.1180	44.9280
 1.1190	44.8960
 1.1200	44.8610
 1.1210	44.8250
 1.1220	44.7850
 1.1230	44.7430
 1.1240	44.6960
 1.1250	44.6430
 1.1260	44.5840
 1.1270	44.5180
 1.1280	44.4460
 1.1290	44.3680
 1.1300	44.2860
 1.1310	44.1940
 1.1320	44.0960
 1.1330	43.9890
 1.1340	43.8740
 1.1350	43.7520
 1.1360	43.6230
 1.1370	43.4840
 1.1380	43.3380
 1.1390	43.1880
 1.1400	43.0320
 1.1410	42.8720
 1.1420	42.7110
 1.1430	42.5470
 1.1440	42.3850
 1.1450	42.2200
 1.1460	42.0600
 1.1470	41.8990
 1.1480	41.7440
 1.1490	41.5910
 1.1500	41.4470
 1.1510	41.3070
 1.1520	41.1750
 1.1530	41.0520
 1.1540	40.9360
 1.1550	40.8260
 1.1560	40.7240
 1.1570	40.6300
 1.1580	40.5420
 1.1590	40.4630
 1.1600	40.3890
 1.1610	40.3180
 1.1620	40.2540
 1.1630	40.1960
 1.1640	40.1410
 1.1650	40.0900
 1.1660	40.0450
 1.1670	39.9990
 1.1680	39.9540
 1.1690	39.9100
 1.1700	39.8680
 1.1710	39.8270
 1.1720	39.7880
 1.1730	39.7480
 1.1740	39.7090
 1.1750	39.6700
 1.1760	39.6290
 1.1770	39.5900
 1.1780	39.5510
 1.1790	39.5110
 1.1800	39.4710
 1.1810	39.4290
 1.1820	39.3890
 1.1830	39.3530
 1.1840	39.3170
 1.1850	39.2840
 1.1860	39.2530
 1.1870	39.2220
 1.1880	39.1960
 1.1890	39.1710
 1.1900	39.1510
 1.1910	39.1340
 1.1920	39.1190
 1.1930	39.1090
 1.1940	39.1000
 1.1950	39.0930
 1.1960	39.0900
 1.1970	39.0890
 1.1980	39.0910
 1.1990	39.0970
 1.2000	39.1060
 1.2010	39.1150
 1.2020	39.1260
 1.2030	39.1390
 1.2040	39.1550
 1.2050	39.1700
 1.2060	39.1860
 1.2070	39.2060
 1.2080	39.2260
 1.2090	39.2500
 1.2100	39.2780
 1.2110	39.3050
 1.2120	39.3320
 1.2130	39.3610
 1.2140	39.3910
 1.2150	39.4220
 1.2160	39.4560
 1.2170	39.4920
 1.2180	39.5290
 1.2190	39.5660
 1.2200	39.6050
 1.2210	39.6450
 1.2220	39.6840
 1.2230	39.7210
 1.2240	39.7600
 1.2250	39.7990
 1.2260	39.8370
 1.2270	39.8750
 1.2280	39.9100
 1.2290	39.9430
 1.2300	39.9760
 1.2310	40.0090
 1.2320	40.0410
 1.2330	40.0710
 1.2340	40.0990
 1.2350	40.1240
 1.2360	40.1490
 1.2370	40.1740
 1.2380	40.2000
 1.2390	40.2230
 1.2400	40.2460
 1.2410	40.2680
 1.2420	40.2890
 1.2430	40.3100
 1.2440	40.3310
 1.2450	40.3520
 1.2460	40.3710
 1.2470	40.3890
 1.2480	40.4070
 1.2490	40.4240
 1.2500	40.4390
 1.2510	40.4540
 1.2520	40.4690
 1.2530	40.4810
 1.2540	40.4940
 1.2550	40.5050
 1.2560	40.5150
 1.2570	40.5250
 1.2580	40.5340
 1.2590	40.5410
 1.2600	40.5490
 1.2610	40.5540
 1.2620	40.5570
 1.2630	40.5590
 1.2640	40.5600
 1.2650	40.5600
 1.2660	40.5590
 1.2670	40.5580
 1.2680	40.5560
 1.2690	40.5540
 1.2700	40.5500
 1.2710	40.5440
 1.2720	40.5380
 1.2730	40.5300
 1.2740	40.5200
 1.2750	40.5100
 1.2760	40.4980
 1.2770	40.4860
 1.2780	40.4750
 1.2790	40.4600
 1.2800	40.4430
 1.2810	40.4250
 1.2820	40.4020
 1.2830	40.3790
 1.2840	40.3560
 1.2850	40.3290
 1.2860	40.3020
 1.2870	40.2720
 1.2880	40.2410
 1.2890	40.2060
 1.2900	40.1690
 1.2910	40.1300
 1.2920	40.0900
 1.2930	40.0460
 1.2940	40.0020
 1.2950	39.9560
 1.2960	39.9060
 1.2970	39.8550
 1.2980	39.8000
 1.2990	39.7400
 1.3000	39.6790
 1.3010	39.6170
 1.3020	39.5520
 1.3030	39.4810
 1.3040	39.4070
 1.3050	39.3320
 1.3060	39.2530
 1.3070	39.1720
 1.3080	39.0900
 1.3090	39.0020
 1.3100	38.9110
 1.3110	38.8190
 1.3120	38.7230
 1.3130	38.6250
 1.3140	38.5220
 1.3150	38.4160
 1.3160	38.3070
 1.3170	38.1950
 1.3180	38.0790
 1.3190	37.9600
 1.3200	37.8380
 1.3210	37.7110
 1.3220	37.5820
 1.3230	37.4510
 1.3240	37.3170
 1.3250	37.1830
 1.3260	37.0440
 1.3270	36.9020
 1.3280	36.7580
 1.3290	36.6120
 1.3300	36.4650
 1.3310	36.3160
 1.3320	36.1620
 1.3330	36.0100
 1.3340	35.8560
 1.3350	35.6980
 1.3360	35.5420
 1.3370	35.3850
 1.3380	35.2280
 1.3390	35.0760
 1.3400	34.9220
 1.3410	34.7680
 1.3420	34.6160
 1.3430	34.4630
 1.3440	34.3120
 1.3450	34.1640
 1.3460	34.0180
 1.3470	33.8740
 1.3480	33.7310
 1.3490	33.5900
 1.3500	33.4520
 1.3510	33.3150
 1.3520	33.1780
 1.3530	33.0410
 1.3540	32.9030
 1.3550	32.7670
 1.3560	32.6310
 1.3570	32.4930
 1.3580	32.3570
 1.3590	32.2180
 1.3600	32.0760
 1.3610	31.9330
 1.3620	31.7840
 1.3630	31.6300
 1.3640	31.4720
 1.3650	31.3060
 1.3660	31.1360
 1.3670	30.9590
 1.3680	30.7710
 1.3690	30.5740
 1.3700	30.3630
 1.3710	30.1400
 1.3720	29.9030
 1.3730	29.6520
 1.3740	29.3850
 1.3750	29.1000
 1.3760	28.7970
 1.3770	28.4730
 1.3780	28.1260
 1.3790	27.7590
 1.3800	27.3710
 1.3810	26.9580
 1.3820	26.5290
 1.3830	26.0790
 1.3840	25.6140
 1.3850	25.1290
 1.3860	24.6340
 1.3870	24.1190
 1.3880	23.6030
 1.3890	23.0760
 1.3900	22.5410
 1.3910	22.0100
 1.3920	21.4750
 1.3930	20.9390
 1.3940	20.4100
 1.3950	19.8820
 1.3960	19.3630
 1.3970	18.8580
 1.3980	18.3630
 1.3990	17.8890
 1.4000	17.4300
 1.4010	16.9850
 1.4020	16.5610
 1.4030	16.1520
 1.4040	15.7620
 1.4050	15.3920
 1.4060	15.0390
 1.4070	14.7100
 1.4080	14.3980
 1.4090	14.1030
 1.4100	13.8280
 1.4110	13.5670
 1.4120	13.3230
 1.4130	13.0970
 1.4140	12.8850
 1.4150	12.6890
 1.4160	12.5080
 1.4170	12.3370
 1.4180	12.1790
 1.4190	12.0300
 1.4200	11.8930
 1.4210	11.7640
 1.4220	11.6450
 1.4230	11.5360
 1.4240	11.4340
 1.4250	11.3390
 1.4260	11.2520
 1.4270	11.1700
 1.4280	11.0950
 1.4290	11.0240
 1.4300	10.9600
 1.4310	10.9000
 1.4320	10.8480
 1.4330	10.7980
 1.4340	10.7540
 1.4350	10.7130
 1.4360	10.6770
 1.4370	10.6440
 1.4380	10.6150
 1.4390	10.5880
 1.4400	10.5640
 1.4410	10.5430
 1.4420	10.5240
 1.4430	10.5090
 1.4440	10.4950
 1.4450	10.4840
 1.4460	10.4760
 1.4470	10.4700
 1.4480	10.4650
 1.4490	10.4630
 1.4500	10.4610
 1.4510	10.4590
 1.4520	10.4620
 1.4530	10.4650
 1.4540	10.4690
 1.4550	10.4760
 1.4560	10.4850
 1.4570	10.4950
 1.4580	10.5080
 1.4590	10.5240
 1.4600	10.5420
 1.4610	10.5630
 1.4620	10.5880
 1.4630	10.6160
 1.4640	10.6480
 1.4650	10.6830
 1.4660	10.7220
 1.4670	10.7650
 1.4680	10.8110
 1.4690	10.8600
 1.4700	10.9130
 1.4710	10.9690
 1.4720	11.0280
 1.4730	11.0910
 1.4740	11.1560
 1.4750	11.2240
 1.4760	11.2940
