Name: Heteromeles arbutifolia 2
Type: vegetation
Class: Shrub
Genus: Heteromeles
Species: arbutifolia
Sample No.: VH135
Owner: UCSB
Wavelength Range: VSWIR
Origin: 34.4907; -119.7912; WGS84
Collection Date: 6/3/2013
Description: Samples were collected as part of the HyspIRI Airborne Campaign. 48 individual plants were sampled in three times in 2013 - spring  summer  and fall. The name of the sample includes a 1  2  or 3 which references a different individual of the species. Samples were taken to JPL and processed within 48 hours of collection. The same leaves were processed in the Nicolet and then measured using the ASD.
Measurement: Bidirectional reflectance
First Column: X
Second Column: Y
X Units: Wavelength (micrometers)
Y Units: Reflectance (percentage)
First X Value: 0.35
Last X Value: 2.5
Number of X Values: 2151
Additional Information: vegetation.shrub.heteromeles.arbutifolia.vswir.vh135.ucsb.asd.ancillary.txt

 0.3500	 6.8410
 0.3510	 6.8000
 0.3520	 6.7520
 0.3530	 6.7570
 0.3540	 6.8270
 0.3550	 6.6980
 0.3560	 6.6610
 0.3570	 6.7430
 0.3580	 6.8150
 0.3590	 6.7480
 0.3600	 6.7220
 0.3610	 6.7770
 0.3620	 6.7150
 0.3630	 6.5780
 0.3640	 6.5130
 0.3650	 6.6070
 0.3660	 6.6300
 0.3670	 6.6160
 0.3680	 6.5700
 0.3690	 6.4880
 0.3700	 6.4760
 0.3710	 6.4840
 0.3720	 6.4840
 0.3730	 6.5410
 0.3740	 6.5680
 0.3750	 6.5540
 0.3760	 6.5250
 0.3770	 6.5650
 0.3780	 6.5700
 0.3790	 6.5160
 0.3800	 6.4550
 0.3810	 6.4580
 0.3820	 6.4710
 0.3830	 6.4620
 0.3840	 6.4840
 0.3850	 6.4930
 0.3860	 6.5030
 0.3870	 6.5300
 0.3880	 6.4900
 0.3890	 6.4420
 0.3900	 6.4280
 0.3910	 6.4650
 0.3920	 6.4570
 0.3930	 6.4250
 0.3940	 6.4060
 0.3950	 6.4190
 0.3960	 6.4280
 0.3970	 6.4350
 0.3980	 6.4490
 0.3990	 6.4130
 0.4000	 6.3810
 0.4010	 6.3840
 0.4020	 6.4030
 0.4030	 6.4360
 0.4040	 6.4360
 0.4050	 6.3860
 0.4060	 6.3820
 0.4070	 6.4090
 0.4080	 6.4370
 0.4090	 6.4340
 0.4100	 6.4270
 0.4110	 6.4240
 0.4120	 6.4270
 0.4130	 6.4280
 0.4140	 6.4490
 0.4150	 6.4720
 0.4160	 6.4760
 0.4170	 6.5020
 0.4180	 6.5210
 0.4190	 6.5300
 0.4200	 6.5510
 0.4210	 6.5360
 0.4220	 6.5330
 0.4230	 6.5700
 0.4240	 6.5870
 0.4250	 6.6080
 0.4260	 6.6220
 0.4270	 6.6070
 0.4280	 6.6160
 0.4290	 6.6290
 0.4300	 6.6370
 0.4310	 6.6570
 0.4320	 6.6640
 0.4330	 6.6650
 0.4340	 6.6710
 0.4350	 6.6690
 0.4360	 6.6700
 0.4370	 6.6730
 0.4380	 6.6750
 0.4390	 6.6800
 0.4400	 6.6860
 0.4410	 6.6900
 0.4420	 6.7010
 0.4430	 6.7130
 0.4440	 6.7160
 0.4450	 6.7030
 0.4460	 6.7090
 0.4470	 6.7230
 0.4480	 6.7380
 0.4490	 6.7520
 0.4500	 6.7600
 0.4510	 6.7660
 0.4520	 6.7730
 0.4530	 6.7740
 0.4540	 6.7740
 0.4550	 6.7730
 0.4560	 6.7650
 0.4570	 6.7730
 0.4580	 6.7750
 0.4590	 6.7620
 0.4600	 6.7680
 0.4610	 6.7700
 0.4620	 6.7660
 0.4630	 6.7660
 0.4640	 6.7710
 0.4650	 6.7750
 0.4660	 6.7740
 0.4670	 6.7690
 0.4680	 6.7660
 0.4690	 6.7610
 0.4700	 6.7520
 0.4710	 6.7580
 0.4720	 6.7550
 0.4730	 6.7490
 0.4740	 6.7580
 0.4750	 6.7620
 0.4760	 6.7610
 0.4770	 6.7560
 0.4780	 6.7480
 0.4790	 6.7430
 0.4800	 6.7440
 0.4810	 6.7550
 0.4820	 6.7530
 0.4830	 6.7540
 0.4840	 6.7620
 0.4850	 6.7690
 0.4860	 6.7660
 0.4870	 6.7690
 0.4880	 6.7840
 0.4890	 6.7940
 0.4900	 6.8010
 0.4910	 6.8070
 0.4920	 6.8130
 0.4930	 6.8270
 0.4940	 6.8400
 0.4950	 6.8500
 0.4960	 6.8660
 0.4970	 6.8860
 0.4980	 6.9100
 0.4990	 6.9390
 0.5000	 6.9620
 0.5010	 6.9920
 0.5020	 7.0300
 0.5030	 7.0690
 0.5040	 7.1150
 0.5050	 7.1640
 0.5060	 7.2180
 0.5070	 7.2850
 0.5080	 7.3580
 0.5090	 7.4390
 0.5100	 7.5310
 0.5110	 7.6300
 0.5120	 7.7370
 0.5130	 7.8550
 0.5140	 7.9980
 0.5150	 8.1420
 0.5160	 8.2970
 0.5170	 8.4730
 0.5180	 8.6560
 0.5190	 8.8500
 0.5200	 9.0540
 0.5210	 9.2610
 0.5220	 9.4740
 0.5230	 9.6940
 0.5240	 9.9210
 0.5250	10.1370
 0.5260	10.3440
 0.5270	10.5470
 0.5280	10.7480
 0.5290	10.9350
 0.5300	11.1080
 0.5310	11.2710
 0.5320	11.4240
 0.5330	11.5620
 0.5340	11.6850
 0.5350	11.7990
 0.5360	11.9020
 0.5370	11.9960
 0.5380	12.0810
 0.5390	12.1550
 0.5400	12.2270
 0.5410	12.2930
 0.5420	12.3540
 0.5430	12.4180
 0.5440	12.4750
 0.5450	12.5270
 0.5460	12.5800
 0.5470	12.6240
 0.5480	12.6630
 0.5490	12.6990
 0.5500	12.7290
 0.5510	12.7530
 0.5520	12.7660
 0.5530	12.7620
 0.5540	12.7440
 0.5550	12.7130
 0.5560	12.6660
 0.5570	12.6010
 0.5580	12.5250
 0.5590	12.4380
 0.5600	12.3380
 0.5610	12.2270
 0.5620	12.1100
 0.5630	11.9840
 0.5640	11.8490
 0.5650	11.7090
 0.5660	11.5620
 0.5670	11.4090
 0.5680	11.2530
 0.5690	11.0880
 0.5700	10.9240
 0.5710	10.7720
 0.5720	10.6270
 0.5730	10.4870
 0.5740	10.3510
 0.5750	10.2270
 0.5760	10.1150
 0.5770	10.0140
 0.5780	 9.9210
 0.5790	 9.8290
 0.5800	 9.7430
 0.5810	 9.6640
 0.5820	 9.5920
 0.5830	 9.5240
 0.5840	 9.4550
 0.5850	 9.3880
 0.5860	 9.3300
 0.5870	 9.2700
 0.5880	 9.2090
 0.5890	 9.1550
 0.5900	 9.1140
 0.5910	 9.0840
 0.5920	 9.0600
 0.5930	 9.0360
 0.5940	 9.0090
 0.5950	 8.9850
 0.5960	 8.9640
 0.5970	 8.9350
 0.5980	 8.9060
 0.5990	 8.8800
 0.6000	 8.8540
 0.6010	 8.8240
 0.6020	 8.7900
 0.6030	 8.7530
 0.6040	 8.7190
 0.6050	 8.6710
 0.6060	 8.6180
 0.6070	 8.5670
 0.6080	 8.5140
 0.6090	 8.4560
 0.6100	 8.3970
 0.6110	 8.3420
 0.6120	 8.2820
 0.6130	 8.2200
 0.6140	 8.1600
 0.6150	 8.1090
 0.6160	 8.0580
 0.6170	 8.0060
 0.6180	 7.9610
 0.6190	 7.9230
 0.6200	 7.8880
 0.6210	 7.8550
 0.6220	 7.8270
 0.6230	 7.8060
 0.6240	 7.7870
 0.6250	 7.7650
 0.6260	 7.7520
 0.6270	 7.7390
 0.6280	 7.7280
 0.6290	 7.7230
 0.6300	 7.7140
 0.6310	 7.7040
 0.6320	 7.6940
 0.6330	 7.6810
 0.6340	 7.6630
 0.6350	 7.6400
 0.6360	 7.6110
 0.6370	 7.5800
 0.6380	 7.5430
 0.6390	 7.4990
 0.6400	 7.4510
 0.6410	 7.4040
 0.6420	 7.3540
 0.6430	 7.3020
 0.6440	 7.2540
 0.6450	 7.2040
 0.6460	 7.1590
 0.6470	 7.1200
 0.6480	 7.0810
 0.6490	 7.0450
 0.6500	 7.0170
 0.6510	 6.9950
 0.6520	 6.9700
 0.6530	 6.9490
 0.6540	 6.9330
 0.6550	 6.9190
 0.6560	 6.8970
 0.6570	 6.8710
 0.6580	 6.8450
 0.6590	 6.8170
 0.6600	 6.7900
 0.6610	 6.7660
 0.6620	 6.7460
 0.6630	 6.7240
 0.6640	 6.7020
 0.6650	 6.6840
 0.6660	 6.6700
 0.6670	 6.6620
 0.6680	 6.6600
 0.6690	 6.6600
 0.6700	 6.6640
 0.6710	 6.6690
 0.6720	 6.6750
 0.6730	 6.6890
 0.6740	 6.7000
 0.6750	 6.7130
 0.6760	 6.7310
 0.6770	 6.7530
 0.6780	 6.7770
 0.6790	 6.8040
 0.6800	 6.8320
 0.6810	 6.8660
 0.6820	 6.9050
 0.6830	 6.9480
 0.6840	 6.9900
 0.6850	 7.0380
 0.6860	 7.0970
 0.6870	 7.1700
 0.6880	 7.2590
 0.6890	 7.3720
 0.6900	 7.5190
 0.6910	 7.7040
 0.6920	 7.9370
 0.6930	 8.2260
 0.6940	 8.5800
 0.6950	 9.0010
 0.6960	 9.4980
 0.6970	10.0710
 0.6980	10.7160
 0.6990	11.4390
 0.7000	12.2270
 0.7010	13.0750
 0.7020	13.9740
 0.7030	14.9170
 0.7040	15.8980
 0.7050	16.9080
 0.7060	17.9450
 0.7070	19.0020
 0.7080	20.0780
 0.7090	21.1730
 0.7100	22.2830
 0.7110	23.4060
 0.7120	24.5410
 0.7130	25.6910
 0.7140	26.8470
 0.7150	28.0150
 0.7160	29.1920
 0.7170	30.3640
 0.7180	31.5360
 0.7190	32.7090
 0.7200	33.8750
 0.7210	35.0330
 0.7220	36.1800
 0.7230	37.3120
 0.7240	38.4230
 0.7250	39.5070
 0.7260	40.5650
 0.7270	41.5960
 0.7280	42.5960
 0.7290	43.5570
 0.7300	44.4780
 0.7310	45.3610
 0.7320	46.2080
 0.7330	47.0200
 0.7340	47.7950
 0.7350	48.5290
 0.7360	49.2200
 0.7370	49.8750
 0.7380	50.4950
 0.7390	51.0800
 0.7400	51.6300
 0.7410	52.1420
 0.7420	52.6140
 0.7430	53.0570
 0.7440	53.4720
 0.7450	53.8590
 0.7460	54.2130
 0.7470	54.5420
 0.7480	54.8420
 0.7490	55.1140
 0.7500	55.3690
 0.7510	55.6030
 0.7520	55.8160
 0.7530	56.0090
 0.7540	56.1820
 0.7550	56.3420
 0.7560	56.4900
 0.7570	56.6240
 0.7580	56.7430
 0.7590	56.8500
 0.7600	56.9470
 0.7610	57.0420
 0.7620	57.1250
 0.7630	57.1970
 0.7640	57.2630
 0.7650	57.3260
 0.7660	57.3830
 0.7670	57.4330
 0.7680	57.4810
 0.7690	57.5230
 0.7700	57.5630
 0.7710	57.5990
 0.7720	57.6260
 0.7730	57.6560
 0.7740	57.6850
 0.7750	57.7080
 0.7760	57.7340
 0.7770	57.7590
 0.7780	57.7830
 0.7790	57.8070
 0.7800	57.8310
 0.7810	57.8500
 0.7820	57.8670
 0.7830	57.8860
 0.7840	57.9060
 0.7850	57.9210
 0.7860	57.9320
 0.7870	57.9520
 0.7880	57.9700
 0.7890	57.9850
 0.7900	57.9990
 0.7910	58.0070
 0.7920	58.0200
 0.7930	58.0380
 0.7940	58.0510
 0.7950	58.0590
 0.7960	58.0660
 0.7970	58.0720
 0.7980	58.0810
 0.7990	58.0880
 0.8000	58.0930
 0.8010	58.0980
 0.8020	58.1040
 0.8030	58.1080
 0.8040	58.1080
 0.8050	58.1030
 0.8060	58.1090
 0.8070	58.1140
 0.8080	58.1150
 0.8090	58.1120
 0.8100	58.1080
 0.8110	58.1060
 0.8120	58.1060
 0.8130	58.1030
 0.8140	58.0960
 0.8150	58.0890
 0.8160	58.0860
 0.8170	58.0880
 0.8180	58.0810
 0.8190	58.0720
 0.8200	58.0730
 0.8210	58.0740
 0.8220	58.0720
 0.8230	58.0650
 0.8240	58.0560
 0.8250	58.0520
 0.8260	58.0440
 0.8270	58.0320
 0.8280	58.0270
 0.8290	58.0200
 0.8300	58.0100
 0.8310	57.9990
 0.8320	57.9930
 0.8330	57.9870
 0.8340	57.9810
 0.8350	57.9760
 0.8360	57.9710
 0.8370	57.9710
 0.8380	57.9760
 0.8390	57.9740
 0.8400	57.9730
 0.8410	57.9700
 0.8420	57.9700
 0.8430	57.9790
 0.8440	57.9860
 0.8450	57.9890
 0.8460	57.9890
 0.8470	57.9880
 0.8480	57.9910
 0.8490	57.9970
 0.8500	58.0040
 0.8510	58.0110
 0.8520	58.0170
 0.8530	58.0200
 0.8540	58.0210
 0.8550	58.0240
 0.8560	58.0320
 0.8570	58.0410
 0.8580	58.0480
 0.8590	58.0510
 0.8600	58.0540
 0.8610	58.0580
 0.8620	58.0660
 0.8630	58.0700
 0.8640	58.0730
 0.8650	58.0800
 0.8660	58.0920
 0.8670	58.0980
 0.8680	58.0990
 0.8690	58.1000
 0.8700	58.1140
 0.8710	58.1220
 0.8720	58.1260
 0.8730	58.1350
 0.8740	58.1410
 0.8750	58.1450
 0.8760	58.1490
 0.8770	58.1550
 0.8780	58.1660
 0.8790	58.1770
 0.8800	58.1860
 0.8810	58.1950
 0.8820	58.2020
 0.8830	58.2080
 0.8840	58.2140
 0.8850	58.2200
 0.8860	58.2250
 0.8870	58.2300
 0.8880	58.2330
 0.8890	58.2380
 0.8900	58.2420
 0.8910	58.2450
 0.8920	58.2480
 0.8930	58.2480
 0.8940	58.2530
 0.8950	58.2610
 0.8960	58.2580
 0.8970	58.2640
 0.8980	58.2680
 0.8990	58.2700
 0.9000	58.2760
 0.9010	58.2790
 0.9020	58.2820
 0.9030	58.2840
 0.9040	58.2850
 0.9050	58.2870
 0.9060	58.2900
 0.9070	58.2880
 0.9080	58.2830
 0.9090	58.2870
 0.9100	58.2910
 0.9110	58.2900
 0.9120	58.2890
 0.9130	58.2920
 0.9140	58.2940
 0.9150	58.2910
 0.9160	58.2870
 0.9170	58.2850
 0.9180	58.2850
 0.9190	58.2880
 0.9200	58.2800
 0.9210	58.2760
 0.9220	58.2690
 0.9230	58.2510
 0.9240	58.2410
 0.9250	58.2290
 0.9260	58.2080
 0.9270	58.1760
 0.9280	58.1630
 0.9290	58.1500
 0.9300	58.1240
 0.9310	58.0830
 0.9320	58.0570
 0.9330	58.0350
 0.9340	58.0070
 0.9350	57.9760
 0.9360	57.9430
 0.9370	57.9070
 0.9380	57.8670
 0.9390	57.8270
 0.9400	57.7810
 0.9410	57.7320
 0.9420	57.6840
 0.9430	57.6440
 0.9440	57.5870
 0.9450	57.5230
 0.9460	57.4600
 0.9470	57.3880
 0.9480	57.3080
 0.9490	57.2280
 0.9500	57.1500
 0.9510	57.0560
 0.9520	56.9640
 0.9530	56.8620
 0.9540	56.7460
 0.9550	56.6530
 0.9560	56.5560
 0.9570	56.4600
 0.9580	56.3730
 0.9590	56.2710
 0.9600	56.1870
 0.9610	56.1230
 0.9620	56.0680
 0.9630	56.0080
 0.9640	55.9550
 0.9650	55.9080
 0.9660	55.8630
 0.9670	55.8360
 0.9680	55.8020
 0.9690	55.7650
 0.9700	55.7420
 0.9710	55.7320
 0.9720	55.7140
 0.9730	55.6940
 0.9740	55.6840
 0.9750	55.6640
 0.9760	55.6520
 0.9770	55.6420
 0.9780	55.6230
 0.9790	55.6260
 0.9800	55.6460
 0.9810	55.6610
 0.9820	55.6540
 0.9830	55.6680
 0.9840	55.6850
 0.9850	55.6990
 0.9860	55.7110
 0.9870	55.7210
 0.9880	55.7410
 0.9890	55.7740
 0.9900	55.8090
 0.9910	55.8300
 0.9920	55.9030
 0.9930	55.9760
 0.9940	56.0500
 0.9950	56.1230
 0.9960	56.1960
 0.9970	56.2690
 0.9980	56.3420
 0.9990	56.4150
 1.0000	56.4890
 1.0010	56.5620
 1.0020	56.6350
 1.0030	56.7080
 1.0040	56.7810
 1.0050	56.8540
 1.0060	56.9280
 1.0070	57.0010
 1.0080	57.0740
 1.0090	57.1470
 1.0100	57.1470
 1.0110	57.1830
 1.0120	57.2210
 1.0130	57.2610
 1.0140	57.2990
 1.0150	57.3350
 1.0160	57.3740
 1.0170	57.4120
 1.0180	57.4440
 1.0190	57.4720
 1.0200	57.5060
 1.0210	57.5450
 1.0220	57.5860
 1.0230	57.6210
 1.0240	57.6570
 1.0250	57.6910
 1.0260	57.7160
 1.0270	57.7470
 1.0280	57.7840
 1.0290	57.8180
 1.0300	57.8510
 1.0310	57.8830
 1.0320	57.9170
 1.0330	57.9450
 1.0340	57.9750
 1.0350	58.0070
 1.0360	58.0290
 1.0370	58.0500
 1.0380	58.0750
 1.0390	58.0970
 1.0400	58.1230
 1.0410	58.1550
 1.0420	58.1830
 1.0430	58.2140
 1.0440	58.2390
 1.0450	58.2620
 1.0460	58.2840
 1.0470	58.3010
 1.0480	58.3190
 1.0490	58.3400
 1.0500	58.3580
 1.0510	58.3730
 1.0520	58.3880
 1.0530	58.4040
 1.0540	58.4170
 1.0550	58.4330
 1.0560	58.4540
 1.0570	58.4680
 1.0580	58.4780
 1.0590	58.4910
 1.0600	58.5020
 1.0610	58.5140
 1.0620	58.5320
 1.0630	58.5430
 1.0640	58.5500
 1.0650	58.5570
 1.0660	58.5610
 1.0670	58.5660
 1.0680	58.5720
 1.0690	58.5770
 1.0700	58.5820
 1.0710	58.5880
 1.0720	58.5890
 1.0730	58.5880
 1.0740	58.5880
 1.0750	58.5850
 1.0760	58.5820
 1.0770	58.5750
 1.0780	58.5740
 1.0790	58.5770
 1.0800	58.5750
 1.0810	58.5760
 1.0820	58.5720
 1.0830	58.5620
 1.0840	58.5520
 1.0850	58.5400
 1.0860	58.5300
 1.0870	58.5210
 1.0880	58.5110
 1.0890	58.5000
 1.0900	58.4910
 1.0910	58.4780
 1.0920	58.4610
 1.0930	58.4460
 1.0940	58.4320
 1.0950	58.4180
 1.0960	58.4050
 1.0970	58.3890
 1.0980	58.3730
 1.0990	58.3550
 1.1000	58.3330
 1.1010	58.3130
 1.1020	58.2920
 1.1030	58.2710
 1.1040	58.2500
 1.1050	58.2270
 1.1060	58.2030
 1.1070	58.1780
 1.1080	58.1510
 1.1090	58.1230
 1.1100	58.0950
 1.1110	58.0650
 1.1120	58.0370
 1.1130	58.0120
 1.1140	57.9800
 1.1150	57.9450
 1.1160	57.9080
 1.1170	57.8660
 1.1180	57.8220
 1.1190	57.7760
 1.1200	57.7250
 1.1210	57.6720
 1.1220	57.6120
 1.1230	57.5450
 1.1240	57.4730
 1.1250	57.3910
 1.1260	57.3010
 1.1270	57.2030
 1.1280	57.0980
 1.1290	56.9820
 1.1300	56.8600
 1.1310	56.7250
 1.1320	56.5790
 1.1330	56.4220
 1.1340	56.2510
 1.1350	56.0730
 1.1360	55.8860
 1.1370	55.6920
 1.1380	55.4890
 1.1390	55.2810
 1.1400	55.0640
 1.1410	54.8420
 1.1420	54.6180
 1.1430	54.3940
 1.1440	54.1720
 1.1450	53.9490
 1.1460	53.7330
 1.1470	53.5160
 1.1480	53.3120
 1.1490	53.1120
 1.1500	52.9260
 1.1510	52.7490
 1.1520	52.5840
 1.1530	52.4290
 1.1540	52.2860
 1.1550	52.1520
 1.1560	52.0300
 1.1570	51.9190
 1.1580	51.8200
 1.1590	51.7330
 1.1600	51.6560
 1.1610	51.5880
 1.1620	51.5270
 1.1630	51.4710
 1.1640	51.4210
 1.1650	51.3750
 1.1660	51.3340
 1.1670	51.2970
 1.1680	51.2660
 1.1690	51.2360
 1.1700	51.2130
 1.1710	51.1860
 1.1720	51.1600
 1.1730	51.1340
 1.1740	51.1080
 1.1750	51.0790
 1.1760	51.0510
 1.1770	51.0230
 1.1780	50.9940
 1.1790	50.9630
 1.1800	50.9310
 1.1810	50.9020
 1.1820	50.8720
 1.1830	50.8410
 1.1840	50.8140
 1.1850	50.7880
 1.1860	50.7620
 1.1870	50.7370
 1.1880	50.7150
 1.1890	50.6910
 1.1900	50.6720
 1.1910	50.6550
 1.1920	50.6420
 1.1930	50.6330
 1.1940	50.6240
 1.1950	50.6170
 1.1960	50.6150
 1.1970	50.6140
 1.1980	50.6140
 1.1990	50.6190
 1.2000	50.6250
 1.2010	50.6330
 1.2020	50.6480
 1.2030	50.6650
 1.2040	50.6840
 1.2050	50.7020
 1.2060	50.7230
 1.2070	50.7490
 1.2080	50.7780
 1.2090	50.8110
 1.2100	50.8450
 1.2110	50.8810
 1.2120	50.9160
 1.2130	50.9550
 1.2140	50.9970
 1.2150	51.0410
 1.2160	51.0870
 1.2170	51.1360
 1.2180	51.1850
 1.2190	51.2340
 1.2200	51.2810
 1.2210	51.3300
 1.2220	51.3790
 1.2230	51.4290
 1.2240	51.4820
 1.2250	51.5310
 1.2260	51.5790
 1.2270	51.6250
 1.2280	51.6690
 1.2290	51.7140
 1.2300	51.7570
 1.2310	51.7990
 1.2320	51.8400
 1.2330	51.8800
 1.2340	51.9180
 1.2350	51.9540
 1.2360	51.9900
 1.2370	52.0240
 1.2380	52.0580
 1.2390	52.0910
 1.2400	52.1220
 1.2410	52.1510
 1.2420	52.1800
 1.2430	52.2070
 1.2440	52.2340
 1.2450	52.2640
 1.2460	52.2900
 1.2470	52.3130
 1.2480	52.3380
 1.2490	52.3610
 1.2500	52.3830
 1.2510	52.4050
 1.2520	52.4240
 1.2530	52.4420
 1.2540	52.4610
 1.2550	52.4800
 1.2560	52.4960
 1.2570	52.5090
 1.2580	52.5200
 1.2590	52.5300
 1.2600	52.5370
 1.2610	52.5450
 1.2620	52.5540
 1.2630	52.5600
 1.2640	52.5620
 1.2650	52.5610
 1.2660	52.5590
 1.2670	52.5570
 1.2680	52.5550
 1.2690	52.5530
 1.2700	52.5490
 1.2710	52.5420
 1.2720	52.5350
 1.2730	52.5260
 1.2740	52.5170
 1.2750	52.5070
 1.2760	52.4950
 1.2770	52.4790
 1.2780	52.4610
 1.2790	52.4410
 1.2800	52.4180
 1.2810	52.3930
 1.2820	52.3660
 1.2830	52.3370
 1.2840	52.3060
 1.2850	52.2760
 1.2860	52.2430
 1.2870	52.2050
 1.2880	52.1630
 1.2890	52.1170
 1.2900	52.0660
 1.2910	52.0150
 1.2920	51.9630
 1.2930	51.9070
 1.2940	51.8490
 1.2950	51.7860
 1.2960	51.7210
 1.2970	51.6540
 1.2980	51.5840
 1.2990	51.5110
 1.3000	51.4320
 1.3010	51.3470
 1.3020	51.2590
 1.3030	51.1670
 1.3040	51.0680
 1.3050	50.9660
 1.3060	50.8600
 1.3070	50.7480
 1.3080	50.6350
 1.3090	50.5200
 1.3100	50.4020
 1.3110	50.2780
 1.3120	50.1450
 1.3130	50.0100
 1.3140	49.8710
 1.3150	49.7250
 1.3160	49.5770
 1.3170	49.4270
 1.3180	49.2690
 1.3190	49.1070
 1.3200	48.9410
 1.3210	48.7680
 1.3220	48.5930
 1.3230	48.4140
 1.3240	48.2300
 1.3250	48.0470
 1.3260	47.8580
 1.3270	47.6650
 1.3280	47.4700
 1.3290	47.2710
 1.3300	47.0710
 1.3310	46.8690
 1.3320	46.6620
 1.3330	46.4560
 1.3340	46.2500
 1.3350	46.0430
 1.3360	45.8380
 1.3370	45.6330
 1.3380	45.4260
 1.3390	45.2200
 1.3400	45.0140
 1.3410	44.8120
 1.3420	44.6120
 1.3430	44.4140
 1.3440	44.2170
 1.3450	44.0220
 1.3460	43.8280
 1.3470	43.6390
 1.3480	43.4540
 1.3490	43.2700
 1.3500	43.0900
 1.3510	42.9110
 1.3520	42.7320
 1.3530	42.5530
 1.3540	42.3750
 1.3550	42.1970
 1.3560	42.0200
 1.3570	41.8390
 1.3580	41.6580
 1.3590	41.4750
 1.3600	41.2870
 1.3610	41.0960
 1.3620	40.9010
 1.3630	40.6990
 1.3640	40.4900
 1.3650	40.2730
 1.3660	40.0470
 1.3670	39.8090
 1.3680	39.5580
 1.3690	39.2950
 1.3700	39.0130
 1.3710	38.7160
 1.3720	38.4030
 1.3730	38.0670
 1.3740	37.7150
 1.3750	37.3420
 1.3760	36.9420
 1.3770	36.5210
 1.3780	36.0700
 1.3790	35.5920
 1.3800	35.0900
 1.3810	34.5600
 1.3820	34.0120
 1.3830	33.4420
 1.3840	32.8540
 1.3850	32.2450
 1.3860	31.6250
 1.3870	30.9820
 1.3880	30.3410
 1.3890	29.6890
 1.3900	29.0310
 1.3910	28.3800
 1.3920	27.7270
 1.3930	27.0730
 1.3940	26.4270
 1.3950	25.7830
 1.3960	25.1530
 1.3970	24.5410
 1.3980	23.9440
 1.3990	23.3720
 1.4000	22.8200
 1.4010	22.2850
 1.4020	21.7760
 1.4030	21.2870
 1.4040	20.8220
 1.4050	20.3840
 1.4060	19.9670
 1.4070	19.5800
 1.4080	19.2160
 1.4090	18.8730
 1.4100	18.5550
 1.4110	18.2570
 1.4120	17.9790
 1.4130	17.7220
 1.4140	17.4840
 1.4150	17.2660
 1.4160	17.0650
 1.4170	16.8770
 1.4180	16.7040
 1.4190	16.5440
 1.4200	16.3970
 1.4210	16.2620
 1.4220	16.1370
 1.4230	16.0250
 1.4240	15.9210
 1.4250	15.8260
 1.4260	15.7410
 1.4270	15.6620
 1.4280	15.5920
 1.4290	15.5290
 1.4300	15.4740
 1.4310	15.4240
 1.4320	15.3810
 1.4330	15.3420
 1.4340	15.3090
 1.4350	15.2800
 1.4360	15.2560
 1.4370	15.2370
 1.4380	15.2210
 1.4390	15.2090
 1.4400	15.2000
 1.4410	15.1940
 1.4420	15.1910
 1.4430	15.1920
 1.4440	15.1960
 1.4450	15.2010
 1.4460	15.2090
 1.4470	15.2190
 1.4480	15.2290
 1.4490	15.2410
 1.4500	15.2550
 1.4510	15.2700
 1.4520	15.2880
 1.4530	15.3080
 1.4540	15.3290
 1.4550	15.3520
 1.4560	15.3770
 1.4570	15.4040
 1.4580	15.4350
 1.4590	15.4680
 1.4600	15.5060
 1.4610	15.5470
 1.4620	15.5910
 1.4630	15.6410
 1.4640	15.6950
 1.4650	15.7540
 1.4660	15.8180
 1.4670	15.8850
 1.4680	15.9570
 1.4690	16.0330
