Name: Quercus lobata 2
Type: vegetation
Class: Tree
Genus: Quercus
Species: lobata
Sample No.: VH183
Owner: UCSB
Wavelength Range: VSWIR
Origin: 34.7146; -120.0588; WGS84
Collection Date: 6/9/2013
Description: Samples were collected as part of the HyspIRI Airborne Campaign. 48 individual plants were sampled in three times in 2013 - spring  summer  and fall. The name of the sample includes a 1  2  or 3 which references a different individual of the species. Samples were taken to JPL and processed within 48 hours of collection. The same leaves were processed in the Nicolet and then measured using the ASD.
Measurement: Bidirectional reflectance
First Column: X
Second Column: Y
X Units: Wavelength (micrometers)
Y Units: Reflectance (percentage)
First X Value: 0.35
Last X Value: 2.5
Number of X Values: 2151
Additional Information: vegetation.tree.quercus.lobata.vswir.vh183.ucsb.asd.ancillary.txt

 0.3500	 6.5350
 0.3510	 6.5310
 0.3520	 6.5670
 0.3530	 6.5520
 0.3540	 6.4120
 0.3550	 6.3330
 0.3560	 6.2820
 0.3570	 6.3070
 0.3580	 6.4580
 0.3590	 6.4510
 0.3600	 6.2950
 0.3610	 6.1330
 0.3620	 6.2450
 0.3630	 6.3050
 0.3640	 6.3530
 0.3650	 6.4460
 0.3660	 6.3440
 0.3670	 6.3170
 0.3680	 6.3930
 0.3690	 6.4160
 0.3700	 6.4400
 0.3710	 6.4210
 0.3720	 6.3680
 0.3730	 6.3950
 0.3740	 6.3570
 0.3750	 6.2890
 0.3760	 6.2680
 0.3770	 6.3500
 0.3780	 6.4260
 0.3790	 6.4500
 0.3800	 6.4620
 0.3810	 6.4390
 0.3820	 6.4490
 0.3830	 6.5050
 0.3840	 6.4920
 0.3850	 6.4920
 0.3860	 6.5510
 0.3870	 6.6680
 0.3880	 6.6710
 0.3890	 6.6500
 0.3900	 6.6530
 0.3910	 6.6940
 0.3920	 6.7670
 0.3930	 6.8500
 0.3940	 6.9140
 0.3950	 6.9390
 0.3960	 6.9440
 0.3970	 6.9510
 0.3980	 6.9860
 0.3990	 7.0640
 0.4000	 7.1400
 0.4010	 7.1930
 0.4020	 7.2400
 0.4030	 7.2690
 0.4040	 7.3090
 0.4050	 7.3700
 0.4060	 7.4240
 0.4070	 7.4820
 0.4080	 7.5440
 0.4090	 7.6050
 0.4100	 7.6900
 0.4110	 7.7570
 0.4120	 7.7950
 0.4130	 7.8550
 0.4140	 7.9210
 0.4150	 8.0040
 0.4160	 8.1000
 0.4170	 8.1590
 0.4180	 8.2100
 0.4190	 8.2680
 0.4200	 8.3450
 0.4210	 8.4180
 0.4220	 8.4810
 0.4230	 8.5370
 0.4240	 8.5720
 0.4250	 8.6160
 0.4260	 8.6660
 0.4270	 8.7110
 0.4280	 8.7620
 0.4290	 8.8020
 0.4300	 8.8310
 0.4310	 8.8710
 0.4320	 8.8920
 0.4330	 8.9160
 0.4340	 8.9580
 0.4350	 8.9810
 0.4360	 9.0040
 0.4370	 9.0310
 0.4380	 9.0520
 0.4390	 9.0770
 0.4400	 9.1020
 0.4410	 9.1220
 0.4420	 9.1540
 0.4430	 9.1660
 0.4440	 9.1780
 0.4450	 9.2080
 0.4460	 9.2250
 0.4470	 9.2300
 0.4480	 9.2320
 0.4490	 9.2680
 0.4500	 9.2890
 0.4510	 9.3040
 0.4520	 9.3220
 0.4530	 9.3210
 0.4540	 9.3260
 0.4550	 9.3430
 0.4560	 9.3560
 0.4570	 9.3700
 0.4580	 9.3770
 0.4590	 9.3780
 0.4600	 9.3930
 0.4610	 9.3970
 0.4620	 9.3940
 0.4630	 9.3950
 0.4640	 9.4060
 0.4650	 9.4170
 0.4660	 9.4200
 0.4670	 9.4150
 0.4680	 9.4140
 0.4690	 9.4150
 0.4700	 9.4140
 0.4710	 9.4100
 0.4720	 9.4180
 0.4730	 9.4290
 0.4740	 9.4300
 0.4750	 9.4360
 0.4760	 9.4400
 0.4770	 9.4400
 0.4780	 9.4450
 0.4790	 9.4480
 0.4800	 9.4520
 0.4810	 9.4570
 0.4820	 9.4650
 0.4830	 9.4720
 0.4840	 9.4810
 0.4850	 9.4910
 0.4860	 9.4900
 0.4870	 9.4930
 0.4880	 9.5050
 0.4890	 9.5130
 0.4900	 9.5290
 0.4910	 9.5480
 0.4920	 9.5630
 0.4930	 9.5770
 0.4940	 9.5900
 0.4950	 9.6090
 0.4960	 9.6400
 0.4970	 9.6680
 0.4980	 9.6960
 0.4990	 9.7250
 0.5000	 9.7500
 0.5010	 9.7870
 0.5020	 9.8350
 0.5030	 9.8840
 0.5040	 9.9460
 0.5050	10.0140
 0.5060	10.0850
 0.5070	10.1660
 0.5080	10.2560
 0.5090	10.3570
 0.5100	10.4730
 0.5110	10.6060
 0.5120	10.7520
 0.5130	10.9110
 0.5140	11.0830
 0.5150	11.2700
 0.5160	11.4730
 0.5170	11.6920
 0.5180	11.9260
 0.5190	12.1710
 0.5200	12.4230
 0.5210	12.6780
 0.5220	12.9410
 0.5230	13.2070
 0.5240	13.4660
 0.5250	13.7140
 0.5260	13.9580
 0.5270	14.1930
 0.5280	14.4120
 0.5290	14.6130
 0.5300	14.8000
 0.5310	14.9750
 0.5320	15.1350
 0.5330	15.2800
 0.5340	15.4110
 0.5350	15.5280
 0.5360	15.6310
 0.5370	15.7220
 0.5380	15.8020
 0.5390	15.8760
 0.5400	15.9440
 0.5410	16.0110
 0.5420	16.0800
 0.5430	16.1450
 0.5440	16.2030
 0.5450	16.2580
 0.5460	16.3150
 0.5470	16.3600
 0.5480	16.3990
 0.5490	16.4340
 0.5500	16.4590
 0.5510	16.4780
 0.5520	16.4860
 0.5530	16.4800
 0.5540	16.4520
 0.5550	16.4100
 0.5560	16.3540
 0.5570	16.2790
 0.5580	16.1910
 0.5590	16.0900
 0.5600	15.9760
 0.5610	15.8590
 0.5620	15.7360
 0.5630	15.6050
 0.5640	15.4660
 0.5650	15.3240
 0.5660	15.1730
 0.5670	15.0140
 0.5680	14.8500
 0.5690	14.6810
 0.5700	14.5100
 0.5710	14.3420
 0.5720	14.1800
 0.5730	14.0260
 0.5740	13.8850
 0.5750	13.7570
 0.5760	13.6370
 0.5770	13.5230
 0.5780	13.4110
 0.5790	13.3040
 0.5800	13.2080
 0.5810	13.1250
 0.5820	13.0530
 0.5830	12.9820
 0.5840	12.9110
 0.5850	12.8410
 0.5860	12.7730
 0.5870	12.6980
 0.5880	12.6260
 0.5890	12.5680
 0.5900	12.5290
 0.5910	12.5060
 0.5920	12.4880
 0.5930	12.4660
 0.5940	12.4450
 0.5950	12.4230
 0.5960	12.4000
 0.5970	12.3750
 0.5980	12.3450
 0.5990	12.3110
 0.6000	12.2770
 0.6010	12.2390
 0.6020	12.1980
 0.6030	12.1530
 0.6040	12.1050
 0.6050	12.0500
 0.6060	11.9900
 0.6070	11.9240
 0.6080	11.8560
 0.6090	11.7810
 0.6100	11.7030
 0.6110	11.6290
 0.6120	11.5560
 0.6130	11.4850
 0.6140	11.4180
 0.6150	11.3520
 0.6160	11.2860
 0.6170	11.2230
 0.6180	11.1720
 0.6190	11.1260
 0.6200	11.0850
 0.6210	11.0480
 0.6220	11.0120
 0.6230	10.9880
 0.6240	10.9670
 0.6250	10.9460
 0.6260	10.9280
 0.6270	10.9130
 0.6280	10.9020
 0.6290	10.8940
 0.6300	10.8910
 0.6310	10.8850
 0.6320	10.8750
 0.6330	10.8630
 0.6340	10.8490
 0.6350	10.8280
 0.6360	10.8040
 0.6370	10.7730
 0.6380	10.7330
 0.6390	10.6880
 0.6400	10.6420
 0.6410	10.5900
 0.6420	10.5310
 0.6430	10.4720
 0.6440	10.4170
 0.6450	10.3610
 0.6460	10.3070
 0.6470	10.2550
 0.6480	10.2110
 0.6490	10.1720
 0.6500	10.1340
 0.6510	10.1000
 0.6520	10.0710
 0.6530	10.0440
 0.6540	10.0130
 0.6550	 9.9860
 0.6560	 9.9570
 0.6570	 9.9260
 0.6580	 9.8930
 0.6590	 9.8580
 0.6600	 9.8250
 0.6610	 9.7960
 0.6620	 9.7660
 0.6630	 9.7430
 0.6640	 9.7230
 0.6650	 9.7080
 0.6660	 9.6940
 0.6670	 9.6890
 0.6680	 9.6900
 0.6690	 9.6890
 0.6700	 9.6970
 0.6710	 9.7030
 0.6720	 9.7130
 0.6730	 9.7260
 0.6740	 9.7450
 0.6750	 9.7660
 0.6760	 9.7900
 0.6770	 9.8110
 0.6780	 9.8350
 0.6790	 9.8650
 0.6800	 9.8960
 0.6810	 9.9340
 0.6820	 9.9730
 0.6830	10.0140
 0.6840	10.0580
 0.6850	10.1140
 0.6860	10.1810
 0.6870	10.2590
 0.6880	10.3570
 0.6890	10.4890
 0.6900	10.6580
 0.6910	10.8710
 0.6920	11.1430
 0.6930	11.4780
 0.6940	11.8840
 0.6950	12.3650
 0.6960	12.9250
 0.6970	13.5630
 0.6980	14.2730
 0.6990	15.0480
 0.7000	15.8810
 0.7010	16.7620
 0.7020	17.6800
 0.7030	18.6270
 0.7040	19.5910
 0.7050	20.5620
 0.7060	21.5420
 0.7070	22.5190
 0.7080	23.4910
 0.7090	24.4570
 0.7100	25.4080
 0.7110	26.3530
 0.7120	27.2890
 0.7130	28.2070
 0.7140	29.1090
 0.7150	29.9970
 0.7160	30.8670
 0.7170	31.7210
 0.7180	32.5520
 0.7190	33.3600
 0.7200	34.1460
 0.7210	34.9090
 0.7220	35.6480
 0.7230	36.3630
 0.7240	37.0530
 0.7250	37.7150
 0.7260	38.3490
 0.7270	38.9550
 0.7280	39.5320
 0.7290	40.0810
 0.7300	40.6030
 0.7310	41.0970
 0.7320	41.5630
 0.7330	42.0020
 0.7340	42.4160
 0.7350	42.8130
 0.7360	43.1790
 0.7370	43.5220
 0.7380	43.8480
 0.7390	44.1470
 0.7400	44.4310
 0.7410	44.6980
 0.7420	44.9410
 0.7430	45.1680
 0.7440	45.3800
 0.7450	45.5750
 0.7460	45.7540
 0.7470	45.9150
 0.7480	46.0610
 0.7490	46.1950
 0.7500	46.3220
 0.7510	46.4370
 0.7520	46.5420
 0.7530	46.6370
 0.7540	46.7220
 0.7550	46.7990
 0.7560	46.8690
 0.7570	46.9290
 0.7580	46.9870
 0.7590	47.0390
 0.7600	47.0840
 0.7610	47.1290
 0.7620	47.1700
 0.7630	47.2070
 0.7640	47.2380
 0.7650	47.2670
 0.7660	47.2920
 0.7670	47.3140
 0.7680	47.3340
 0.7690	47.3550
 0.7700	47.3730
 0.7710	47.3880
 0.7720	47.4060
 0.7730	47.4180
 0.7740	47.4280
 0.7750	47.4430
 0.7760	47.4550
 0.7770	47.4680
 0.7780	47.4810
 0.7790	47.4950
 0.7800	47.5070
 0.7810	47.5180
 0.7820	47.5280
 0.7830	47.5390
 0.7840	47.5490
 0.7850	47.5550
 0.7860	47.5600
 0.7870	47.5760
 0.7880	47.5820
 0.7890	47.5860
 0.7900	47.5980
 0.7910	47.6070
 0.7920	47.6130
 0.7930	47.6180
 0.7940	47.6240
 0.7950	47.6300
 0.7960	47.6320
 0.7970	47.6320
 0.7980	47.6350
 0.7990	47.6390
 0.8000	47.6410
 0.8010	47.6410
 0.8020	47.6420
 0.8030	47.6400
 0.8040	47.6370
 0.8050	47.6360
 0.8060	47.6360
 0.8070	47.6350
 0.8080	47.6300
 0.8090	47.6230
 0.8100	47.6210
 0.8110	47.6180
 0.8120	47.6110
 0.8130	47.6050
 0.8140	47.5980
 0.8150	47.5880
 0.8160	47.5810
 0.8170	47.5840
 0.8180	47.5780
 0.8190	47.5650
 0.8200	47.5580
 0.8210	47.5530
 0.8220	47.5460
 0.8230	47.5360
 0.8240	47.5230
 0.8250	47.5170
 0.8260	47.5080
 0.8270	47.4940
 0.8280	47.4850
 0.8290	47.4780
 0.8300	47.4700
 0.8310	47.4610
 0.8320	47.4560
 0.8330	47.4490
 0.8340	47.4390
 0.8350	47.4290
 0.8360	47.4220
 0.8370	47.4140
 0.8380	47.4060
 0.8390	47.4000
 0.8400	47.3940
 0.8410	47.3900
 0.8420	47.3870
 0.8430	47.3840
 0.8440	47.3800
 0.8450	47.3770
 0.8460	47.3750
 0.8470	47.3690
 0.8480	47.3690
 0.8490	47.3700
 0.8500	47.3700
 0.8510	47.3650
 0.8520	47.3600
 0.8530	47.3590
 0.8540	47.3630
 0.8550	47.3640
 0.8560	47.3600
 0.8570	47.3570
 0.8580	47.3660
 0.8590	47.3600
 0.8600	47.3560
 0.8610	47.3610
 0.8620	47.3620
 0.8630	47.3600
 0.8640	47.3560
 0.8650	47.3550
 0.8660	47.3650
 0.8670	47.3720
 0.8680	47.3720
 0.8690	47.3700
 0.8700	47.3740
 0.8710	47.3750
 0.8720	47.3750
 0.8730	47.3840
 0.8740	47.3880
 0.8750	47.3910
 0.8760	47.3940
 0.8770	47.3990
 0.8780	47.4010
 0.8790	47.4000
 0.8800	47.3990
 0.8810	47.4090
 0.8820	47.4170
 0.8830	47.4210
 0.8840	47.4250
 0.8850	47.4270
 0.8860	47.4300
 0.8870	47.4300
 0.8880	47.4250
 0.8890	47.4350
 0.8900	47.4480
 0.8910	47.4560
 0.8920	47.4520
 0.8930	47.4550
 0.8940	47.4580
 0.8950	47.4600
 0.8960	47.4660
 0.8970	47.4700
 0.8980	47.4740
 0.8990	47.4770
 0.9000	47.4740
 0.9010	47.4810
 0.9020	47.4870
 0.9030	47.4860
 0.9040	47.4950
 0.9050	47.5020
 0.9060	47.5060
 0.9070	47.5060
 0.9080	47.5050
 0.9090	47.5050
 0.9100	47.5100
 0.9110	47.5170
 0.9120	47.5220
 0.9130	47.5230
 0.9140	47.5270
 0.9150	47.5380
 0.9160	47.5400
 0.9170	47.5360
 0.9180	47.5350
 0.9190	47.5420
 0.9200	47.5430
 0.9210	47.5410
 0.9220	47.5370
 0.9230	47.5300
 0.9240	47.5170
 0.9250	47.5190
 0.9260	47.5250
 0.9270	47.5120
 0.9280	47.4980
 0.9290	47.4920
 0.9300	47.4890
 0.9310	47.4760
 0.9320	47.4630
 0.9330	47.4490
 0.9340	47.4350
 0.9350	47.4260
 0.9360	47.4120
 0.9370	47.3970
 0.9380	47.3840
 0.9390	47.3720
 0.9400	47.3570
 0.9410	47.3410
 0.9420	47.3240
 0.9430	47.3010
 0.9440	47.2800
 0.9450	47.2550
 0.9460	47.2270
 0.9470	47.2140
 0.9480	47.1820
 0.9490	47.1400
 0.9500	47.1000
 0.9510	47.0610
 0.9520	47.0290
 0.9530	46.9920
 0.9540	46.9420
 0.9550	46.9010
 0.9560	46.8570
 0.9570	46.8170
 0.9580	46.7870
 0.9590	46.7420
 0.9600	46.6930
 0.9610	46.6620
 0.9620	46.6540
 0.9630	46.6110
 0.9640	46.5750
 0.9650	46.5570
 0.9660	46.5500
 0.9670	46.5300
 0.9680	46.5130
 0.9690	46.5010
 0.9700	46.4880
 0.9710	46.4790
 0.9720	46.4670
 0.9730	46.4500
 0.9740	46.4340
 0.9750	46.4340
 0.9760	46.4350
 0.9770	46.4290
 0.9780	46.4210
 0.9790	46.4200
 0.9800	46.4220
 0.9810	46.4190
 0.9820	46.4050
 0.9830	46.4140
 0.9840	46.4200
 0.9850	46.4170
 0.9860	46.4130
 0.9870	46.4300
 0.9880	46.4360
 0.9890	46.4390
 0.9900	46.4560
 0.9910	46.4420
 0.9920	46.4460
 0.9930	46.4650
 0.9940	46.4680
 0.9950	46.4740
 0.9960	46.4840
 0.9970	46.5040
 0.9980	46.5290
 0.9990	46.5300
 1.0000	46.8200
 1.0010	47.3870
 1.0020	47.6850
 1.0030	47.7010
 1.0040	47.7130
 1.0050	47.7160
 1.0060	47.7220
 1.0070	47.7350
 1.0080	47.7460
 1.0090	47.7570
 1.0100	47.7700
 1.0110	47.7850
 1.0120	47.7960
 1.0130	47.8060
 1.0140	47.8170
 1.0150	47.8300
 1.0160	47.8350
 1.0170	47.8430
 1.0180	47.8540
 1.0190	47.8610
 1.0200	47.8700
 1.0210	47.8800
 1.0220	47.8910
 1.0230	47.9030
 1.0240	47.9190
 1.0250	47.9300
 1.0260	47.9430
 1.0270	47.9520
 1.0280	47.9560
 1.0290	47.9640
 1.0300	47.9750
 1.0310	47.9830
 1.0320	47.9890
 1.0330	47.9990
 1.0340	48.0090
 1.0350	48.0140
 1.0360	48.0210
 1.0370	48.0280
 1.0380	48.0380
 1.0390	48.0480
 1.0400	48.0570
 1.0410	48.0710
 1.0420	48.0800
 1.0430	48.0840
 1.0440	48.0880
 1.0450	48.0910
 1.0460	48.0950
 1.0470	48.0980
 1.0480	48.1020
 1.0490	48.1080
 1.0500	48.1130
 1.0510	48.1170
 1.0520	48.1220
 1.0530	48.1270
 1.0540	48.1310
 1.0550	48.1360
 1.0560	48.1430
 1.0570	48.1480
 1.0580	48.1550
 1.0590	48.1580
 1.0600	48.1570
 1.0610	48.1570
 1.0620	48.1540
 1.0630	48.1540
 1.0640	48.1590
 1.0650	48.1600
 1.0660	48.1580
 1.0670	48.1590
 1.0680	48.1590
 1.0690	48.1590
 1.0700	48.1580
 1.0710	48.1580
 1.0720	48.1560
 1.0730	48.1500
 1.0740	48.1490
 1.0750	48.1510
 1.0760	48.1510
 1.0770	48.1500
 1.0780	48.1500
 1.0790	48.1490
 1.0800	48.1470
 1.0810	48.1450
 1.0820	48.1410
 1.0830	48.1320
 1.0840	48.1270
 1.0850	48.1220
 1.0860	48.1190
 1.0870	48.1140
 1.0880	48.1110
 1.0890	48.1060
 1.0900	48.0990
 1.0910	48.0910
 1.0920	48.0820
 1.0930	48.0750
 1.0940	48.0680
 1.0950	48.0600
 1.0960	48.0520
 1.0970	48.0440
 1.0980	48.0350
 1.0990	48.0270
 1.1000	48.0190
 1.1010	48.0100
 1.1020	48.0020
 1.1030	47.9920
 1.1040	47.9790
 1.1050	47.9710
 1.1060	47.9610
 1.1070	47.9510
 1.1080	47.9400
 1.1090	47.9300
 1.1100	47.9170
 1.1110	47.9030
 1.1120	47.8890
 1.1130	47.8720
 1.1140	47.8580
 1.1150	47.8470
 1.1160	47.8310
 1.1170	47.8140
 1.1180	47.7960
 1.1190	47.7760
 1.1200	47.7540
 1.1210	47.7340
 1.1220	47.7110
 1.1230	47.6830
 1.1240	47.6550
 1.1250	47.6240
 1.1260	47.5900
 1.1270	47.5530
 1.1280	47.5150
 1.1290	47.4700
 1.1300	47.4200
 1.1310	47.3680
 1.1320	47.3110
 1.1330	47.2510
 1.1340	47.1880
 1.1350	47.1190
 1.1360	47.0440
 1.1370	46.9650
 1.1380	46.8790
 1.1390	46.7920
 1.1400	46.7030
 1.1410	46.6100
 1.1420	46.5150
 1.1430	46.4210
 1.1440	46.3230
 1.1450	46.2200
 1.1460	46.1230
 1.1470	46.0270
 1.1480	45.9330
 1.1490	45.8410
 1.1500	45.7540
 1.1510	45.6660
 1.1520	45.5870
 1.1530	45.5130
 1.1540	45.4450
 1.1550	45.3790
 1.1560	45.3210
 1.1570	45.2710
 1.1580	45.2270
 1.1590	45.1900
 1.1600	45.1540
 1.1610	45.1220
 1.1620	45.0950
 1.1630	45.0700
 1.1640	45.0490
 1.1650	45.0310
 1.1660	45.0160
 1.1670	45.0030
 1.1680	44.9930
 1.1690	44.9830
 1.1700	44.9750
 1.1710	44.9670
 1.1720	44.9600
 1.1730	44.9520
 1.1740	44.9440
 1.1750	44.9340
 1.1760	44.9230
 1.1770	44.9130
 1.1780	44.9030
 1.1790	44.8950
 1.1800	44.8860
 1.1810	44.8770
 1.1820	44.8680
 1.1830	44.8590
 1.1840	44.8490
 1.1850	44.8390
 1.1860	44.8270
 1.1870	44.8150
 1.1880	44.8060
 1.1890	44.7980
 1.1900	44.7920
 1.1910	44.7900
 1.1920	44.7840
 1.1930	44.7770
 1.1940	44.7720
 1.1950	44.7680
 1.1960	44.7650
 1.1970	44.7650
 1.1980	44.7660
 1.1990	44.7660
 1.2000	44.7670
 1.2010	44.7700
 1.2020	44.7740
 1.2030	44.7790
 1.2040	44.7830
 1.2050	44.7880
 1.2060	44.7940
 1.2070	44.8030
 1.2080	44.8130
 1.2090	44.8230
 1.2100	44.8340
 1.2110	44.8460
 1.2120	44.8590
 1.2130	44.8720
 1.2140	44.8850
 1.2150	44.8990
 1.2160	44.9110
 1.2170	44.9270
 1.2180	44.9450
 1.2190	44.9600
 1.2200	44.9780
 1.2210	44.9940
 1.2220	45.0080
 1.2230	45.0250
 1.2240	45.0430
 1.2250	45.0590
 1.2260	45.0760
 1.2270	45.0940
 1.2280	45.1090
 1.2290	45.1230
 1.2300	45.1380
 1.2310	45.1500
 1.2320	45.1620
 1.2330	45.1740
 1.2340	45.1870
 1.2350	45.2000
 1.2360	45.2130
 1.2370	45.2250
 1.2380	45.2380
 1.2390	45.2490
 1.2400	45.2590
 1.2410	45.2690
 1.2420	45.2770
 1.2430	45.2840
 1.2440	45.2910
 1.2450	45.2990
 1.2460	45.3080
 1.2470	45.3170
 1.2480	45.3260
 1.2490	45.3340
 1.2500	45.3400
 1.2510	45.3470
 1.2520	45.3540
 1.2530	45.3600
 1.2540	45.3630
 1.2550	45.3650
 1.2560	45.3680
 1.2570	45.3690
 1.2580	45.3710
 1.2590	45.3740
 1.2600	45.3770
 1.2610	45.3800
 1.2620	45.3820
 1.2630	45.3830
 1.2640	45.3810
 1.2650	45.3780
 1.2660	45.3740
 1.2670	45.3690
 1.2680	45.3670
 1.2690	45.3640
 1.2700	45.3600
 1.2710	45.3570
 1.2720	45.3530
 1.2730	45.3460
 1.2740	45.3390
 1.2750	45.3310
 1.2760	45.3200
 1.2770	45.3100
 1.2780	45.2980
 1.2790	45.2840
 1.2800	45.2710
 1.2810	45.2570
 1.2820	45.2430
 1.2830	45.2310
 1.2840	45.2170
 1.2850	45.2020
 1.2860	45.1850
 1.2870	45.1660
 1.2880	45.1440
 1.2890	45.1230
 1.2900	45.0990
 1.2910	45.0770
 1.2920	45.0530
 1.2930	45.0260
 1.2940	44.9980
 1.2950	44.9660
 1.2960	44.9370
 1.2970	44.9070
 1.2980	44.8740
 1.2990	44.8420
 1.3000	44.8050
 1.3010	44.7650
 1.3020	44.7250
 1.3030	44.6830
 1.3040	44.6400
 1.3050	44.5940
 1.3060	44.5450
 1.3070	44.4960
 1.3080	44.4460
 1.3090	44.3940
 1.3100	44.3380
 1.3110	44.2820
 1.3120	44.2230
 1.3130	44.1600
 1.3140	44.0960
 1.3150	44.0330
 1.3160	43.9630
 1.3170	43.8890
 1.3180	43.8140
 1.3190	43.7370
 1.3200	43.6580
 1.3210	43.5770
 1.3220	43.4940
 1.3230	43.4070
 1.3240	43.3160
 1.3250	43.2240
 1.3260	43.1280
 1.3270	43.0330
 1.3280	42.9370
 1.3290	42.8380
 1.3300	42.7390
 1.3310	42.6360
 1.3320	42.5310
 1.3330	42.4250
 1.3340	42.3160
 1.3350	42.2080
 1.3360	42.1000
 1.3370	41.9900
 1.3380	41.8800
 1.3390	41.7680
 1.3400	41.6560
 1.3410	41.5450
 1.3420	41.4360
 1.3430	41.3280
 1.3440	41.2200
 1.3450	41.1140
 1.3460	41.0060
 1.3470	40.9000
 1.3480	40.7950
 1.3490	40.6900
 1.3500	40.5850
 1.3510	40.4810
 1.3520	40.3770
 1.3530	40.2740
 1.3540	40.1710
 1.3550	40.0680
 1.3560	39.9650
 1.3570	39.8590
 1.3580	39.7520
 1.3590	39.6450
 1.3600	39.5350
 1.3610	39.4230
 1.3620	39.3080
 1.3630	39.1900
 1.3640	39.0640
 1.3650	38.9340
 1.3660	38.8000
 1.3670	38.6590
 1.3680	38.5110
 1.3690	38.3540
 1.3700	38.1830
 1.3710	38.0010
 1.3720	37.8090
 1.3730	37.6020
 1.3740	37.3850
 1.3750	37.1520
 1.3760	36.8980
 1.3770	36.6270
 1.3780	36.3340
 1.3790	36.0200
 1.3800	35.6890
 1.3810	35.3350
 1.3820	34.9630
 1.3830	34.5760
 1.3840	34.1680
 1.3850	33.7380
 1.3860	33.2960
 1.3870	32.8330
 1.3880	32.3620
 1.3890	31.8770
 1.3900	31.3820
 1.3910	30.8810
 1.3920	30.3710
 1.3930	29.8550
 1.3940	29.3370
 1.3950	28.8120
 1.3960	28.2930
 1.3970	27.7780
 1.3980	27.2700
 1.3990	26.7790
 1.4000	26.2970
 1.4010	25.8250
 1.4020	25.3710
 1.4030	24.9290
 1.4040	24.5060
 1.4050	24.1030
 1.4060	23.7180
 1.4070	23.3560
 1.4080	23.0140
 1.4090	22.6900
 1.4100	22.3880
 1.4110	22.1030
 1.4120	21.8380
 1.4130	21.5920
 1.4140	21.3640
 1.4150	21.1580
 1.4160	20.9690
 1.4170	20.7940
 1.4180	20.6350
 1.4190	20.4880
 1.4200	20.3550
 1.4210	20.2350
 1.4220	20.1260
 1.4230	20.0290
 1.4240	19.9410
 1.4250	19.8620
 1.4260	19.7940
 1.4270	19.7320
 1.4280	19.6790
 1.4290	19.6320
 1.4300	19.5940
 1.4310	19.5600
 1.4320	19.5350
 1.4330	19.5120
 1.4340	19.4950
 1.4350	19.4810
 1.4360	19.4720
 1.4370	19.4670
 1.4380	19.4660
 1.4390	19.4670
 1.4400	19.4720
 1.4410	19.4790
 1.4420	19.4890
 1.4430	19.5010
 1.4440	19.5140
 1.4450	19.5280
 1.4460	19.5440
 1.4470	19.5600
 1.4480	19.5780
 1.4490	19.5980
 1.4500	19.6190
 1.4510	19.6400
 1.4520	19.6620
 1.4530	19.6850
 1.4540	19.7100
 1.4550	19.7370
 1.4560	19.7650
 1.4570	19.7950
 1.4580	19.8280
 1.4590	19.8640
 1.4600	19.9040
 1.4610	19.9480
 1.4620	19.9950
 1.4630	20.0460
 1.4640	20.1010
 1.4650	20.1600
 1.4660	20.2250
 1.4670	20.2940
 1.4680	20.3690
 1.4690	20.4490
 1.4700	20.5320
 1.4710	20.6200
