Name: Ficus thonningii
Type: vegetation
Class: Tree
Genus: Ficus
Species: thonningii
Sample No.: JPL100
Owner: JPL
Wavelength Range: TIR
Origin: 34.12617; - 118.1119; WGS84
Collection Date: 2/2/2016
Description: Samples were collected at the Huntington Garden in San Marino California as part of a JPL Subcontract studying HyTES imagery. Samples were taken to JPL and processed within 48 hours of collection. The same leaves were processed in the Nicolet and then measured using the ASD.
Measurement: Hemispherical reflectance
First Column: X
Second Column: Y
X Units: Wavelength (micrometer)
Y Units: Reflectance (percentage)
First X Value: 2.501
Last X Value: 15.387
Number of X Values: 1737
Additional Information: 

 2.5010	 5.2660
 2.5030	 5.2120
 2.5040	 5.1510
 2.5050	 5.0530
 2.5060	 5.1050
 2.5070	 5.1360
 2.5090	 5.1420
 2.5100	 5.1010
 2.5110	 5.0670
 2.5120	 4.9890
 2.5140	 4.9850
 2.5150	 4.9890
 2.5160	 4.9570
 2.5170	 4.9440
 2.5180	 4.9800
 2.5200	 5.0230
 2.5210	 5.0540
 2.5220	 4.9940
 2.5230	 4.9360
 2.5250	 4.9070
 2.5260	 4.9880
 2.5270	 5.0380
 2.5280	 5.0080
 2.5300	 4.9590
 2.5310	 4.9740
 2.5320	 4.9150
 2.5330	 4.9640
 2.5340	 4.9530
 2.5360	 4.9570
 2.5370	 4.9350
 2.5380	 4.9490
 2.5390	 4.9820
 2.5410	 4.9590
 2.5420	 4.9100
 2.5430	 4.8920
 2.5440	 4.8480
 2.5460	 4.9090
 2.5470	 4.9910
 2.5480	 4.9800
 2.5490	 4.8650
 2.5510	 4.9220
 2.5520	 4.9680
 2.5530	 4.9460
 2.5540	 4.9360
 2.5560	 4.9930
 2.5570	 5.0030
 2.5580	 5.0100
 2.5590	 4.9750
 2.5610	 4.9330
 2.5620	 4.8760
 2.5630	 4.9610
 2.5650	 4.9650
 2.5660	 4.9840
 2.5670	 4.9580
 2.5680	 4.9380
 2.5700	 4.9230
 2.5710	 4.9830
 2.5720	 4.9280
 2.5730	 4.9070
 2.5750	 4.8770
 2.5760	 4.9130
 2.5770	 4.9170
 2.5790	 4.9280
 2.5800	 4.8920
 2.5810	 4.9020
 2.5820	 4.8450
 2.5840	 4.8220
 2.5850	 4.7930
 2.5860	 4.8030
 2.5880	 4.7530
 2.5890	 4.8350
 2.5900	 4.8600
 2.5910	 4.8480
 2.5930	 4.7460
 2.5940	 4.6710
 2.5950	 4.6410
 2.5970	 4.6920
 2.5980	 4.7330
 2.5990	 4.8370
 2.6010	 4.7570
 2.6020	 4.6300
 2.6030	 4.5250
 2.6040	 4.5070
 2.6060	 4.4820
 2.6070	 4.4770
 2.6080	 4.4760
 2.6100	 4.5390
 2.6110	 4.4650
 2.6120	 4.4410
 2.6140	 4.4150
 2.6150	 4.4170
 2.6160	 4.3990
 2.6180	 4.3460
 2.6190	 4.2650
 2.6200	 4.2530
 2.6220	 4.2410
 2.6230	 4.3220
 2.6240	 4.2240
 2.6260	 4.1570
 2.6270	 4.0740
 2.6280	 4.1000
 2.6300	 4.0910
 2.6310	 4.0750
 2.6320	 4.0420
 2.6340	 4.0540
 2.6350	 4.0070
 2.6360	 4.0300
 2.6380	 4.0700
 2.6390	 4.0900
 2.6400	 3.9370
 2.6420	 3.8670
 2.6430	 3.8710
 2.6440	 3.9260
 2.6460	 3.8790
 2.6470	 3.8060
 2.6480	 3.7320
 2.6500	 3.7760
 2.6510	 3.7700
 2.6520	 3.6930
 2.6540	 3.6140
 2.6550	 3.6540
 2.6570	 3.6560
 2.6580	 3.7160
 2.6590	 3.6870
 2.6610	 3.6720
 2.6620	 3.6450
 2.6630	 3.6580
 2.6650	 3.5940
 2.6660	 3.5400
 2.6670	 3.4520
 2.6690	 3.4930
 2.6700	 3.4840
 2.6720	 3.5220
 2.6730	 3.5190
 2.6740	 3.5120
 2.6760	 3.4610
 2.6770	 3.4250
 2.6780	 3.3850
 2.6800	 3.3850
 2.6810	 3.4020
 2.6830	 3.4720
 2.6840	 3.4390
 2.6850	 3.4090
 2.6870	 3.3600
 2.6880	 3.3730
 2.6900	 3.3870
 2.6910	 3.4430
 2.6920	 3.3720
 2.6940	 3.3460
 2.6950	 3.3510
 2.6970	 3.3960
 2.6980	 3.3740
 2.6990	 3.3950
 2.7010	 3.3880
 2.7020	 3.3640
 2.7040	 3.2770
 2.7050	 3.3060
 2.7060	 3.3490
 2.7080	 3.4010
 2.7090	 3.3590
 2.7110	 3.3580
 2.7120	 3.3100
 2.7130	 3.2820
 2.7150	 3.2510
 2.7160	 3.2690
 2.7180	 3.2600
 2.7190	 3.3150
 2.7210	 3.2400
 2.7220	 3.2940
 2.7230	 3.3480
 2.7250	 3.3500
 2.7260	 3.3060
 2.7280	 3.3360
 2.7290	 3.2670
 2.7310	 3.2490
 2.7320	 3.2650
 2.7340	 3.3370
 2.7350	 3.3660
 2.7360	 3.4080
 2.7380	 3.3130
 2.7390	 3.2300
 2.7410	 3.2100
 2.7420	 3.2850
 2.7440	 3.3370
 2.7450	 3.3690
 2.7470	 3.3660
 2.7480	 3.4620
 2.7490	 3.4120
 2.7510	 3.3500
 2.7520	 3.3180
 2.7540	 3.3100
 2.7550	 3.2530
 2.7570	 3.3000
 2.7580	 3.2670
 2.7600	 3.3580
 2.7610	 3.3700
 2.7630	 3.3330
 2.7640	 3.2960
 2.7660	 3.3910
 2.7670	 3.3950
 2.7690	 3.3750
 2.7700	 3.3430
 2.7720	 3.4540
 2.7730	 3.4250
 2.7740	 3.4060
 2.7760	 3.3860
 2.7770	 3.4230
 2.7790	 3.4300
 2.7800	 3.4790
 2.7820	 3.3780
 2.7830	 3.3500
 2.7850	 3.3550
 2.7860	 3.3510
 2.7880	 3.3450
 2.7890	 3.4370
 2.7910	 3.4370
 2.7920	 3.4150
 2.7940	 3.3810
 2.7950	 3.4880
 2.7970	 3.5240
 2.7980	 3.4900
 2.8000	 3.4020
 2.8010	 3.4230
 2.8030	 3.3910
 2.8040	 3.4350
 2.8060	 3.4660
 2.8080	 3.4870
 2.8090	 3.5030
 2.8110	 3.5350
 2.8120	 3.4720
 2.8140	 3.5020
 2.8150	 3.5250
 2.8170	 3.5480
 2.8180	 3.5060
 2.8200	 3.5270
 2.8210	 3.5340
 2.8230	 3.5000
 2.8240	 3.4580
 2.8260	 3.5690
 2.8270	 3.6340
 2.8290	 3.6340
 2.8310	 3.5840
 2.8320	 3.6560
 2.8340	 3.6330
 2.8350	 3.6080
 2.8370	 3.5880
 2.8380	 3.6130
 2.8400	 3.5310
 2.8410	 3.5740
 2.8430	 3.6170
 2.8440	 3.6570
 2.8460	 3.6630
 2.8480	 3.6990
 2.8490	 3.6730
 2.8510	 3.7090
 2.8520	 3.6870
 2.8540	 3.6850
 2.8550	 3.6850
 2.8570	 3.7210
 2.8590	 3.7470
 2.8600	 3.7730
 2.8620	 3.7180
 2.8630	 3.7070
 2.8650	 3.6540
 2.8660	 3.6960
 2.8680	 3.7050
 2.8700	 3.7600
 2.8710	 3.7550
 2.8730	 3.8290
 2.8740	 3.7890
 2.8760	 3.7330
 2.8780	 3.6980
 2.8790	 3.7690
 2.8810	 3.7820
 2.8820	 3.7790
 2.8840	 3.8070
 2.8860	 3.8690
 2.8870	 3.8400
 2.8890	 3.8370
 2.8900	 3.8130
 2.8920	 3.8760
 2.8940	 3.8220
 2.8950	 3.8170
 2.8970	 3.8150
 2.8990	 3.8620
 2.9000	 3.8240
 2.9020	 3.7820
 2.9030	 3.7900
 2.9050	 3.8420
 2.9070	 3.8320
 2.9080	 3.9000
 2.9100	 3.8680
 2.9120	 3.8820
 2.9130	 3.8470
 2.9150	 3.8660
 2.9160	 3.7900
 2.9180	 3.8300
 2.9200	 3.8990
 2.9210	 3.9060
 2.9230	 3.8380
 2.9250	 3.8470
 2.9260	 3.8570
 2.9280	 3.9160
 2.9300	 3.9490
 2.9310	 3.9510
 2.9330	 3.9330
 2.9350	 3.9710
 2.9360	 3.8790
 2.9380	 3.8550
 2.9400	 3.8530
 2.9410	 3.9010
 2.9430	 3.9280
 2.9450	 3.9570
 2.9460	 3.8990
 2.9480	 3.8960
 2.9500	 3.8460
 2.9510	 3.8290
 2.9530	 3.8260
 2.9550	 3.8800
 2.9560	 3.8910
 2.9580	 3.8970
 2.9600	 3.8710
 2.9610	 3.8910
 2.9630	 3.8800
 2.9650	 3.8970
 2.9670	 3.8590
 2.9680	 3.8380
 2.9700	 3.8280
 2.9720	 3.8990
 2.9730	 3.9100
 2.9750	 3.9120
 2.9770	 3.8190
 2.9780	 3.8230
 2.9800	 3.8440
 2.9820	 3.9260
 2.9840	 3.9050
 2.9850	 3.9590
 2.9870	 3.9310
 2.9890	 3.8400
 2.9900	 3.7660
 2.9920	 3.8240
 2.9940	 3.8540
 2.9960	 3.9030
 2.9970	 3.8790
 2.9990	 3.8250
 3.0010	 3.7420
 3.0030	 3.7710
 3.0040	 3.7860
 3.0060	 3.8640
 3.0080	 3.8000
 3.0100	 3.7930
 3.0110	 3.8290
 3.0130	 3.8060
 3.0150	 3.7890
 3.0170	 3.8220
 3.0180	 3.8040
 3.0200	 3.8730
 3.0220	 3.8300
 3.0240	 3.7410
 3.0250	 3.6600
 3.0270	 3.6970
 3.0290	 3.7220
 3.0310	 3.7370
 3.0320	 3.6710
 3.0340	 3.7260
 3.0360	 3.7420
 3.0380	 3.7340
 3.0400	 3.6680
 3.0410	 3.6650
 3.0430	 3.6870
 3.0450	 3.7290
 3.0470	 3.6990
 3.0480	 3.7600
 3.0500	 3.6850
 3.0520	 3.6580
 3.0540	 3.6940
 3.0560	 3.7180
 3.0570	 3.6300
 3.0590	 3.6600
 3.0610	 3.6430
 3.0630	 3.6460
 3.0650	 3.6130
 3.0670	 3.6220
 3.0680	 3.6290
 3.0700	 3.7080
 3.0720	 3.7260
 3.0740	 3.7320
 3.0760	 3.7010
 3.0770	 3.7330
 3.0790	 3.6820
 3.0810	 3.6120
 3.0830	 3.5750
 3.0850	 3.6240
 3.0870	 3.6470
 3.0880	 3.6730
 3.0900	 3.6330
 3.0920	 3.6170
 3.0940	 3.5800
 3.0960	 3.6630
 3.0980	 3.6460
 3.1000	 3.6430
 3.1010	 3.6390
 3.1030	 3.6200
 3.1050	 3.5690
 3.1070	 3.6050
 3.1090	 3.5790
 3.1110	 3.5590
 3.1130	 3.5590
 3.1140	 3.5990
 3.1160	 3.5750
 3.1180	 3.6020
 3.1200	 3.5600
 3.1220	 3.5290
 3.1240	 3.5170
 3.1260	 3.5640
 3.1280	 3.5320
 3.1290	 3.5690
 3.1310	 3.5650
 3.1330	 3.5210
 3.1350	 3.4710
 3.1370	 3.4920
 3.1390	 3.4810
 3.1410	 3.5080
 3.1430	 3.4810
 3.1450	 3.4810
 3.1470	 3.4490
 3.1480	 3.4210
 3.1500	 3.4040
 3.1520	 3.5090
 3.1540	 3.4930
 3.1560	 3.4710
 3.1580	 3.4460
 3.1600	 3.4730
 3.1620	 3.4420
 3.1640	 3.3880
 3.1660	 3.3600
 3.1680	 3.4270
 3.1700	 3.3940
 3.1720	 3.4030
 3.1730	 3.3690
 3.1750	 3.3710
 3.1770	 3.3470
 3.1790	 3.3640
 3.1810	 3.3280
 3.1830	 3.3380
 3.1850	 3.3530
 3.1870	 3.3950
 3.1890	 3.3790
 3.1910	 3.3890
 3.1930	 3.3840
 3.1950	 3.3700
 3.1970	 3.3590
 3.1990	 3.3530
 3.2010	 3.3140
 3.2030	 3.3860
 3.2050	 3.3960
 3.2070	 3.3700
 3.2090	 3.3300
 3.2110	 3.3350
 3.2130	 3.2580
 3.2150	 3.2420
 3.2170	 3.2440
 3.2190	 3.2650
 3.2210	 3.2620
 3.2230	 3.2660
 3.2250	 3.2240
 3.2270	 3.2100
 3.2290	 3.1820
 3.2310	 3.2280
 3.2330	 3.2330
 3.2350	 3.2540
 3.2370	 3.2170
 3.2390	 3.2030
 3.2410	 3.1500
 3.2430	 3.1800
 3.2450	 3.1610
 3.2470	 3.1310
 3.2490	 3.1150
 3.2510	 3.1330
 3.2530	 3.1230
 3.2550	 3.0970
 3.2570	 3.0560
 3.2590	 3.1170
 3.2610	 3.1300
 3.2630	 3.1720
 3.2650	 3.1620
 3.2670	 3.1440
 3.2700	 3.0880
 3.2720	 3.1260
 3.2740	 3.1310
 3.2760	 3.1560
 3.2780	 3.1120
 3.2800	 3.0990
 3.2820	 3.1050
 3.2840	 3.0770
 3.2860	 3.0120
 3.2880	 3.0380
 3.2900	 3.0390
 3.2920	 3.0730
 3.2940	 3.0520
 3.2970	 3.0710
 3.2990	 3.0750
 3.3010	 3.0640
 3.3030	 3.0270
 3.3050	 3.0140
 3.3070	 2.9630
 3.3090	 2.9570
 3.3110	 2.9230
 3.3130	 2.9180
 3.3160	 2.9230
 3.3180	 2.9530
 3.3200	 2.8620
 3.3220	 2.8680
 3.3240	 2.8830
 3.3260	 2.8710
 3.3280	 2.8140
 3.3300	 2.8450
 3.3330	 2.8590
 3.3350	 2.8670
 3.3370	 2.8160
 3.3390	 2.7920
 3.3410	 2.7850
 3.3430	 2.7910
 3.3450	 2.7390
 3.3480	 2.7530
 3.3500	 2.7120
 3.3520	 2.6860
 3.3540	 2.6730
 3.3560	 2.6910
 3.3580	 2.6530
 3.3610	 2.6200
 3.3630	 2.5750
 3.3650	 2.5850
 3.3670	 2.5740
 3.3690	 2.5530
 3.3720	 2.4990
 3.3740	 2.5560
 3.3760	 2.6030
 3.3780	 2.5910
 3.3800	 2.5300
 3.3830	 2.5310
 3.3850	 2.5170
 3.3870	 2.5380
 3.3890	 2.5110
 3.3910	 2.4930
 3.3940	 2.4270
 3.3960	 2.3710
 3.3980	 2.3300
 3.4000	 2.3670
 3.4030	 2.4060
 3.4050	 2.4020
 3.4070	 2.4170
 3.4090	 2.5540
 3.4110	 2.6380
 3.4140	 2.7900
 3.4160	 2.9890
 3.4180	 3.2620
 3.4200	 3.6300
 3.4230	 4.2380
 3.4250	 4.9830
 3.4270	 5.7860
 3.4300	 6.2960
 3.4320	 6.2700
 3.4340	 5.8240
 3.4360	 5.3600
 3.4390	 5.0010
 3.4410	 4.8130
 3.4430	 4.6730
 3.4450	 4.5910
 3.4480	 4.4780
 3.4500	 4.3890
 3.4520	 4.3020
 3.4550	 4.2700
 3.4570	 4.2390
 3.4590	 4.2320
 3.4620	 4.1820
 3.4640	 4.1360
 3.4660	 4.0590
 3.4690	 4.0080
 3.4710	 3.9540
 3.4730	 3.9180
 3.4760	 3.7990
 3.4780	 3.7070
 3.4800	 3.6430
 3.4830	 3.5920
 3.4850	 3.4900
 3.4870	 3.4470
 3.4900	 3.4180
 3.4920	 3.3860
 3.4940	 3.3000
 3.4970	 3.2760
 3.4990	 3.2910
 3.5010	 3.3690
 3.5040	 3.5150
 3.5060	 4.0550
 3.5080	 5.0170
 3.5110	 5.9220
 3.5130	 6.0430
 3.5160	 5.6680
 3.5180	 5.2340
 3.5200	 4.9460
 3.5230	 4.7420
 3.5250	 4.6120
 3.5280	 4.4790
 3.5300	 4.4020
 3.5320	 4.3170
 3.5350	 4.2700
 3.5370	 4.2250
 3.5400	 4.2340
 3.5420	 4.1850
 3.5440	 4.1410
 3.5470	 4.0790
 3.5490	 4.0400
 3.5520	 4.0020
 3.5540	 3.9900
 3.5570	 3.9630
 3.5590	 3.9750
 3.5610	 3.9300
 3.5640	 3.9180
 3.5660	 3.8760
 3.5690	 3.8680
 3.5710	 3.8540
 3.5740	 3.8460
 3.5760	 3.8480
 3.5790	 3.8970
 3.5810	 3.8470
 3.5840	 3.8240
 3.5860	 3.8350
 3.5890	 3.8510
 3.5910	 3.8120
 3.5940	 3.8240
 3.5960	 3.7830
 3.5990	 3.7430
 3.6010	 3.7130
 3.6040	 3.7270
 3.6060	 3.7290
 3.6090	 3.7640
 3.6110	 3.7790
 3.6140	 3.7860
 3.6160	 3.7480
 3.6190	 3.7530
 3.6210	 3.7540
 3.6240	 3.7740
 3.6260	 3.7270
 3.6290	 3.7140
 3.6310	 3.7230
 3.6340	 3.7350
 3.6360	 3.7430
 3.6390	 3.7740
 3.6410	 3.7570
 3.6440	 3.7640
 3.6470	 3.7720
 3.6490	 3.7780
 3.6520	 3.7520
 3.6540	 3.7430
 3.6570	 3.7290
 3.6590	 3.7340
 3.6620	 3.7230
 3.6650	 3.7500
 3.6670	 3.7220
 3.6700	 3.7000
 3.6720	 3.6800
 3.6750	 3.6990
 3.6780	 3.7080
 3.6800	 3.7250
 3.6830	 3.7330
 3.6850	 3.7570
 3.6880	 3.7430
 3.6910	 3.7060
 3.6930	 3.6940
 3.6960	 3.7230
 3.6990	 3.6790
 3.7010	 3.6880
 3.7040	 3.6960
 3.7070	 3.7010
 3.7090	 3.7060
 3.7120	 3.7390
 3.7150	 3.7420
 3.7170	 3.7790
 3.7200	 3.7740
 3.7230	 3.7850
 3.7250	 3.7720
 3.7280	 3.7840
 3.7310	 3.7520
 3.7330	 3.7360
 3.7360	 3.7160
 3.7390	 3.7180
 3.7410	 3.6970
 3.7440	 3.7120
 3.7470	 3.7170
 3.7490	 3.7570
 3.7520	 3.7790
 3.7550	 3.7900
 3.7580	 3.7770
 3.7600	 3.7770
 3.7630	 3.8130
 3.7660	 3.8340
 3.7690	 3.7600
 3.7710	 3.7680
 3.7740	 3.8400
 3.7770	 3.8350
 3.7790	 3.7800
 3.7820	 3.7860
 3.7850	 3.8060
 3.7880	 3.8350
 3.7910	 3.8270
 3.7930	 3.8320
 3.7960	 3.8070
 3.7990	 3.8020
 3.8020	 3.8310
 3.8040	 3.8500
 3.8070	 3.8430
 3.8100	 3.8640
 3.8130	 3.8930
 3.8160	 3.9160
 3.8180	 3.8800
 3.8210	 3.8790
 3.8240	 3.8640
 3.8270	 3.8980
 3.8300	 3.9330
 3.8330	 3.9280
 3.8350	 3.8890
 3.8380	 3.8920
 3.8410	 3.8820
 3.8440	 3.8720
 3.8470	 3.8920
 3.8500	 3.9430
 3.8520	 3.9460
 3.8550	 3.9600
 3.8580	 3.9390
 3.8610	 3.9090
 3.8640	 3.8880
 3.8670	 3.9250
 3.8700	 3.9380
 3.8730	 3.9290
 3.8760	 3.9300
 3.8780	 3.9610
 3.8810	 3.9570
 3.8840	 3.9370
 3.8870	 3.9250
 3.8900	 3.9280
 3.8930	 3.9360
 3.8960	 3.9620
 3.8990	 3.9800
 3.9020	 3.9980
 3.9050	 3.9530
 3.9080	 3.9260
 3.9110	 3.9330
 3.9140	 3.9580
 3.9170	 3.9230
 3.9190	 3.9390
 3.9220	 3.9650
 3.9250	 3.9560
 3.9280	 3.9340
 3.9310	 3.9550
 3.9340	 3.9640
 3.9370	 3.9550
 3.9400	 3.9520
 3.9430	 3.9760
 3.9460	 3.9660
 3.9490	 3.9300
 3.9520	 3.9090
 3.9550	 3.9290
 3.9580	 3.9050
 3.9610	 3.9270
 3.9640	 3.9410
 3.9670	 3.9690
 3.9700	 3.9480
 3.9740	 3.9130
 3.9770	 3.9110
 3.9800	 3.9420
 3.9830	 3.9470
 3.9860	 3.9670
 3.9890	 3.9350
 3.9920	 3.9240
 3.9950	 3.9430
 3.9980	 3.9500
 4.0010	 3.9070
 4.0040	 3.8980
 4.0070	 3.9150
 4.0100	 3.9330
 4.0140	 3.9220
 4.0170	 3.9280
 4.0200	 3.9220
 4.0230	 3.9010
 4.0260	 3.8880
 4.0290	 3.9310
 4.0320	 3.9220
 4.0350	 3.8680
 4.0390	 3.8420
 4.0420	 3.8800
 4.0450	 3.9190
 4.0480	 3.9160
 4.0510	 3.8980
 4.0540	 3.8900
 4.0570	 3.8690
 4.0610	 3.8930
 4.0640	 3.9080
 4.0670	 3.8990
 4.0700	 3.8720
 4.0730	 3.8520
 4.0770	 3.8270
 4.0800	 3.8500
 4.0830	 3.8730
 4.0860	 3.8880
 4.0890	 3.8700
 4.0930	 3.8560
 4.0960	 3.8220
 4.0990	 3.8470
 4.1020	 3.8630
 4.1060	 3.8700
 4.1090	 3.8470
 4.1120	 3.8430
 4.1150	 3.8620
 4.1190	 3.9060
 4.1220	 3.9030
 4.1250	 3.8900
 4.1290	 3.8630
 4.1320	 3.8300
 4.1350	 3.8190
 4.1380	 3.8590
 4.1420	 3.8640
 4.1450	 3.8700
 4.1480	 3.8850
 4.1520	 3.8700
 4.1550	 3.8740
 4.1580	 3.9010
 4.1620	 3.8620
 4.1650	 3.8580
 4.1680	 3.8520
 4.1720	 3.8580
 4.1750	 3.8380
 4.1780	 3.8290
 4.1820	 3.8260
 4.1850	 3.8560
 4.1890	 3.8560
 4.1920	 3.8490
 4.1950	 3.8530
 4.1990	 3.8800
 4.2020	 3.8750
 4.2060	 3.8470
 4.2090	 3.8100
 4.2120	 3.8520
 4.2160	 3.8920
 4.2190	 3.8460
 4.2230	 3.8360
 4.2260	 3.9810
 4.2300	 4.0460
 4.2330	 3.9830
 4.2360	 3.9610
 4.2400	 3.9570
 4.2430	 3.9080
 4.2470	 3.8920
 4.2500	 3.8870
 4.2540	 3.8960
 4.2570	 3.8510
 4.2610	 3.8540
 4.2640	 3.8940
 4.2680	 3.9220
 4.2710	 3.9020
 4.2750	 3.9090
 4.2780	 3.9170
 4.2820	 3.8910
 4.2850	 3.8050
 4.2890	 3.8250
 4.2930	 3.8440
 4.2960	 3.8270
 4.3000	 3.8520
 4.3030	 3.8400
 4.3070	 3.8300
 4.3100	 3.8600
 4.3140	 3.8560
 4.3180	 3.8310
 4.3210	 3.8350
 4.3250	 3.8000
 4.3280	 3.7550
 4.3320	 3.8030
 4.3360	 3.8120
 4.3390	 3.7880
 4.3430	 3.7730
 4.3470	 3.7710
 4.3500	 3.7870
 4.3540	 3.7860
 4.3580	 3.7970
 4.3610	 3.7830
 4.3650	 3.7520
 4.3690	 3.7810
 4.3720	 3.7870
 4.3760	 3.7900
 4.3800	 3.7970
 4.3830	 3.7550
 4.3870	 3.7550
 4.3910	 3.8070
 4.3940	 3.7980
 4.3980	 3.7940
 4.4020	 3.7990
 4.4060	 3.7770
 4.4090	 3.7750
 4.4130	 3.8010
 4.4170	 3.7970
 4.4210	 3.8070
 4.4240	 3.8130
 4.4280	 3.8270
 4.4320	 3.8120
 4.4360	 3.7910
 4.4400	 3.7960
 4.4430	 3.7880
 4.4470	 3.7830
 4.4510	 3.7820
 4.4550	 3.7420
 4.4590	 3.7450
 4.4630	 3.7570
 4.4660	 3.7640
 4.4700	 3.7740
 4.4740	 3.7750
 4.4780	 3.7840
 4.4820	 3.7860
 4.4860	 3.7590
 4.4900	 3.7460
 4.4930	 3.7470
 4.4970	 3.7610
 4.5010	 3.7480
 4.5050	 3.7340
 4.5090	 3.7510
 4.5130	 3.7690
 4.5170	 3.7530
 4.5210	 3.7530
 4.5250	 3.7760
 4.5290	 3.7720
 4.5330	 3.7530
 4.5370	 3.7700
 4.5410	 3.7910
 4.5450	 3.7700
 4.5490	 3.7470
 4.5530	 3.7620
 4.5570	 3.7930
 4.5610	 3.7820
 4.5650	 3.7430
 4.5690	 3.7360
 4.5730	 3.7610
 4.5770	 3.7850
 4.5810	 3.7700
 4.5850	 3.7620
 4.5890	 3.7610
 4.5930	 3.7720
 4.5970	 3.7820
 4.6010	 3.7390
 4.6050	 3.7460
 4.6090	 3.7860
 4.6130	 3.7770
 4.6170	 3.7430
 4.6220	 3.7450
 4.6260	 3.7680
 4.6300	 3.7670
 4.6340	 3.7570
 4.6380	 3.7610
 4.6420	 3.7790
 4.6460	 3.7660
 4.6510	 3.7510
 4.6550	 3.7860
 4.6590	 3.7640
 4.6630	 3.7340
 4.6670	 3.7400
 4.6720	 3.7520
 4.6760	 3.7610
 4.6800	 3.7470
 4.6840	 3.7380
 4.6880	 3.7460
 4.6930	 3.7370
 4.6970	 3.7430
 4.7010	 3.7420
 4.7050	 3.7760
 4.7100	 3.7980
 4.7140	 3.7830
 4.7180	 3.7680
 4.7230	 3.7730
 4.7270	 3.7760
 4.7310	 3.7730
 4.7360	 3.7920
 4.7400	 3.7750
 4.7440	 3.7550
 4.7490	 3.7680
 4.7530	 3.8070
 4.7570	 3.7900
 4.7620	 3.7680
 4.7660	 3.8240
 4.7700	 3.8260
 4.7750	 3.7780
 4.7790	 3.7570
 4.7840	 3.7340
 4.7880	 3.7510
 4.7920	 3.7530
 4.7970	 3.7610
 4.8010	 3.7660
 4.8060	 3.7710
 4.8100	 3.7890
 4.8150	 3.7690
 4.8190	 3.7500
 4.8240	 3.7260
 4.8280	 3.7030
 4.8330	 3.7050
 4.8370	 3.7280
 4.8420	 3.7460
 4.8460	 3.7870
 4.8510	 3.7610
 4.8550	 3.7060
 4.8600	 3.7280
 4.8640	 3.7660
 4.8690	 3.7630
 4.8740	 3.7470
 4.8780	 3.7330
 4.8830	 3.7560
 4.8870	 3.7550
 4.8920	 3.7660
 4.8970	 3.7500
 4.9010	 3.7400
 4.9060	 3.7520
 4.9100	 3.7570
 4.9150	 3.7390
 4.9200	 3.7630
 4.9240	 3.7640
 4.9290	 3.7810
 4.9340	 3.7580
 4.9390	 3.7280
 4.9430	 3.7410
 4.9480	 3.7640
 4.9530	 3.7740
 4.9570	 3.7680
 4.9620	 3.7550
 4.9670	 3.7940
 4.9720	 3.8210
 4.9760	 3.8090
 4.9810	 3.7820
 4.9860	 3.7610
 4.9910	 3.7570
 4.9960	 3.7810
 5.0000	 3.7900
 5.0050	 3.8020
 5.0100	 3.7910
 5.0150	 3.8080
 5.0200	 3.8070
 5.0250	 3.8060
 5.0300	 3.7910
 5.0340	 3.7810
 5.0390	 3.7630
 5.0440	 3.7930
 5.0490	 3.7960
 5.0540	 3.7610
 5.0590	 3.7490
 5.0640	 3.7950
 5.0690	 3.8080
 5.0740	 3.8190
 5.0790	 3.8370
 5.0840	 3.8090
 5.0890	 3.7820
 5.0940	 3.7890
 5.0990	 3.7840
 5.1040	 3.7920
 5.1090	 3.7950
 5.1140	 3.8090
 5.1190	 3.8000
 5.1240	 3.8090
 5.1290	 3.7880
 5.1340	 3.7990
 5.1390	 3.7890
 5.1440	 3.7770
 5.1490	 3.7810
 5.1550	 3.7940
 5.1600	 3.7660
 5.1650	 3.7700
 5.1700	 3.7760
 5.1750	 3.8020
 5.1800	 3.8320
 5.1850	 3.8360
 5.1910	 3.8090
 5.1960	 3.7930
 5.2010	 3.7570
 5.2060	 3.7990
 5.2110	 3.8180
 5.2170	 3.8090
 5.2220	 3.8080
 5.2270	 3.8000
 5.2330	 3.7910
 5.2380	 3.7810
 5.2430	 3.7670
 5.2480	 3.7920
 5.2540	 3.7850
 5.2590	 3.7930
 5.2640	 3.7940
 5.2700	 3.8050
 5.2750	 3.7730
 5.2800	 3.7830
 5.2860	 3.7890
 5.2910	 3.7770
 5.2970	 3.7500
 5.3020	 3.7850
 5.3080	 3.7600
 5.3130	 3.7470
 5.3180	 3.7600
 5.3240	 3.7620
 5.3290	 3.7440
 5.3350	 3.7590
 5.3400	 3.7540
 5.3460	 3.7440
 5.3510	 3.7060
 5.3570	 3.7170
 5.3620	 3.7370
 5.3680	 3.7380
 5.3740	 3.7180
 5.3790	 3.7380
 5.3850	 3.7670
 5.3900	 3.7670
 5.3960	 3.7130
 5.4010	 3.7000
 5.4070	 3.6810
 5.4130	 3.6970
 5.4180	 3.6750
 5.4240	 3.6970
 5.4300	 3.7010
 5.4350	 3.6880
 5.4410	 3.6830
 5.4470	 3.6720
 5.4530	 3.6640
 5.4580	 3.6940
 5.4640	 3.6640
 5.4700	 3.6620
 5.4760	 3.6650
 5.4810	 3.6800
 5.4870	 3.6590
 5.4930	 3.6360
 5.4990	 3.5880
 5.5050	 3.5840
