Name: Calocedrus decrruens 1
Type: vegetation
Class: Tree
Genus: Calocedrus
Species: decurrens
Sample No.: VH146
Owner: UCSB
Wavelength Range: TIR
Origin: 37.0432; -119.304; WGS84
Collection Date: 6/8/2013
Description: Samples were collected as part of the HyspIRI Airborne Campaign. 48 individual plants were sampled in three times in 2013 - spring  summer  and fall. The name of the sample includes a 1  2  or 3 which references a different individual of the species. Samples were taken to JPL and processed within 48 hours of collection. The same leaves were processed in the Nicolet and then measured using the ASD.
Measurement: Hemispherical reflectance
First Column: X
Second Column: Y
X Units: Wavelength (micrometers)
Y Units: Reflectance (percentage)
First X Value: 2.501
Last X Value: 15.387
Number of X Values: 1737
Additional Information: vegetation.tree.calocedrus.decurrens.tir.vh146.ucsb.nicolet.ancillary.txt

 2.5010	 6.0470
 2.5030	 6.1810
 2.5040	 6.2890
 2.5050	 6.2880
 2.5060	 6.3500
 2.5070	 6.2110
 2.5090	 6.1350
 2.5100	 6.0380
 2.5110	 6.0290
 2.5120	 5.9880
 2.5140	 6.0100
 2.5150	 6.0320
 2.5160	 6.0920
 2.5170	 5.9490
 2.5180	 6.0150
 2.5200	 6.0230
 2.5210	 6.1060
 2.5220	 6.0990
 2.5230	 6.0530
 2.5250	 5.9870
 2.5260	 5.9010
 2.5270	 5.7760
 2.5280	 5.8050
 2.5290	 5.8260
 2.5310	 5.8130
 2.5320	 5.8640
 2.5330	 6.0000
 2.5340	 6.0310
 2.5360	 6.1190
 2.5370	 6.0520
 2.5380	 6.0400
 2.5390	 5.9860
 2.5410	 5.9890
 2.5420	 6.0520
 2.5430	 5.9310
 2.5440	 5.7910
 2.5460	 6.0030
 2.5470	 6.1130
 2.5480	 6.1250
 2.5490	 6.0510
 2.5510	 6.0460
 2.5520	 5.9100
 2.5530	 5.9560
 2.5540	 6.0690
 2.5560	 6.2600
 2.5570	 6.2450
 2.5580	 6.1770
 2.5590	 6.1750
 2.5610	 6.3190
 2.5620	 6.1760
 2.5630	 6.1150
 2.5640	 6.0490
 2.5660	 6.1540
 2.5670	 6.2270
 2.5680	 6.2680
 2.5700	 6.1380
 2.5710	 6.0430
 2.5720	 5.9530
 2.5730	 6.0040
 2.5750	 6.1450
 2.5760	 6.3570
 2.5770	 6.0920
 2.5790	 5.9000
 2.5800	 5.9530
 2.5810	 5.9840
 2.5820	 5.9410
 2.5840	 6.0390
 2.5850	 6.1350
 2.5860	 6.0780
 2.5880	 6.0380
 2.5890	 6.0980
 2.5900	 5.8590
 2.5910	 5.9110
 2.5930	 6.0430
 2.5940	 6.0600
 2.5950	 5.9390
 2.5970	 6.0640
 2.5980	 5.9770
 2.5990	 5.9880
 2.6000	 6.0400
 2.6020	 5.9910
 2.6030	 5.9100
 2.6040	 5.8770
 2.6060	 5.7550
 2.6070	 5.8360
 2.6080	 5.8920
 2.6100	 5.7990
 2.6110	 5.6620
 2.6120	 5.7060
 2.6140	 5.6930
 2.6150	 5.7220
 2.6160	 5.6600
 2.6180	 5.5920
 2.6190	 5.5340
 2.6200	 5.5050
 2.6220	 5.4880
 2.6230	 5.5380
 2.6240	 5.5840
 2.6260	 5.6610
 2.6270	 5.5570
 2.6280	 5.4670
 2.6300	 5.3700
 2.6310	 5.2990
 2.6320	 5.1170
 2.6340	 5.2610
 2.6350	 5.2910
 2.6360	 5.0980
 2.6380	 4.9810
 2.6390	 5.0320
 2.6400	 4.9700
 2.6420	 4.9400
 2.6430	 4.9040
 2.6440	 4.8400
 2.6460	 4.6570
 2.6470	 4.6410
 2.6480	 4.7250
 2.6500	 4.7770
 2.6510	 4.7700
 2.6520	 4.7090
 2.6540	 4.5320
 2.6550	 4.4620
 2.6560	 4.5380
 2.6580	 4.6760
 2.6590	 4.5330
 2.6610	 4.4730
 2.6620	 4.4320
 2.6630	 4.4220
 2.6650	 4.3190
 2.6660	 4.2420
 2.6670	 4.1020
 2.6690	 4.0520
 2.6700	 4.1630
 2.6720	 4.1900
 2.6730	 4.0690
 2.6740	 3.9920
 2.6760	 3.9040
 2.6770	 3.9490
 2.6780	 3.8900
 2.6800	 4.0350
 2.6810	 3.9630
 2.6830	 3.9040
 2.6840	 3.8200
 2.6850	 3.6560
 2.6870	 3.5040
 2.6880	 3.5950
 2.6900	 3.6490
 2.6910	 3.5400
 2.6920	 3.3430
 2.6940	 3.3770
 2.6950	 3.3180
 2.6970	 3.3190
 2.6980	 3.3670
 2.6990	 3.3040
 2.7010	 3.2030
 2.7020	 3.2590
 2.7040	 3.3690
 2.7050	 3.2900
 2.7060	 3.0370
 2.7080	 3.0650
 2.7090	 3.0870
 2.7110	 3.2190
 2.7120	 3.1990
 2.7130	 3.1460
 2.7150	 3.0500
 2.7160	 3.1800
 2.7180	 3.1860
 2.7190	 2.9530
 2.7210	 2.7970
 2.7220	 2.8920
 2.7230	 2.9100
 2.7250	 3.0550
 2.7260	 2.9460
 2.7280	 2.9950
 2.7290	 2.8850
 2.7310	 2.9280
 2.7320	 3.0720
 2.7330	 2.9970
 2.7350	 2.8620
 2.7360	 3.0510
 2.7380	 3.0480
 2.7390	 2.9970
 2.7410	 2.7830
 2.7420	 2.9680
 2.7440	 3.1170
 2.7450	 3.1660
 2.7470	 2.9400
 2.7480	 2.9580
 2.7490	 3.1280
 2.7510	 3.1780
 2.7520	 2.7910
 2.7540	 2.6590
 2.7550	 2.9210
 2.7570	 3.0600
 2.7580	 2.8040
 2.7600	 2.8640
 2.7610	 2.8970
 2.7630	 3.0590
 2.7640	 2.8850
 2.7660	 2.7020
 2.7670	 2.8400
 2.7680	 3.1090
 2.7700	 2.9600
 2.7710	 2.8510
 2.7730	 2.9390
 2.7740	 3.0880
 2.7760	 3.0140
 2.7770	 2.9590
 2.7790	 2.8670
 2.7800	 2.9150
 2.7820	 2.9010
 2.7830	 2.9410
 2.7850	 2.8830
 2.7860	 2.8770
 2.7880	 2.8200
 2.7890	 2.8970
 2.7910	 2.9420
 2.7920	 3.0740
 2.7940	 2.9710
 2.7950	 2.9080
 2.7970	 2.6810
 2.7980	 2.6990
 2.8000	 2.7820
 2.8010	 2.8270
 2.8030	 2.7640
 2.8040	 2.7340
 2.8060	 2.7380
 2.8070	 2.8600
 2.8090	 2.8490
 2.8110	 2.7050
 2.8120	 2.6550
 2.8140	 2.8510
 2.8150	 2.8060
 2.8170	 2.8790
 2.8180	 2.7080
 2.8200	 2.5070
 2.8210	 2.6470
 2.8230	 2.9800
 2.8240	 3.0590
 2.8260	 2.9400
 2.8270	 2.5130
 2.8290	 2.5790
 2.8300	 2.8400
 2.8320	 2.8890
 2.8340	 2.8060
 2.8350	 2.9090
 2.8370	 2.9600
 2.8380	 3.0670
 2.8400	 3.1050
 2.8410	 3.1390
 2.8430	 2.9430
 2.8440	 2.8050
 2.8460	 2.7480
 2.8480	 2.7260
 2.8490	 2.6730
 2.8510	 2.6870
 2.8520	 2.7500
 2.8540	 2.9110
 2.8550	 2.9170
 2.8570	 2.9440
 2.8590	 2.8430
 2.8600	 2.7650
 2.8620	 2.8030
 2.8630	 2.7810
 2.8650	 2.7730
 2.8660	 2.8780
 2.8680	 2.8490
 2.8700	 2.8300
 2.8710	 2.8580
 2.8730	 2.9660
 2.8740	 2.9340
 2.8760	 3.0510
 2.8780	 3.0110
 2.8790	 2.9630
 2.8810	 2.6970
 2.8820	 2.5260
 2.8840	 2.3930
 2.8860	 2.5380
 2.8870	 2.4590
 2.8890	 2.7020
 2.8900	 2.8080
 2.8920	 2.6470
 2.8940	 2.5380
 2.8950	 2.9410
 2.8970	 3.2100
 2.8980	 3.1040
 2.9000	 3.0260
 2.9020	 3.1010
 2.9030	 2.9290
 2.9050	 2.8140
 2.9070	 2.7820
 2.9080	 2.9070
 2.9100	 2.9600
 2.9120	 2.9290
 2.9130	 2.8180
 2.9150	 2.8370
 2.9160	 2.8550
 2.9180	 2.8930
 2.9200	 2.8990
 2.9210	 2.9310
 2.9230	 2.8350
 2.9250	 2.8590
 2.9260	 2.8620
 2.9280	 2.9820
 2.9300	 3.0140
 2.9310	 2.9610
 2.9330	 2.8920
 2.9350	 2.8730
 2.9360	 2.8650
 2.9380	 2.9270
 2.9400	 2.9680
 2.9410	 3.1350
 2.9430	 3.1690
 2.9450	 3.1730
 2.9460	 2.7830
 2.9480	 2.9930
 2.9500	 3.3310
 2.9510	 3.3290
 2.9530	 2.8010
 2.9550	 2.9080
 2.9560	 2.7600
 2.9580	 2.3500
 2.9600	 2.0530
 2.9610	 2.0020
 2.9630	 2.0710
 2.9650	 1.8030
 2.9660	 2.1340
 2.9680	 2.8490
 2.9700	 3.1100
 2.9720	 2.9250
 2.9730	 2.5580
 2.9750	 2.7540
 2.9770	 2.8970
 2.9780	 1.9750
 2.9800	 1.9070
 2.9820	 2.4760
 2.9840	 2.7270
 2.9850	 3.0940
 2.9870	 3.0820
 2.9890	 3.0200
 2.9900	 3.5170
 2.9920	 2.9120
 2.9940	 2.4390
 2.9960	 3.0810
 2.9970	 2.9770
 2.9990	 2.4570
 3.0010	 3.2500
 3.0030	 3.2170
 3.0040	 2.9370
 3.0060	 2.8190
 3.0080	 2.7950
 3.0100	 3.2910
 3.0110	 3.3670
 3.0130	 3.0140
 3.0150	 2.5980
 3.0170	 2.8850
 3.0180	 2.9630
 3.0200	 3.6490
 3.0220	 3.7530
 3.0240	 3.5640
 3.0250	 3.1690
 3.0270	 3.1420
 3.0290	 3.2040
 3.0310	 3.2030
 3.0320	 2.5300
 3.0340	 1.9570
 3.0360	 1.3100
 3.0380	 1.4530
 3.0400	 2.1160
 3.0410	 2.4400
 3.0430	 2.4890
 3.0450	 2.6510
 3.0470	 2.1860
 3.0480	 2.7610
 3.0500	 2.4170
 3.0520	 2.5980
 3.0540	 2.8640
 3.0560	 2.6830
 3.0570	 3.1010
 3.0590	 2.7970
 3.0610	 2.3210
 3.0630	 2.1140
 3.0650	 2.1300
 3.0660	 3.7190
 3.0680	 3.8940
 3.0700	 3.1460
 3.0720	 3.3110
 3.0740	 3.1180
 3.0760	 2.9790
 3.0770	 3.0970
 3.0790	 3.1460
 3.0810	 3.0500
 3.0830	 3.0820
 3.0850	 3.0150
 3.0870	 2.9860
 3.0880	 3.1010
 3.0900	 2.8640
 3.0920	 2.7530
 3.0940	 2.8540
 3.0960	 2.8120
 3.0980	 2.8250
 3.0990	 3.1400
 3.1010	 3.1820
 3.1030	 2.8470
 3.1050	 2.6620
 3.1070	 2.9660
 3.1090	 3.3530
 3.1110	 3.3490
 3.1120	 3.1630
 3.1140	 3.0620
 3.1160	 2.8530
 3.1180	 2.7640
 3.1200	 2.7520
 3.1220	 3.0420
 3.1240	 3.0980
 3.1260	 3.0220
 3.1270	 3.0820
 3.1290	 2.9990
 3.1310	 2.5210
 3.1330	 2.3420
 3.1350	 2.1700
 3.1370	 2.5010
 3.1390	 2.3060
 3.1410	 2.6050
 3.1430	 3.4020
 3.1450	 3.7420
 3.1460	 3.1670
 3.1480	 2.2230
 3.1500	 2.5690
 3.1520	 2.7740
 3.1540	 2.8700
 3.1560	 2.7810
 3.1580	 2.5920
 3.1600	 2.7510
 3.1620	 3.1240
 3.1640	 3.2530
 3.1660	 2.8610
 3.1680	 3.0660
 3.1700	 4.1400
 3.1710	 4.2920
 3.1730	 2.7890
 3.1750	 1.9570
 3.1770	 2.3810
 3.1790	 2.6350
 3.1810	 2.3600
 3.1830	 2.6070
 3.1850	 2.9540
 3.1870	 2.7180
 3.1890	 2.7060
 3.1910	 2.7460
 3.1930	 2.7400
 3.1950	 2.6300
 3.1970	 2.5560
 3.1990	 2.7070
 3.2010	 2.7750
 3.2030	 2.8120
 3.2050	 2.8610
 3.2070	 2.7740
 3.2090	 2.5380
 3.2110	 2.6250
 3.2130	 2.8920
 3.2150	 2.9220
 3.2170	 2.8320
 3.2190	 2.8170
 3.2210	 2.9020
 3.2230	 2.9210
 3.2250	 2.7890
 3.2270	 2.8670
 3.2290	 3.0300
 3.2310	 2.8110
 3.2330	 2.5700
 3.2350	 2.7340
 3.2370	 2.7610
 3.2390	 2.7740
 3.2410	 2.8810
 3.2430	 2.8830
 3.2450	 2.7290
 3.2470	 2.5430
 3.2490	 2.5820
 3.2510	 2.8260
 3.2530	 2.8270
 3.2550	 2.7990
 3.2570	 2.9980
 3.2590	 3.2310
 3.2610	 3.1520
 3.2630	 3.1380
 3.2650	 2.9940
 3.2670	 2.9750
 3.2690	 2.9880
 3.2720	 3.1970
 3.2740	 3.0770
 3.2760	 2.8400
 3.2780	 2.9090
 3.2800	 2.8840
 3.2820	 2.7970
 3.2840	 2.7620
 3.2860	 2.6290
 3.2880	 2.6390
 3.2900	 2.8130
 3.2920	 2.8940
 3.2940	 2.8750
 3.2960	 3.0140
 3.2990	 3.0240
 3.3010	 2.8310
 3.3030	 2.7320
 3.3050	 2.8170
 3.3070	 2.7790
 3.3090	 2.8220
 3.3110	 2.7400
 3.3130	 2.6670
 3.3150	 2.7500
 3.3180	 2.9280
 3.3200	 2.7570
 3.3220	 2.6800
 3.3240	 2.8020
 3.3260	 2.7760
 3.3280	 2.6800
 3.3300	 2.7580
 3.3330	 2.7670
 3.3350	 2.7790
 3.3370	 2.6880
 3.3390	 2.5670
 3.3410	 2.6250
 3.3430	 2.7590
 3.3450	 2.6490
 3.3480	 2.5060
 3.3500	 2.3900
 3.3520	 2.4760
 3.3540	 2.5940
 3.3560	 2.6440
 3.3580	 2.5480
 3.3610	 2.4720
 3.3630	 2.4200
 3.3650	 2.5340
 3.3670	 2.5850
 3.3690	 2.5980
 3.3720	 2.4530
 3.3740	 2.4470
 3.3760	 2.3300
 3.3780	 2.2880
 3.3800	 2.2570
 3.3830	 2.2640
 3.3850	 2.0410
 3.3870	 2.0140
 3.3890	 2.2720
 3.3910	 2.4560
 3.3940	 2.3990
 3.3960	 2.1940
 3.3980	 2.0680
 3.4000	 2.2540
 3.4020	 2.3420
 3.4050	 2.4340
 3.4070	 2.4660
 3.4090	 2.4440
 3.4110	 2.5720
 3.4140	 2.7740
 3.4160	 2.8660
 3.4180	 3.0270
 3.4200	 3.2580
 3.4230	 3.4980
 3.4250	 3.9850
 3.4270	 4.4560
 3.4290	 4.5560
 3.4320	 4.4680
 3.4340	 4.2270
 3.4360	 4.1140
 3.4390	 3.9050
 3.4410	 3.6510
 3.4430	 3.5600
 3.4450	 3.7120
 3.4480	 3.7990
 3.4500	 3.8110
 3.4520	 3.7440
 3.4550	 3.4990
 3.4570	 3.1700
 3.4590	 3.2620
 3.4620	 3.2190
 3.4640	 3.2330
 3.4660	 3.3560
 3.4680	 3.3520
 3.4710	 3.2470
 3.4730	 3.3060
 3.4750	 3.2920
 3.4780	 3.2420
 3.4800	 3.1310
 3.4820	 3.0900
 3.4850	 3.0390
 3.4870	 3.0290
 3.4890	 2.9380
 3.4920	 2.9890
 3.4940	 2.9860
 3.4970	 2.9250
 3.4990	 2.8250
 3.5010	 2.9510
 3.5040	 3.2280
 3.5060	 3.6490
 3.5080	 4.0430
 3.5110	 4.3820
 3.5130	 4.5760
 3.5160	 4.4620
 3.5180	 4.2190
 3.5200	 4.0190
 3.5230	 3.7210
 3.5250	 3.5950
 3.5270	 3.5810
 3.5300	 3.6130
 3.5320	 3.5090
 3.5350	 3.5180
 3.5370	 3.4670
 3.5400	 3.4640
 3.5420	 3.5270
 3.5440	 3.6570
 3.5470	 3.5590
 3.5490	 3.4750
 3.5520	 3.4640
 3.5540	 3.5570
 3.5570	 3.5210
 3.5590	 3.3930
 3.5610	 3.3050
 3.5640	 3.3300
 3.5660	 3.3910
 3.5690	 3.4890
 3.5710	 3.3190
 3.5740	 3.1250
 3.5760	 3.1610
 3.5790	 3.3410
 3.5810	 3.4010
 3.5840	 3.3290
 3.5860	 3.3030
 3.5890	 3.3740
 3.5910	 3.3640
 3.5930	 3.3320
 3.5960	 3.2870
 3.5980	 3.2890
 3.6010	 3.1310
 3.6030	 3.0480
 3.6060	 3.1290
 3.6080	 3.1410
 3.6110	 3.1680
 3.6140	 3.2780
 3.6160	 3.2370
 3.6190	 3.1650
 3.6210	 3.1820
 3.6240	 3.3340
 3.6260	 3.3140
 3.6290	 3.1680
 3.6310	 3.1790
 3.6340	 3.3250
 3.6360	 3.3510
 3.6390	 3.3700
 3.6410	 3.3690
 3.6440	 3.2880
 3.6470	 3.2380
 3.6490	 3.2940
 3.6520	 3.2390
 3.6540	 3.2070
 3.6570	 3.2150
 3.6590	 3.2760
 3.6620	 3.2140
 3.6650	 3.2270
 3.6670	 3.3000
 3.6700	 3.3990
 3.6720	 3.3270
 3.6750	 3.2760
 3.6780	 3.2440
 3.6800	 3.2820
 3.6830	 3.3020
 3.6850	 3.3710
 3.6880	 3.4220
 3.6910	 3.4570
 3.6930	 3.4190
 3.6960	 3.3850
 3.6990	 3.3570
 3.7010	 3.3520
 3.7040	 3.3370
 3.7060	 3.3680
 3.7090	 3.3420
 3.7120	 3.3440
 3.7140	 3.4020
 3.7170	 3.4800
 3.7200	 3.3410
 3.7220	 3.1680
 3.7250	 3.1590
 3.7280	 3.3340
 3.7300	 3.5000
 3.7330	 3.4170
 3.7360	 3.4010
 3.7390	 3.4560
 3.7410	 3.4660
 3.7440	 3.3590
 3.7470	 3.2460
 3.7490	 3.2870
 3.7520	 3.3840
 3.7550	 3.2940
 3.7580	 3.2190
 3.7600	 3.3310
 3.7630	 3.4330
 3.7660	 3.5130
 3.7680	 3.5380
 3.7710	 3.5700
 3.7740	 3.4790
 3.7770	 3.5170
 3.7790	 3.5510
 3.7820	 3.5670
 3.7850	 3.6020
 3.7880	 3.6500
 3.7900	 3.6260
 3.7930	 3.5950
 3.7960	 3.5100
 3.7990	 3.4370
 3.8020	 3.4770
 3.8040	 3.5890
 3.8070	 3.4520
 3.8100	 3.4340
 3.8130	 3.4990
 3.8160	 3.5510
 3.8180	 3.5960
 3.8210	 3.7340
 3.8240	 3.7840
 3.8270	 3.6550
 3.8300	 3.5910
 3.8330	 3.6220
 3.8350	 3.7100
 3.8380	 3.8080
 3.8410	 3.6750
 3.8440	 3.6020
 3.8470	 3.6470
 3.8500	 3.7570
 3.8520	 3.7810
 3.8550	 3.7210
 3.8580	 3.6620
 3.8610	 3.6350
 3.8640	 3.5840
 3.8670	 3.6100
 3.8700	 3.6440
 3.8730	 3.7210
 3.8750	 3.7390
 3.8780	 3.7920
 3.8810	 3.7520
 3.8840	 3.7120
 3.8870	 3.7500
 3.8900	 3.8060
 3.8930	 3.7250
 3.8960	 3.6740
 3.8990	 3.6870
 3.9020	 3.7420
 3.9050	 3.7020
 3.9080	 3.7050
 3.9110	 3.6760
 3.9140	 3.5930
 3.9160	 3.5450
 3.9190	 3.6230
 3.9220	 3.6960
 3.9250	 3.7390
 3.9280	 3.7410
 3.9310	 3.7030
 3.9340	 3.6620
 3.9370	 3.7770
 3.9400	 3.8430
 3.9430	 3.8050
 3.9460	 3.7080
 3.9490	 3.6870
 3.9520	 3.7730
 3.9550	 3.7540
 3.9580	 3.7160
 3.9610	 3.7610
 3.9640	 3.7750
 3.9670	 3.7660
 3.9700	 3.7650
 3.9730	 3.8000
 3.9770	 3.7650
 3.9800	 3.7410
 3.9830	 3.7180
 3.9860	 3.7690
 3.9890	 3.7570
 3.9920	 3.7410
 3.9950	 3.7700
 3.9980	 3.7440
 4.0010	 3.7400
 4.0040	 3.7630
 4.0070	 3.7830
 4.0100	 3.8200
 4.0130	 3.7750
 4.0170	 3.8220
 4.0200	 3.8410
 4.0230	 3.8300
 4.0260	 3.7890
 4.0290	 3.8270
 4.0320	 3.8420
 4.0350	 3.8550
 4.0380	 3.8260
 4.0420	 3.8420
 4.0450	 3.8220
 4.0480	 3.7930
 4.0510	 3.7320
 4.0540	 3.6850
 4.0570	 3.6360
 4.0610	 3.6000
 4.0640	 3.6070
 4.0670	 3.7320
 4.0700	 3.8400
 4.0730	 3.8230
 4.0770	 3.8060
 4.0800	 3.8220
 4.0830	 3.7910
 4.0860	 3.7700
 4.0890	 3.7240
 4.0930	 3.7240
 4.0960	 3.7600
 4.0990	 3.7680
 4.1020	 3.7790
 4.1060	 3.7920
 4.1090	 3.7780
 4.1120	 3.7050
 4.1150	 3.6880
 4.1190	 3.7080
 4.1220	 3.6990
 4.1250	 3.7520
 4.1280	 3.7560
 4.1320	 3.8280
 4.1350	 3.8680
 4.1380	 3.8620
 4.1420	 3.8270
 4.1450	 3.8550
 4.1480	 3.8720
 4.1520	 3.8330
 4.1550	 3.7570
 4.1580	 3.8210
 4.1620	 3.8380
 4.1650	 3.7270
 4.1680	 3.6970
 4.1720	 3.7580
 4.1750	 3.7380
 4.1780	 3.7160
 4.1820	 3.7920
 4.1850	 3.8160
 4.1890	 3.7190
 4.1920	 3.6880
 4.1950	 3.7080
 4.1990	 3.7590
 4.2020	 3.8050
 4.2060	 3.8490
 4.2090	 3.9040
 4.2120	 3.8250
 4.2160	 3.7410
 4.2190	 3.9840
 4.2230	 4.0980
 4.2260	 3.8150
 4.2300	 3.6190
 4.2330	 3.7950
 4.2360	 3.8210
 4.2400	 3.9250
 4.2430	 4.0570
 4.2470	 4.0790
 4.2500	 3.8750
 4.2540	 3.8940
 4.2570	 3.8960
 4.2610	 3.8290
 4.2640	 3.8160
 4.2680	 4.0010
 4.2710	 4.0590
 4.2750	 3.8590
 4.2780	 3.6740
 4.2820	 3.6930
 4.2850	 3.7490
 4.2890	 3.8610
 4.2930	 3.9240
 4.2960	 3.7750
 4.3000	 3.6730
 4.3030	 3.8390
 4.3070	 3.8060
 4.3100	 3.6750
 4.3140	 3.5270
 4.3180	 3.5000
 4.3210	 3.5660
 4.3250	 3.6000
 4.3280	 3.5400
 4.3320	 3.5030
 4.3360	 3.4870
 4.3390	 3.5530
 4.3430	 3.5320
 4.3470	 3.4930
 4.3500	 3.4410
 4.3540	 3.4730
 4.3570	 3.4580
 4.3610	 3.3680
 4.3650	 3.3510
 4.3680	 3.4110
 4.3720	 3.4410
 4.3760	 3.4530
 4.3800	 3.4140
 4.3830	 3.3710
 4.3870	 3.3480
 4.3910	 3.3090
 4.3940	 3.2650
 4.3980	 3.3320
 4.4020	 3.3490
 4.4060	 3.3280
 4.4090	 3.3170
 4.4130	 3.3010
 4.4170	 3.2770
 4.4210	 3.2640
 4.4240	 3.2990
 4.4280	 3.3030
 4.4320	 3.2610
 4.4360	 3.2730
 4.4400	 3.3140
 4.4430	 3.3420
 4.4470	 3.3700
 4.4510	 3.3760
 4.4550	 3.3270
 4.4590	 3.2520
 4.4620	 3.2110
 4.4660	 3.2280
 4.4700	 3.2560
 4.4740	 3.2990
 4.4780	 3.2810
 4.4820	 3.1710
 4.4860	 3.1620
 4.4900	 3.2180
 4.4930	 3.2850
 4.4970	 3.2460
 4.5010	 3.1910
 4.5050	 3.2050
 4.5090	 3.1640
 4.5130	 3.1460
 4.5170	 3.1510
 4.5210	 3.0900
 4.5250	 3.0600
 4.5290	 3.0910
 4.5330	 3.1300
 4.5370	 3.1830
 4.5410	 3.2180
 4.5450	 3.2230
 4.5490	 3.1950
 4.5530	 3.1750
 4.5570	 3.1920
 4.5610	 3.1330
 4.5650	 3.1700
 4.5690	 3.2020
 4.5730	 3.1130
 4.5770	 3.1190
 4.5810	 3.1270
 4.5850	 3.0700
 4.5890	 3.0270
 4.5930	 3.1370
 4.5970	 3.1570
 4.6010	 3.0730
 4.6050	 3.0780
 4.6090	 3.0150
 4.6130	 2.9570
 4.6170	 2.8450
 4.6220	 2.8650
 4.6260	 3.0210
 4.6300	 3.0690
 4.6340	 3.0490
 4.6380	 3.0090
 4.6420	 3.0230
 4.6460	 3.0160
 4.6510	 3.0320
 4.6550	 3.0580
 4.6590	 3.0430
 4.6630	 3.0940
 4.6670	 3.1590
 4.6720	 3.1820
 4.6760	 3.1460
 4.6800	 3.0740
 4.6840	 3.0480
 4.6880	 3.0180
 4.6930	 2.9880
 4.6970	 3.0350
 4.7010	 3.0480
 4.7050	 3.0200
 4.7100	 3.0250
 4.7140	 3.0070
 4.7180	 3.0100
 4.7230	 3.0170
 4.7270	 3.0290
 4.7310	 3.0510
 4.7360	 3.0490
 4.7400	 3.0240
 4.7440	 2.9950
 4.7490	 3.0220
 4.7530	 3.0460
 4.7570	 3.0280
 4.7620	 3.0560
 4.7660	 3.1560
 4.7700	 3.1430
 4.7750	 3.0730
 4.7790	 3.1070
 4.7840	 3.1170
 4.7880	 2.9610
 4.7920	 2.9010
 4.7970	 2.9980
 4.8010	 3.1340
 4.8060	 3.0570
 4.8100	 3.0580
 4.8150	 3.1400
 4.8190	 3.1100
 4.8240	 3.0680
 4.8280	 3.0320
 4.8330	 3.0780
 4.8370	 3.1170
 4.8420	 3.0830
 4.8460	 3.0820
 4.8510	 3.0390
 4.8550	 3.0120
 4.8600	 3.0220
 4.8640	 3.0360
 4.8690	 3.0950
 4.8730	 3.0950
 4.8780	 3.0500
 4.8830	 3.0980
 4.8870	 3.0810
 4.8920	 3.0810
 4.8960	 3.0810
 4.9010	 3.0320
 4.9060	 3.0740
 4.9100	 3.1050
 4.9150	 3.0850
 4.9200	 3.1070
 4.9240	 3.0870
 4.9290	 3.1350
 4.9340	 3.1400
 4.9380	 3.1250
 4.9430	 3.1010
 4.9480	 3.1380
 4.9530	 3.1590
 4.9570	 3.1220
 4.9620	 3.1080
 4.9670	 3.1290
 4.9720	 3.1110
 4.9760	 3.1120
 4.9810	 3.0870
 4.9860	 3.1020
 4.9910	 3.2050
 4.9960	 3.2250
 5.0000	 3.1560
 5.0050	 3.1930
 5.0100	 3.1720
 5.0150	 3.1320
 5.0200	 3.0890
 5.0250	 3.1700
 5.0290	 3.2180
 5.0340	 3.2690
 5.0390	 3.2740
 5.0440	 3.2740
 5.0490	 3.3080
 5.0540	 3.3050
 5.0590	 3.2980
 5.0640	 3.2940
 5.0690	 3.2490
 5.0740	 3.2650
 5.0790	 3.2850
 5.0840	 3.2990
 5.0890	 3.2750
 5.0940	 3.2640
 5.0990	 3.2440
 5.1040	 3.2490
 5.1090	 3.2230
 5.1140	 3.2290
 5.1190	 3.2920
 5.1240	 3.3520
 5.1290	 3.2770
 5.1340	 3.2360
 5.1390	 3.2530
 5.1440	 3.2640
 5.1490	 3.2240
 5.1540	 3.2930
 5.1600	 3.3000
 5.1650	 3.3010
 5.1700	 3.3090
 5.1750	 3.3010
 5.1800	 3.2600
 5.1850	 3.2580
 5.1910	 3.2500
 5.1960	 3.2900
 5.2010	 3.3040
 5.2060	 3.3330
 5.2110	 3.2850
 5.2170	 3.2730
 5.2220	 3.3160
 5.2270	 3.3590
 5.2320	 3.2860
 5.2380	 3.2890
 5.2430	 3.3120
 5.2480	 3.3790
 5.2540	 3.4120
 5.2590	 3.3810
 5.2640	 3.2630
 5.2700	 3.2550
 5.2750	 3.3050
 5.2800	 3.3330
 5.2860	 3.3290
 5.2910	 3.3190
 5.2970	 3.3460
 5.3020	 3.4060
 5.3070	 3.3390
 5.3130	 3.3570
 5.3180	 3.3340
 5.3240	 3.2920
 5.3290	 3.2640
 5.3350	 3.2850
 5.3400	 3.2750
 5.3460	 3.2840
 5.3510	 3.2820
 5.3570	 3.3060
 5.3620	 3.3310
 5.3680	 3.3060
 5.3730	 3.2420
 5.3790	 3.2150
 5.3850	 3.1920
 5.3900	 3.2390
 5.3960	 3.2350
 5.4010	 3.2430
 5.4070	 3.2290
 5.4130	 3.2500
 5.4180	 3.2150
 5.4240	 3.2110
 5.4300	 3.1780
 5.4350	 3.1640
