Name: Baccharis pilularis 3
Type: vegetation
Class: Shrub
Genus: Baccharis
Species: pilularis
Sample No.: VH101
Owner: UCSB
Wavelength Range: TIR
Origin: 34.418; -119.8456; WGS84
Collection Date: 6/3/2013
Description: Samples were collected as part of the HyspIRI Airborne Campaign. 48 individual plants were sampled in three times in 2013 - spring  summer  and fall. The name of the sample includes a 1  2  or 3 which references a different individual of the species. Samples were taken to JPL and processed within 48 hours of collection. The same leaves were processed in the Nicolet and then measured using the ASD.
Measurement: Hemispherical reflectance
First Column: X
Second Column: Y
X Units: Wavelength (micrometers)
Y Units: Reflectance (percentage)
First X Value: 2.501
Last X Value: 15.387
Number of X Values: 1737
Additional Information: vegetation.shrub.baccharis.pilularis.tir.vh101.ucsb.nicolet.ancillary.txt

 2.5010	 3.0320
 2.5030	 3.1120
 2.5040	 3.0870
 2.5050	 3.0250
 2.5060	 3.0380
 2.5070	 3.0360
 2.5090	 3.0470
 2.5100	 3.0170
 2.5110	 3.0220
 2.5120	 3.0070
 2.5140	 3.0250
 2.5150	 3.0230
 2.5160	 3.0230
 2.5170	 3.0140
 2.5180	 3.0260
 2.5200	 3.0180
 2.5210	 3.0220
 2.5220	 2.9680
 2.5230	 3.0070
 2.5250	 3.0200
 2.5260	 3.0570
 2.5270	 3.0210
 2.5280	 3.0240
 2.5290	 3.0380
 2.5310	 3.0530
 2.5320	 3.0190
 2.5330	 3.0090
 2.5340	 3.0370
 2.5360	 3.0700
 2.5370	 3.0320
 2.5380	 3.0470
 2.5390	 3.0130
 2.5410	 3.0420
 2.5420	 3.0830
 2.5430	 3.1130
 2.5440	 3.0800
 2.5460	 3.1220
 2.5470	 3.1180
 2.5480	 3.0940
 2.5490	 3.0890
 2.5510	 3.0910
 2.5520	 3.0850
 2.5530	 3.1210
 2.5540	 3.0600
 2.5560	 3.0440
 2.5570	 3.0620
 2.5580	 3.1010
 2.5590	 3.1090
 2.5610	 3.1450
 2.5620	 3.1360
 2.5630	 3.1630
 2.5640	 3.1660
 2.5660	 3.1620
 2.5670	 3.1500
 2.5680	 3.1760
 2.5700	 3.1440
 2.5710	 3.1520
 2.5720	 3.1540
 2.5730	 3.1560
 2.5750	 3.1270
 2.5760	 3.1630
 2.5770	 3.1710
 2.5790	 3.1940
 2.5800	 3.1600
 2.5810	 3.1880
 2.5820	 3.1770
 2.5840	 3.1370
 2.5850	 3.1020
 2.5860	 3.1310
 2.5880	 3.1700
 2.5890	 3.2240
 2.5900	 3.1580
 2.5910	 3.1760
 2.5930	 3.1680
 2.5940	 3.1630
 2.5950	 3.1110
 2.5970	 3.1010
 2.5980	 3.0990
 2.5990	 3.1750
 2.6000	 3.1860
 2.6020	 3.1760
 2.6030	 3.1140
 2.6040	 3.1080
 2.6060	 3.0780
 2.6070	 3.0850
 2.6080	 3.0820
 2.6100	 3.1220
 2.6110	 3.1280
 2.6120	 3.0980
 2.6140	 3.0990
 2.6150	 3.1520
 2.6160	 3.1140
 2.6180	 3.1210
 2.6190	 3.1310
 2.6200	 3.1020
 2.6220	 3.0490
 2.6230	 3.0590
 2.6240	 3.0530
 2.6260	 3.0910
 2.6270	 3.0270
 2.6280	 3.0070
 2.6300	 3.0140
 2.6310	 3.0680
 2.6320	 3.0790
 2.6340	 3.0830
 2.6350	 3.0520
 2.6360	 3.0830
 2.6380	 3.0090
 2.6390	 2.9840
 2.6400	 2.9600
 2.6420	 2.9370
 2.6430	 2.9080
 2.6440	 2.9170
 2.6460	 2.9030
 2.6470	 2.9360
 2.6480	 2.9160
 2.6500	 2.9240
 2.6510	 2.9100
 2.6520	 2.9200
 2.6540	 2.9120
 2.6550	 2.9320
 2.6560	 2.9070
 2.6580	 2.9030
 2.6590	 2.8880
 2.6610	 2.8940
 2.6620	 2.8670
 2.6630	 2.8700
 2.6650	 2.8290
 2.6660	 2.7990
 2.6670	 2.7970
 2.6690	 2.8300
 2.6700	 2.7830
 2.6720	 2.7530
 2.6730	 2.7320
 2.6740	 2.7570
 2.6760	 2.7550
 2.6770	 2.7430
 2.6780	 2.6900
 2.6800	 2.6820
 2.6810	 2.6560
 2.6830	 2.6310
 2.6840	 2.6050
 2.6850	 2.6020
 2.6870	 2.6060
 2.6880	 2.7030
 2.6900	 2.6560
 2.6910	 2.6460
 2.6920	 2.6610
 2.6940	 2.6670
 2.6950	 2.6230
 2.6970	 2.6040
 2.6980	 2.5640
 2.6990	 2.5800
 2.7010	 2.5650
 2.7020	 2.5530
 2.7040	 2.5380
 2.7050	 2.5910
 2.7060	 2.6230
 2.7080	 2.5700
 2.7090	 2.4850
 2.7110	 2.5100
 2.7120	 2.4870
 2.7130	 2.4770
 2.7150	 2.4540
 2.7160	 2.4700
 2.7180	 2.4500
 2.7190	 2.4410
 2.7210	 2.3910
 2.7220	 2.4140
 2.7230	 2.4240
 2.7250	 2.4510
 2.7260	 2.4080
 2.7280	 2.4070
 2.7290	 2.4030
 2.7310	 2.4300
 2.7320	 2.3920
 2.7330	 2.3900
 2.7350	 2.3690
 2.7360	 2.3730
 2.7380	 2.3480
 2.7390	 2.3510
 2.7410	 2.3250
 2.7420	 2.3520
 2.7440	 2.3300
 2.7450	 2.3610
 2.7470	 2.3410
 2.7480	 2.3460
 2.7490	 2.3130
 2.7510	 2.3220
 2.7520	 2.3160
 2.7540	 2.3450
 2.7550	 2.2670
 2.7570	 2.2670
 2.7580	 2.3000
 2.7600	 2.3090
 2.7610	 2.2630
 2.7630	 2.2490
 2.7640	 2.2520
 2.7660	 2.3040
 2.7670	 2.2810
 2.7680	 2.2950
 2.7700	 2.2960
 2.7710	 2.3010
 2.7730	 2.2820
 2.7740	 2.2790
 2.7760	 2.2460
 2.7770	 2.2490
 2.7790	 2.2720
 2.7800	 2.2720
 2.7820	 2.2070
 2.7830	 2.2060
 2.7850	 2.1880
 2.7860	 2.2090
 2.7880	 2.2250
 2.7890	 2.2830
 2.7910	 2.2320
 2.7920	 2.2080
 2.7940	 2.1940
 2.7950	 2.2400
 2.7970	 2.2560
 2.7980	 2.2130
 2.8000	 2.1430
 2.8010	 2.1700
 2.8030	 2.1820
 2.8040	 2.1980
 2.8060	 2.1620
 2.8070	 2.1760
 2.8090	 2.1820
 2.8110	 2.2240
 2.8120	 2.1810
 2.8140	 2.1930
 2.8150	 2.2120
 2.8170	 2.2340
 2.8180	 2.2070
 2.8200	 2.1780
 2.8210	 2.1740
 2.8230	 2.1950
 2.8240	 2.1720
 2.8260	 2.1900
 2.8270	 2.1800
 2.8290	 2.2050
 2.8300	 2.2070
 2.8320	 2.2040
 2.8340	 2.1640
 2.8350	 2.2100
 2.8370	 2.1870
 2.8380	 2.1660
 2.8400	 2.1700
 2.8410	 2.1480
 2.8430	 2.1030
 2.8440	 2.1130
 2.8460	 2.0880
 2.8480	 2.1100
 2.8490	 2.1130
 2.8510	 2.1200
 2.8520	 2.1210
 2.8540	 2.1730
 2.8550	 2.2070
 2.8570	 2.1890
 2.8590	 2.1200
 2.8600	 2.1520
 2.8620	 2.1210
 2.8630	 2.0880
 2.8650	 2.0500
 2.8660	 2.0520
 2.8680	 2.0570
 2.8700	 2.1140
 2.8710	 2.1510
 2.8730	 2.1700
 2.8740	 2.1170
 2.8760	 2.1270
 2.8780	 2.1330
 2.8790	 2.1450
 2.8810	 2.0990
 2.8820	 2.0830
 2.8840	 2.0700
 2.8860	 2.1260
 2.8870	 2.1180
 2.8890	 2.1260
 2.8900	 2.1050
 2.8920	 2.1170
 2.8940	 2.1180
 2.8950	 2.1240
 2.8970	 2.0990
 2.8980	 2.1170
 2.9000	 2.0990
 2.9020	 2.1350
 2.9030	 2.0970
 2.9050	 2.1210
 2.9070	 2.0880
 2.9080	 2.0760
 2.9100	 2.0940
 2.9120	 2.1470
 2.9130	 2.1430
 2.9150	 2.1590
 2.9160	 2.1660
 2.9180	 2.1790
 2.9200	 2.1410
 2.9210	 2.1390
 2.9230	 2.1440
 2.9250	 2.1730
 2.9260	 2.1580
 2.9280	 2.1990
 2.9300	 2.1700
 2.9310	 2.1710
 2.9330	 2.1480
 2.9350	 2.1660
 2.9360	 2.1570
 2.9380	 2.1790
 2.9400	 2.1560
 2.9410	 2.1790
 2.9430	 2.1370
 2.9450	 2.1270
 2.9460	 2.1290
 2.9480	 2.1570
 2.9500	 2.1610
 2.9510	 2.1680
 2.9530	 2.1850
 2.9550	 2.2130
 2.9560	 2.1890
 2.9580	 2.1970
 2.9600	 2.1960
 2.9610	 2.2340
 2.9630	 2.2200
 2.9650	 2.2440
 2.9660	 2.2660
 2.9680	 2.2680
 2.9700	 2.1980
 2.9720	 2.2400
 2.9730	 2.2690
 2.9750	 2.2530
 2.9770	 2.2170
 2.9780	 2.2750
 2.9800	 2.2690
 2.9820	 2.2610
 2.9840	 2.2430
 2.9850	 2.3010
 2.9870	 2.2990
 2.9890	 2.2870
 2.9900	 2.2800
 2.9920	 2.3250
 2.9940	 2.2940
 2.9960	 2.2690
 2.9970	 2.2920
 2.9990	 2.3260
 3.0010	 2.3440
 3.0030	 2.3470
 3.0040	 2.2740
 3.0060	 2.3200
 3.0080	 2.3590
 3.0100	 2.3840
 3.0110	 2.3810
 3.0130	 2.4090
 3.0150	 2.3660
 3.0170	 2.3990
 3.0180	 2.4330
 3.0200	 2.4040
 3.0220	 2.3350
 3.0240	 2.3470
 3.0250	 2.3330
 3.0270	 2.3230
 3.0290	 2.3120
 3.0310	 2.3510
 3.0320	 2.3820
 3.0340	 2.3890
 3.0360	 2.3420
 3.0380	 2.3280
 3.0400	 2.3260
 3.0410	 2.3820
 3.0430	 2.4020
 3.0450	 2.4320
 3.0470	 2.4140
 3.0480	 2.4520
 3.0500	 2.4600
 3.0520	 2.4690
 3.0540	 2.4210
 3.0560	 2.4250
 3.0570	 2.4120
 3.0590	 2.4490
 3.0610	 2.4620
 3.0630	 2.4780
 3.0650	 2.4440
 3.0660	 2.4850
 3.0680	 2.5200
 3.0700	 2.5380
 3.0720	 2.5170
 3.0740	 2.5180
 3.0760	 2.4990
 3.0770	 2.4920
 3.0790	 2.4840
 3.0810	 2.5170
 3.0830	 2.4850
 3.0850	 2.5200
 3.0870	 2.5340
 3.0880	 2.5410
 3.0900	 2.4990
 3.0920	 2.4640
 3.0940	 2.4940
 3.0960	 2.6060
 3.0980	 2.5580
 3.0990	 2.4980
 3.1010	 2.5320
 3.1030	 2.5850
 3.1050	 2.5570
 3.1070	 2.5690
 3.1090	 2.5980
 3.1110	 2.6460
 3.1120	 2.6350
 3.1140	 2.6470
 3.1160	 2.5890
 3.1180	 2.6220
 3.1200	 2.6250
 3.1220	 2.6350
 3.1240	 2.6160
 3.1260	 2.6070
 3.1270	 2.5610
 3.1290	 2.5750
 3.1310	 2.5850
 3.1330	 2.6470
 3.1350	 2.6550
 3.1370	 2.6590
 3.1390	 2.6260
 3.1410	 2.6110
 3.1430	 2.6050
 3.1450	 2.6290
 3.1460	 2.6060
 3.1480	 2.6680
 3.1500	 2.6900
 3.1520	 2.6880
 3.1540	 2.6940
 3.1560	 2.7230
 3.1580	 2.6710
 3.1600	 2.6600
 3.1620	 2.6640
 3.1640	 2.6870
 3.1660	 2.6830
 3.1680	 2.7380
 3.1700	 2.7600
 3.1710	 2.7510
 3.1730	 2.6750
 3.1750	 2.7200
 3.1770	 2.7380
 3.1790	 2.7670
 3.1810	 2.7570
 3.1830	 2.7470
 3.1850	 2.7440
 3.1870	 2.8130
 3.1890	 2.7570
 3.1910	 2.7300
 3.1930	 2.7540
 3.1950	 2.8170
 3.1970	 2.8350
 3.1990	 2.8380
 3.2010	 2.8120
 3.2030	 2.7990
 3.2050	 2.7640
 3.2070	 2.8020
 3.2090	 2.8230
 3.2110	 2.8320
 3.2130	 2.8070
 3.2150	 2.8260
 3.2170	 2.8170
 3.2190	 2.8320
 3.2210	 2.7990
 3.2230	 2.8150
 3.2250	 2.8340
 3.2270	 2.8860
 3.2290	 2.8540
 3.2310	 2.8660
 3.2330	 2.8790
 3.2350	 2.9110
 3.2370	 2.8840
 3.2390	 2.8640
 3.2410	 2.8380
 3.2430	 2.8850
 3.2450	 2.8940
 3.2470	 2.8770
 3.2490	 2.8720
 3.2510	 2.8940
 3.2530	 2.8610
 3.2550	 2.8780
 3.2570	 2.8390
 3.2590	 2.8460
 3.2610	 2.8500
 3.2630	 2.8800
 3.2650	 2.8420
 3.2670	 2.8600
 3.2690	 2.8790
 3.2720	 2.9300
 3.2740	 2.9010
 3.2760	 2.8970
 3.2780	 2.9090
 3.2800	 2.8990
 3.2820	 2.8830
 3.2840	 2.9150
 3.2860	 2.8680
 3.2880	 2.9080
 3.2900	 2.9430
 3.2920	 2.9860
 3.2940	 2.9690
 3.2960	 2.9580
 3.2990	 2.9400
 3.3010	 2.8940
 3.3030	 2.8400
 3.3050	 2.8670
 3.3070	 2.8970
 3.3090	 2.9810
 3.3110	 2.9850
 3.3130	 2.9580
 3.3150	 2.9020
 3.3180	 2.8700
 3.3200	 2.8550
 3.3220	 2.9250
 3.3240	 2.9440
 3.3260	 2.9210
 3.3280	 2.8640
 3.3300	 2.8660
 3.3330	 2.8860
 3.3350	 2.9390
 3.3370	 2.9150
 3.3390	 2.9020
 3.3410	 2.8570
 3.3430	 2.8190
 3.3450	 2.7920
 3.3480	 2.8110
 3.3500	 2.7950
 3.3520	 2.8120
 3.3540	 2.7450
 3.3560	 2.7180
 3.3580	 2.7360
 3.3610	 2.7660
 3.3630	 2.7260
 3.3650	 2.6940
 3.3670	 2.6440
 3.3690	 2.6660
 3.3720	 2.6380
 3.3740	 2.6480
 3.3760	 2.6590
 3.3780	 2.7080
 3.3800	 2.6920
 3.3830	 2.7060
 3.3850	 2.7050
 3.3870	 2.7080
 3.3890	 2.7140
 3.3910	 2.7750
 3.3940	 2.7620
 3.3960	 2.7650
 3.3980	 2.7810
 3.4000	 2.8200
 3.4020	 2.7920
 3.4050	 2.7730
 3.4070	 2.7530
 3.4090	 2.7810
 3.4110	 2.8040
 3.4140	 2.8550
 3.4160	 2.8780
 3.4180	 2.9460
 3.4200	 3.0080
 3.4230	 3.1210
 3.4250	 3.2450
 3.4270	 3.4010
 3.4290	 3.4830
 3.4320	 3.4940
 3.4340	 3.4480
 3.4360	 3.3900
 3.4390	 3.2930
 3.4410	 3.2740
 3.4430	 3.2340
 3.4450	 3.2640
 3.4480	 3.2370
 3.4500	 3.2430
 3.4520	 3.2530
 3.4550	 3.2910
 3.4570	 3.2730
 3.4590	 3.2900
 3.4620	 3.3080
 3.4640	 3.3210
 3.4660	 3.2710
 3.4680	 3.2890
 3.4710	 3.2750
 3.4730	 3.2970
 3.4750	 3.2140
 3.4780	 3.1770
 3.4800	 3.2030
 3.4820	 3.2570
 3.4850	 3.2690
 3.4870	 3.2710
 3.4890	 3.2530
 3.4920	 3.3000
 3.4940	 3.2850
 3.4970	 3.2780
 3.4990	 3.2750
 3.5010	 3.3480
 3.5040	 3.3860
 3.5060	 3.4730
 3.5080	 3.6460
 3.5110	 3.8540
 3.5130	 3.8800
 3.5160	 3.8420
 3.5180	 3.7550
 3.5200	 3.7720
 3.5230	 3.7660
 3.5250	 3.7120
 3.5270	 3.6710
 3.5300	 3.6650
 3.5320	 3.6120
 3.5350	 3.6550
 3.5370	 3.7090
 3.5400	 3.7240
 3.5420	 3.7000
 3.5440	 3.7570
 3.5470	 3.8180
 3.5490	 3.8060
 3.5520	 3.7670
 3.5540	 3.7620
 3.5570	 3.6840
 3.5590	 3.7420
 3.5610	 3.7810
 3.5640	 3.7760
 3.5660	 3.7520
 3.5690	 3.7420
 3.5710	 3.7460
 3.5740	 3.8200
 3.5760	 3.7930
 3.5790	 3.7260
 3.5810	 3.7340
 3.5840	 3.7880
 3.5860	 3.7320
 3.5890	 3.7190
 3.5910	 3.7630
 3.5930	 3.8110
 3.5960	 3.7900
 3.5980	 3.7650
 3.6010	 3.7700
 3.6030	 3.8210
 3.6060	 3.8290
 3.6080	 3.8360
 3.6110	 3.8290
 3.6140	 3.8210
 3.6160	 3.7820
 3.6190	 3.8020
 3.6210	 3.7850
 3.6240	 3.8000
 3.6260	 3.7960
 3.6290	 3.8260
 3.6310	 3.8580
 3.6340	 3.8840
 3.6360	 3.8880
 3.6390	 3.9330
 3.6410	 3.9020
 3.6440	 3.8640
 3.6470	 3.8550
 3.6490	 3.8920
 3.6520	 3.9240
 3.6540	 3.9380
 3.6570	 3.9080
 3.6590	 3.8780
 3.6620	 3.8450
 3.6650	 3.9120
 3.6670	 3.8950
 3.6700	 3.8950
 3.6720	 3.9270
 3.6750	 3.9400
 3.6780	 3.9340
 3.6800	 3.9760
 3.6830	 3.9610
 3.6850	 3.9680
 3.6880	 3.9410
 3.6910	 3.9660
 3.6930	 3.9680
 3.6960	 3.9640
 3.6990	 3.9740
 3.7010	 4.0010
 3.7040	 3.9570
 3.7060	 3.9460
 3.7090	 3.9620
 3.7120	 4.0170
 3.7140	 4.0020
 3.7170	 3.9890
 3.7200	 3.9730
 3.7220	 3.9920
 3.7250	 3.9940
 3.7280	 4.0000
 3.7300	 4.0020
 3.7330	 4.0020
 3.7360	 3.9760
 3.7390	 3.9780
 3.7410	 3.9990
 3.7440	 4.0840
 3.7470	 4.0900
 3.7490	 4.1050
 3.7520	 4.1120
 3.7550	 4.1120
 3.7580	 4.0780
 3.7600	 4.0730
 3.7630	 4.0740
 3.7660	 4.0980
 3.7680	 4.1120
 3.7710	 4.1520
 3.7740	 4.1540
 3.7770	 4.1630
 3.7790	 4.1650
 3.7820	 4.1780
 3.7850	 4.1720
 3.7880	 4.1910
 3.7900	 4.1860
 3.7930	 4.2060
 3.7960	 4.2070
 3.7990	 4.2070
 3.8020	 4.1890
 3.8040	 4.2200
 3.8070	 4.1980
 3.8100	 4.1900
 3.8130	 4.2000
 3.8160	 4.2150
 3.8180	 4.1880
 3.8210	 4.1960
 3.8240	 4.2250
 3.8270	 4.2210
 3.8300	 4.1720
 3.8330	 4.2330
 3.8350	 4.2840
 3.8380	 4.3010
 3.8410	 4.2830
 3.8440	 4.2850
 3.8470	 4.2500
 3.8500	 4.2740
 3.8520	 4.2900
 3.8550	 4.3050
 3.8580	 4.2830
 3.8610	 4.2790
 3.8640	 4.2980
 3.8670	 4.3400
 3.8700	 4.3020
 3.8730	 4.2920
 3.8750	 4.3270
 3.8780	 4.3560
 3.8810	 4.3300
 3.8840	 4.3190
 3.8870	 4.3200
 3.8900	 4.3610
 3.8930	 4.3380
 3.8960	 4.3390
 3.8990	 4.3330
 3.9020	 4.3690
 3.9050	 4.3380
 3.9080	 4.3420
 3.9110	 4.3320
 3.9140	 4.3140
 3.9160	 4.3060
 3.9190	 4.3610
 3.9220	 4.3660
 3.9250	 4.3660
 3.9280	 4.3790
 3.9310	 4.4390
 3.9340	 4.4170
 3.9370	 4.4210
 3.9400	 4.4080
 3.9430	 4.3770
 3.9460	 4.3700
 3.9490	 4.4150
 3.9520	 4.3990
 3.9550	 4.3640
 3.9580	 4.3430
 3.9610	 4.4070
 3.9640	 4.4050
 3.9670	 4.3820
 3.9700	 4.3470
 3.9730	 4.3250
 3.9770	 4.3730
 3.9800	 4.4250
 3.9830	 4.3930
 3.9860	 4.3980
 3.9890	 4.3670
 3.9920	 4.3460
 3.9950	 4.3500
 3.9980	 4.3640
 4.0010	 4.3210
 4.0040	 4.3250
 4.0070	 4.3530
 4.0100	 4.3870
 4.0130	 4.3520
 4.0170	 4.3220
 4.0200	 4.3240
 4.0230	 4.3940
 4.0260	 4.4050
 4.0290	 4.4010
 4.0320	 4.3950
 4.0350	 4.3880
 4.0380	 4.3710
 4.0420	 4.3960
 4.0450	 4.4080
 4.0480	 4.4210
 4.0510	 4.3480
 4.0540	 4.3380
 4.0570	 4.3490
 4.0610	 4.3300
 4.0640	 4.3280
 4.0670	 4.3570
 4.0700	 4.3700
 4.0730	 4.4420
 4.0770	 4.3910
 4.0800	 4.3840
 4.0830	 4.3830
 4.0860	 4.3820
 4.0890	 4.3650
 4.0930	 4.3720
 4.0960	 4.3710
 4.0990	 4.3760
 4.1020	 4.4020
 4.1060	 4.3950
 4.1090	 4.3510
 4.1120	 4.3960
 4.1150	 4.4040
 4.1190	 4.4070
 4.1220	 4.3880
 4.1250	 4.3630
 4.1280	 4.3830
 4.1320	 4.4010
 4.1350	 4.3770
 4.1380	 4.3960
 4.1420	 4.3770
 4.1450	 4.3210
 4.1480	 4.2980
 4.1520	 4.3340
 4.1550	 4.3400
 4.1580	 4.3300
 4.1620	 4.3330
 4.1650	 4.3620
 4.1680	 4.3690
 4.1720	 4.3600
 4.1750	 4.3190
 4.1780	 4.3140
 4.1820	 4.3210
 4.1850	 4.2860
 4.1890	 4.2540
 4.1920	 4.2700
 4.1950	 4.2250
 4.1990	 4.1220
 4.2020	 3.8830
 4.2060	 3.6110
 4.2090	 3.3310
 4.2120	 3.0690
 4.2160	 2.8040
 4.2190	 2.5600
 4.2230	 2.3550
 4.2260	 2.1870
 4.2300	 2.0760
 4.2330	 2.0520
 4.2360	 2.0310
 4.2400	 2.0050
 4.2430	 2.0800
 4.2470	 2.2300
 4.2500	 2.5380
 4.2540	 2.9640
 4.2570	 3.2420
 4.2610	 3.0450
 4.2640	 2.6480
 4.2680	 2.4920
 4.2710	 2.4590
 4.2750	 2.3990
 4.2780	 2.3850
 4.2820	 2.4560
 4.2850	 2.5030
 4.2890	 2.5160
 4.2930	 2.5090
 4.2960	 2.5760
 4.3000	 2.6790
 4.3030	 2.7730
 4.3070	 2.8610
 4.3100	 2.9450
 4.3140	 3.0830
 4.3180	 3.2760
 4.3210	 3.3510
 4.3250	 3.4170
 4.3280	 3.5330
 4.3320	 3.6060
 4.3360	 3.6410
 4.3390	 3.7870
 4.3430	 3.8640
 4.3470	 3.9080
 4.3500	 3.9110
 4.3540	 3.8930
 4.3570	 3.9260
 4.3610	 3.9640
 4.3650	 3.9650
 4.3680	 4.0040
 4.3720	 4.0300
 4.3760	 4.0560
 4.3800	 4.0620
 4.3830	 4.0610
 4.3870	 4.0100
 4.3910	 3.9850
 4.3940	 4.0090
 4.3980	 4.0190
 4.4020	 3.9670
 4.4060	 3.9730
 4.4090	 4.0050
 4.4130	 4.0350
 4.4170	 4.0020
 4.4210	 3.9720
 4.4240	 3.9920
 4.4280	 4.0000
 4.4320	 3.9390
 4.4360	 3.9180
 4.4400	 3.8940
 4.4430	 3.9180
 4.4470	 3.9740
 4.4510	 3.9620
 4.4550	 3.9470
 4.4590	 3.9860
 4.4620	 3.9560
 4.4660	 3.9840
 4.4700	 4.0070
 4.4740	 3.9520
 4.4780	 3.8980
 4.4820	 3.9200
 4.4860	 3.9830
 4.4900	 4.0200
 4.4930	 3.9610
 4.4970	 3.9590
 4.5010	 3.9500
 4.5050	 3.9490
 4.5090	 3.9790
 4.5130	 3.9920
 4.5170	 3.9710
 4.5210	 3.9430
 4.5250	 3.9200
 4.5290	 3.9810
 4.5330	 4.0060
 4.5370	 3.9610
 4.5410	 3.8980
 4.5450	 3.9030
 4.5490	 3.9260
 4.5530	 3.9560
 4.5570	 3.9940
 4.5610	 3.9910
 4.5650	 3.9770
 4.5690	 3.9770
 4.5730	 3.9510
 4.5770	 3.9640
 4.5810	 4.0150
 4.5850	 4.0170
 4.5890	 3.9880
 4.5930	 3.9730
 4.5970	 3.9790
 4.6010	 3.9710
 4.6050	 3.9500
 4.6090	 3.9610
 4.6130	 3.9420
 4.6170	 3.9300
 4.6220	 3.9420
 4.6260	 3.9690
 4.6300	 3.9720
 4.6340	 3.9390
 4.6380	 3.9170
 4.6420	 3.9010
 4.6460	 3.9050
 4.6510	 3.8750
 4.6550	 3.8650
 4.6590	 3.9210
 4.6630	 3.9490
 4.6670	 3.9580
 4.6720	 3.9430
 4.6760	 3.9410
 4.6800	 3.9560
 4.6840	 4.0030
 4.6880	 3.9800
 4.6930	 3.9250
 4.6970	 3.8790
 4.7010	 3.8580
 4.7050	 3.8580
 4.7100	 3.8470
 4.7140	 3.8830
 4.7180	 3.9230
 4.7230	 3.9560
 4.7270	 3.9370
 4.7310	 3.9160
 4.7360	 3.9190
 4.7400	 3.8890
 4.7440	 3.8690
 4.7490	 3.9020
 4.7530	 3.9070
 4.7570	 3.8610
 4.7620	 3.8450
 4.7660	 3.8230
 4.7700	 3.7890
 4.7750	 3.7970
 4.7790	 3.8470
 4.7840	 3.8240
 4.7880	 3.8200
 4.7920	 3.8450
 4.7970	 3.8770
 4.8010	 3.8830
 4.8060	 3.8410
 4.8100	 3.7720
 4.8150	 3.7590
 4.8190	 3.8330
 4.8240	 3.8980
 4.8280	 3.9080
 4.8330	 3.8590
 4.8370	 3.8280
 4.8420	 3.8080
 4.8460	 3.7720
 4.8510	 3.7360
 4.8550	 3.7670
 4.8600	 3.8410
 4.8640	 3.8690
 4.8690	 3.8200
 4.8730	 3.7620
 4.8780	 3.7290
 4.8830	 3.7410
 4.8870	 3.7020
 4.8920	 3.7030
 4.8960	 3.7830
 4.9010	 3.8270
 4.9060	 3.7740
 4.9100	 3.7320
 4.9150	 3.7320
 4.9200	 3.7690
 4.9240	 3.7520
 4.9290	 3.7400
 4.9340	 3.7890
 4.9380	 3.8220
 4.9430	 3.7860
 4.9480	 3.7550
 4.9530	 3.7310
 4.9570	 3.7720
 4.9620	 3.7460
 4.9670	 3.7680
 4.9720	 3.8210
 4.9760	 3.8200
 4.9810	 3.7910
 4.9860	 3.7980
 4.9910	 3.8050
 4.9960	 3.8010
 5.0000	 3.7870
 5.0050	 3.7710
 5.0100	 3.7570
 5.0150	 3.7780
 5.0200	 3.8140
 5.0250	 3.7990
 5.0290	 3.7530
 5.0340	 3.7680
 5.0390	 3.7910
 5.0440	 3.7820
 5.0490	 3.7330
 5.0540	 3.7320
 5.0590	 3.7540
 5.0640	 3.7560
 5.0690	 3.7440
 5.0740	 3.7380
 5.0790	 3.6990
 5.0840	 3.7430
 5.0890	 3.7650
 5.0940	 3.7460
 5.0990	 3.6980
 5.1040	 3.7240
 5.1090	 3.7540
 5.1140	 3.7700
 5.1190	 3.7440
 5.1240	 3.6950
 5.1290	 3.6560
 5.1340	 3.7200
 5.1390	 3.7660
 5.1440	 3.7830
 5.1490	 3.7650
 5.1540	 3.7890
 5.1600	 3.7670
 5.1650	 3.7950
 5.1700	 3.8090
 5.1750	 3.7700
 5.1800	 3.7140
 5.1850	 3.7820
 5.1910	 3.7950
 5.1960	 3.7610
 5.2010	 3.7260
 5.2060	 3.7720
 5.2110	 3.7980
 5.2170	 3.7740
 5.2220	 3.7450
 5.2270	 3.7720
 5.2320	 3.7540
 5.2380	 3.7580
 5.2430	 3.7400
 5.2480	 3.7440
 5.2540	 3.7390
 5.2590	 3.7400
 5.2640	 3.7070
 5.2700	 3.6680
 5.2750	 3.6750
 5.2800	 3.7320
 5.2860	 3.6880
 5.2910	 3.6760
 5.2970	 3.7080
 5.3020	 3.7210
 5.3070	 3.7160
 5.3130	 3.7120
 5.3180	 3.7140
 5.3240	 3.7560
 5.3290	 3.7530
 5.3350	 3.7540
 5.3400	 3.7180
 5.3460	 3.7260
 5.3510	 3.7020
 5.3570	 3.7120
 5.3620	 3.6850
 5.3680	 3.6920
 5.3730	 3.6730
 5.3790	 3.6750
 5.3850	 3.6840
 5.3900	 3.7090
 5.3960	 3.6980
 5.4010	 3.7120
 5.4070	 3.6940
 5.4130	 3.6660
 5.4180	 3.6570
 5.4240	 3.6830
 5.4300	 3.6720
 5.4350	 3.6600
