Name: Bromus diandrus
Type: vegetation
Class: grass
Genus: Bromus
Species: diandrus
Sample No.: VH351
Owner: UCSB
Wavelength Range: VSWIR
Origin: 34.51457; -119.79877; WGS84
Collection Date: 3/18/2015
Description: Samples were collected as part of the HyspIRI Airborne Campaign proposal titled: HyspIRI discrimination of plant species and functional types along a strong environmental temperature gradient. The same materials were processed in the Nicolet and then measured using the ASD.
Measurement: Bidirectional reflectance
First Column: X
Second Column: Y
X Units: Wavelength (micrometer)
Y Units: Reflectance (percentage)
First X Value: 0.35
Last X Value: 2.5
Number of X Values: 2151
Additional Information: 

 0.3500	 4.0300
 0.3510	 4.0330
 0.3520	 3.8760
 0.3530	 3.7140
 0.3540	 3.7150
 0.3550	 3.8410
 0.3560	 3.8150
 0.3570	 3.6650
 0.3580	 3.5750
 0.3590	 3.5870
 0.3600	 3.5650
 0.3610	 3.5140
 0.3620	 3.6730
 0.3630	 3.5810
 0.3640	 3.4850
 0.3650	 3.6520
 0.3660	 3.7590
 0.3670	 3.7180
 0.3680	 3.6120
 0.3690	 3.6290
 0.3700	 3.7420
 0.3710	 3.8580
 0.3720	 3.8980
 0.3730	 3.8140
 0.3740	 3.8450
 0.3750	 3.9200
 0.3760	 3.9050
 0.3770	 3.8710
 0.3780	 3.8800
 0.3790	 3.9740
 0.3800	 4.1570
 0.3810	 4.1930
 0.3820	 4.1580
 0.3830	 4.1480
 0.3840	 4.1830
 0.3850	 4.2120
 0.3860	 4.2510
 0.3870	 4.3270
 0.3880	 4.3790
 0.3890	 4.5390
 0.3900	 4.7310
 0.3910	 4.6750
 0.3920	 4.7130
 0.3930	 4.8410
 0.3940	 4.9780
 0.3950	 5.0370
 0.3960	 5.1100
 0.3970	 5.1880
 0.3980	 5.2310
 0.3990	 5.3740
 0.4000	 5.4900
 0.4010	 5.5410
 0.4020	 5.6330
 0.4030	 5.7360
 0.4040	 5.8480
 0.4050	 5.9630
 0.4060	 6.0470
 0.4070	 6.1440
 0.4080	 6.2660
 0.4090	 6.3980
 0.4100	 6.4870
 0.4110	 6.5630
 0.4120	 6.6530
 0.4130	 6.7520
 0.4140	 6.8210
 0.4150	 6.9110
 0.4160	 7.0590
 0.4170	 7.0810
 0.4180	 7.1340
 0.4190	 7.2430
 0.4200	 7.3060
 0.4210	 7.3710
 0.4220	 7.4440
 0.4230	 7.5130
 0.4240	 7.5310
 0.4250	 7.5680
 0.4260	 7.6160
 0.4270	 7.6350
 0.4280	 7.6510
 0.4290	 7.6810
 0.4300	 7.7280
 0.4310	 7.7810
 0.4320	 7.8030
 0.4330	 7.7990
 0.4340	 7.7880
 0.4350	 7.8060
 0.4360	 7.8480
 0.4370	 7.8860
 0.4380	 7.8840
 0.4390	 7.8890
 0.4400	 7.9100
 0.4410	 7.9400
 0.4420	 7.9530
 0.4430	 7.9740
 0.4440	 7.9970
 0.4450	 8.0120
 0.4460	 8.0570
 0.4470	 8.0860
 0.4480	 8.0900
 0.4490	 8.1160
 0.4500	 8.1540
 0.4510	 8.1800
 0.4520	 8.1830
 0.4530	 8.2180
 0.4540	 8.2520
 0.4550	 8.2690
 0.4560	 8.2730
 0.4570	 8.2930
 0.4580	 8.3100
 0.4590	 8.3140
 0.4600	 8.3210
 0.4610	 8.3310
 0.4620	 8.3310
 0.4630	 8.3170
 0.4640	 8.3360
 0.4650	 8.3380
 0.4660	 8.3230
 0.4670	 8.3460
 0.4680	 8.3450
 0.4690	 8.3350
 0.4700	 8.3370
 0.4710	 8.3440
 0.4720	 8.3510
 0.4730	 8.3570
 0.4740	 8.3580
 0.4750	 8.3680
 0.4760	 8.3750
 0.4770	 8.3770
 0.4780	 8.3850
 0.4790	 8.3850
 0.4800	 8.3930
 0.4810	 8.4200
 0.4820	 8.4230
 0.4830	 8.4380
 0.4840	 8.4680
 0.4850	 8.4860
 0.4860	 8.5110
 0.4870	 8.5380
 0.4880	 8.5640
 0.4890	 8.6020
 0.4900	 8.6430
 0.4910	 8.6870
 0.4920	 8.7340
 0.4930	 8.8030
 0.4940	 8.8650
 0.4950	 8.9210
 0.4960	 9.0160
 0.4970	 9.1000
 0.4980	 9.1870
 0.4990	 9.2960
 0.5000	 9.4070
 0.5010	 9.5400
 0.5020	 9.6910
 0.5030	 9.8360
 0.5040	10.0020
 0.5050	10.1850
 0.5060	10.3790
 0.5070	10.5850
 0.5080	10.8140
 0.5090	11.0660
 0.5100	11.3380
 0.5110	11.6140
 0.5120	11.9150
 0.5130	12.2450
 0.5140	12.5820
 0.5150	12.9420
 0.5160	13.3180
 0.5170	13.6990
 0.5180	14.0920
 0.5190	14.4930
 0.5200	14.9000
 0.5210	15.3130
 0.5220	15.7130
 0.5230	16.1120
 0.5240	16.5120
 0.5250	16.8850
 0.5260	17.2420
 0.5270	17.5800
 0.5280	17.8920
 0.5290	18.1900
 0.5300	18.4630
 0.5310	18.7090
 0.5320	18.9400
 0.5330	19.1380
 0.5340	19.3130
 0.5350	19.4780
 0.5360	19.6170
 0.5370	19.7420
 0.5380	19.8530
 0.5390	19.9460
 0.5400	20.0350
 0.5410	20.1160
 0.5420	20.1890
 0.5430	20.2610
 0.5440	20.3290
 0.5450	20.3950
 0.5460	20.4640
 0.5470	20.5200
 0.5480	20.5670
 0.5490	20.6100
 0.5500	20.6520
 0.5510	20.6790
 0.5520	20.6910
 0.5530	20.6890
 0.5540	20.6750
 0.5550	20.6370
 0.5560	20.5760
 0.5570	20.4990
 0.5580	20.4050
 0.5590	20.2940
 0.5600	20.1630
 0.5610	20.0130
 0.5620	19.8480
 0.5630	19.6720
 0.5640	19.4860
 0.5650	19.2940
 0.5660	19.0910
 0.5670	18.8790
 0.5680	18.6670
 0.5690	18.4360
 0.5700	18.1980
 0.5710	17.9660
 0.5720	17.7430
 0.5730	17.5250
 0.5740	17.3140
 0.5750	17.1100
 0.5760	16.9220
 0.5770	16.7480
 0.5780	16.5830
 0.5790	16.4270
 0.5800	16.2830
 0.5810	16.1440
 0.5820	16.0010
 0.5830	15.8700
 0.5840	15.7500
 0.5850	15.6360
 0.5860	15.5270
 0.5870	15.4290
 0.5880	15.3380
 0.5890	15.2510
 0.5900	15.1710
 0.5910	15.0940
 0.5920	15.0210
 0.5930	14.9550
 0.5940	14.8900
 0.5950	14.8310
 0.5960	14.7830
 0.5970	14.7450
 0.5980	14.7050
 0.5990	14.6570
 0.6000	14.5980
 0.6010	14.5370
 0.6020	14.4690
 0.6030	14.3940
 0.6040	14.3220
 0.6050	14.2360
 0.6060	14.1410
 0.6070	14.0430
 0.6080	13.9330
 0.6090	13.8210
 0.6100	13.7050
 0.6110	13.5780
 0.6120	13.4640
 0.6130	13.3510
 0.6140	13.2340
 0.6150	13.1240
 0.6160	13.0110
 0.6170	12.9040
 0.6180	12.8090
 0.6190	12.7190
 0.6200	12.6420
 0.6210	12.5750
 0.6220	12.5130
 0.6230	12.4600
 0.6240	12.4160
 0.6250	12.3790
 0.6260	12.3530
 0.6270	12.3320
 0.6280	12.3120
 0.6290	12.2940
 0.6300	12.2790
 0.6310	12.2620
 0.6320	12.2370
 0.6330	12.2020
 0.6340	12.1600
 0.6350	12.1050
 0.6360	12.0290
 0.6370	11.9310
 0.6380	11.8200
 0.6390	11.6990
 0.6400	11.5710
 0.6410	11.4250
 0.6420	11.2740
 0.6430	11.1260
 0.6440	10.9750
 0.6450	10.8290
 0.6460	10.6870
 0.6470	10.5480
 0.6480	10.4150
 0.6490	10.2970
 0.6500	10.1960
 0.6510	10.1110
 0.6520	10.0360
 0.6530	 9.9640
 0.6540	 9.8910
 0.6550	 9.8300
 0.6560	 9.7570
 0.6570	 9.6730
 0.6580	 9.5820
 0.6590	 9.4880
 0.6600	 9.3910
 0.6610	 9.2880
 0.6620	 9.1750
 0.6630	 9.0750
 0.6640	 8.9880
 0.6650	 8.9070
 0.6660	 8.8330
 0.6670	 8.7700
 0.6680	 8.7180
 0.6690	 8.6740
 0.6700	 8.6550
 0.6710	 8.6440
 0.6720	 8.6360
 0.6730	 8.6410
 0.6740	 8.6590
 0.6750	 8.6850
 0.6760	 8.7140
 0.6770	 8.7510
 0.6780	 8.7970
 0.6790	 8.8550
 0.6800	 8.9260
 0.6810	 9.0120
 0.6820	 9.1100
 0.6830	 9.2240
 0.6840	 9.3660
 0.6850	 9.5350
 0.6860	 9.7450
 0.6870	10.0080
 0.6880	10.3190
 0.6890	10.7030
 0.6900	11.1680
 0.6910	11.7100
 0.6920	12.3410
 0.6930	13.0600
 0.6940	13.8660
 0.6950	14.7600
 0.6960	15.7310
 0.6970	16.7690
 0.6980	17.8650
 0.6990	19.0090
 0.7000	20.1810
 0.7010	21.3700
 0.7020	22.5680
 0.7030	23.7560
 0.7040	24.9330
 0.7050	26.0940
 0.7060	27.2170
 0.7070	28.3190
 0.7080	29.3960
 0.7090	30.4450
 0.7100	31.4640
 0.7110	32.4620
 0.7120	33.4410
 0.7130	34.3890
 0.7140	35.3250
 0.7150	36.2340
 0.7160	37.1050
 0.7170	37.9670
 0.7180	38.8070
 0.7190	39.6200
 0.7200	40.4080
 0.7210	41.1690
 0.7220	41.9070
 0.7230	42.6220
 0.7240	43.3010
 0.7250	43.9580
 0.7260	44.5880
 0.7270	45.1870
 0.7280	45.7630
 0.7290	46.3070
 0.7300	46.8210
 0.7310	47.3120
 0.7320	47.7860
 0.7330	48.2200
 0.7340	48.6170
 0.7350	49.0120
 0.7360	49.3790
 0.7370	49.7230
 0.7380	50.0450
 0.7390	50.3310
 0.7400	50.5990
 0.7410	50.8530
 0.7420	51.0940
 0.7430	51.3090
 0.7440	51.5040
 0.7450	51.6830
 0.7460	51.8480
 0.7470	51.9960
 0.7480	52.1270
 0.7490	52.2440
 0.7500	52.3540
 0.7510	52.4400
 0.7520	52.5160
 0.7530	52.5970
 0.7540	52.6630
 0.7550	52.7150
 0.7560	52.7610
 0.7570	52.8090
 0.7580	52.8560
 0.7590	52.8920
 0.7600	52.9110
 0.7610	52.9240
 0.7620	52.9440
 0.7630	52.9640
 0.7640	52.9750
 0.7650	52.9770
 0.7660	52.9780
 0.7670	52.9810
 0.7680	52.9840
 0.7690	52.9860
 0.7700	52.9850
 0.7710	52.9800
 0.7720	52.9680
 0.7730	52.9580
 0.7740	52.9530
 0.7750	52.9520
 0.7760	52.9510
 0.7770	52.9420
 0.7780	52.9300
 0.7790	52.9280
 0.7800	52.9250
 0.7810	52.9190
 0.7820	52.9130
 0.7830	52.9130
 0.7840	52.9100
 0.7850	52.9010
 0.7860	52.8890
 0.7870	52.8920
 0.7880	52.8880
 0.7890	52.8850
 0.7900	52.8940
 0.7910	52.8940
 0.7920	52.8850
 0.7930	52.8750
 0.7940	52.8810
 0.7950	52.8790
 0.7960	52.8730
 0.7970	52.8720
 0.7980	52.8820
 0.7990	52.8760
 0.8000	52.8720
 0.8010	52.8840
 0.8020	52.8790
 0.8030	52.8760
 0.8040	52.8780
 0.8050	52.8830
 0.8060	52.8910
 0.8070	52.8900
 0.8080	52.8830
 0.8090	52.8920
 0.8100	52.8960
 0.8110	52.8990
 0.8120	52.9040
 0.8130	52.9050
 0.8140	52.9130
 0.8150	52.9210
 0.8160	52.9220
 0.8170	52.9240
 0.8180	52.9280
 0.8190	52.9340
 0.8200	52.9440
 0.8210	52.9470
 0.8220	52.9540
 0.8230	52.9640
 0.8240	52.9630
 0.8250	52.9700
 0.8260	52.9740
 0.8270	52.9750
 0.8280	52.9920
 0.8290	53.0110
 0.8300	53.0170
 0.8310	53.0080
 0.8320	53.0160
 0.8330	53.0280
 0.8340	53.0340
 0.8350	53.0320
 0.8360	53.0440
 0.8370	53.0510
 0.8380	53.0560
 0.8390	53.0720
 0.8400	53.0870
 0.8410	53.0990
 0.8420	53.1050
 0.8430	53.0950
 0.8440	53.1130
 0.8450	53.1390
 0.8460	53.1480
 0.8470	53.1480
 0.8480	53.1450
 0.8490	53.1490
 0.8500	53.1640
 0.8510	53.1840
 0.8520	53.1860
 0.8530	53.1790
 0.8540	53.1890
 0.8550	53.2050
 0.8560	53.2170
 0.8570	53.2220
 0.8580	53.2270
 0.8590	53.2200
 0.8600	53.2180
 0.8610	53.2290
 0.8620	53.2420
 0.8630	53.2460
 0.8640	53.2440
 0.8650	53.2430
 0.8660	53.2520
 0.8670	53.2560
 0.8680	53.2600
 0.8690	53.2680
 0.8700	53.2720
 0.8710	53.2600
 0.8720	53.2490
 0.8730	53.2610
 0.8740	53.2670
 0.8750	53.2650
 0.8760	53.2570
 0.8770	53.2530
 0.8780	53.2560
 0.8790	53.2540
 0.8800	53.2440
 0.8810	53.2490
 0.8820	53.2570
 0.8830	53.2600
 0.8840	53.2560
 0.8850	53.2470
 0.8860	53.2350
 0.8870	53.2260
 0.8880	53.2230
 0.8890	53.2240
 0.8900	53.2160
 0.8910	53.2100
 0.8920	53.2200
 0.8930	53.2070
 0.8940	53.1970
 0.8950	53.1920
 0.8960	53.1790
 0.8970	53.1710
 0.8980	53.1740
 0.8990	53.1760
 0.9000	53.1590
 0.9010	53.1480
 0.9020	53.1460
 0.9030	53.1460
 0.9040	53.1380
 0.9050	53.1270
 0.9060	53.1230
 0.9070	53.1240
 0.9080	53.1130
 0.9090	53.0980
 0.9100	53.0890
 0.9110	53.0870
 0.9120	53.0840
 0.9130	53.0750
 0.9140	53.0660
 0.9150	53.0610
 0.9160	53.0520
 0.9170	53.0360
 0.9180	53.0250
 0.9190	53.0290
 0.9200	53.0140
 0.9210	53.0030
 0.9220	52.9920
 0.9230	52.9670
 0.9240	52.9470
 0.9250	52.9440
 0.9260	52.9390
 0.9270	52.9020
 0.9280	52.8910
 0.9290	52.8820
 0.9300	52.8660
 0.9310	52.8540
 0.9320	52.8390
 0.9330	52.8210
 0.9340	52.7980
 0.9350	52.7590
 0.9360	52.7370
 0.9370	52.7290
 0.9380	52.7190
 0.9390	52.6910
 0.9400	52.6750
 0.9410	52.6450
 0.9420	52.6000
 0.9430	52.5860
 0.9440	52.5630
 0.9450	52.5390
 0.9460	52.5180
 0.9470	52.4730
 0.9480	52.4360
 0.9490	52.4050
 0.9500	52.3680
 0.9510	52.3300
 0.9520	52.2900
 0.9530	52.2400
 0.9540	52.1790
 0.9550	52.1320
 0.9560	52.0960
 0.9570	52.0580
 0.9580	52.0120
 0.9590	51.9810
 0.9600	51.9580
 0.9610	51.9320
 0.9620	51.9000
 0.9630	51.8990
 0.9640	51.8780
 0.9650	51.8540
 0.9660	51.8560
 0.9670	51.8350
 0.9680	51.8130
 0.9690	51.8120
 0.9700	51.8340
 0.9710	51.8170
 0.9720	51.8010
 0.9730	51.8060
 0.9740	51.8310
 0.9750	51.8280
 0.9760	51.8100
 0.9770	51.8080
 0.9780	51.8400
 0.9790	51.8410
 0.9800	51.8130
 0.9810	51.7970
 0.9820	51.8270
 0.9830	51.8500
 0.9840	51.8570
 0.9850	51.8590
 0.9860	51.8720
 0.9870	51.8920
 0.9880	51.9080
 0.9890	51.9230
 0.9900	51.9470
 0.9910	51.9580
 0.9920	51.9440
 0.9930	51.9350
 0.9940	51.9630
 0.9950	51.9890
 0.9960	51.9930
 0.9970	51.9930
 0.9980	52.0140
 0.9990	52.0250
 1.0000	51.8710
 1.0010	51.5320
 1.0020	51.3660
 1.0030	51.3780
 1.0040	51.4030
 1.0050	51.4300
 1.0060	51.4530
 1.0070	51.4750
 1.0080	51.4890
 1.0090	51.4930
 1.0100	51.5050
 1.0110	51.5110
 1.0120	51.5270
 1.0130	51.5560
 1.0140	51.5770
 1.0150	51.5970
 1.0160	51.6250
 1.0170	51.6460
 1.0180	51.6500
 1.0190	51.6540
 1.0200	51.6640
 1.0210	51.6780
 1.0220	51.6910
 1.0230	51.7070
 1.0240	51.7320
 1.0250	51.7450
 1.0260	51.7500
 1.0270	51.7620
 1.0280	51.7730
 1.0290	51.7840
 1.0300	51.7950
 1.0310	51.8100
 1.0320	51.8300
 1.0330	51.8440
 1.0340	51.8530
 1.0350	51.8630
 1.0360	51.8630
 1.0370	51.8590
 1.0380	51.8640
 1.0390	51.8750
 1.0400	51.8820
 1.0410	51.8940
 1.0420	51.8980
 1.0430	51.8960
 1.0440	51.8980
 1.0450	51.8970
 1.0460	51.9000
 1.0470	51.9110
 1.0480	51.9130
 1.0490	51.9120
 1.0500	51.9130
 1.0510	51.9060
 1.0520	51.9060
 1.0530	51.9120
 1.0540	51.9240
 1.0550	51.9290
 1.0560	51.9370
 1.0570	51.9420
 1.0580	51.9420
 1.0590	51.9450
 1.0600	51.9530
 1.0610	51.9550
 1.0620	51.9540
 1.0630	51.9560
 1.0640	51.9570
 1.0650	51.9600
 1.0660	51.9670
 1.0670	51.9710
 1.0680	51.9750
 1.0690	51.9790
 1.0700	51.9780
 1.0710	51.9720
 1.0720	51.9720
 1.0730	51.9710
 1.0740	51.9720
 1.0750	51.9810
 1.0760	51.9850
 1.0770	51.9890
 1.0780	51.9880
 1.0790	51.9830
 1.0800	51.9800
 1.0810	51.9720
 1.0820	51.9680
 1.0830	51.9690
 1.0840	51.9670
 1.0850	51.9670
 1.0860	51.9640
 1.0870	51.9610
 1.0880	51.9560
 1.0890	51.9500
 1.0900	51.9440
 1.0910	51.9380
 1.0920	51.9330
 1.0930	51.9270
 1.0940	51.9200
 1.0950	51.9120
 1.0960	51.8980
 1.0970	51.8900
 1.0980	51.8840
 1.0990	51.8790
 1.1000	51.8820
 1.1010	51.8770
 1.1020	51.8700
 1.1030	51.8540
 1.1040	51.8460
 1.1050	51.8310
 1.1060	51.8200
 1.1070	51.8130
 1.1080	51.8020
 1.1090	51.7900
 1.1100	51.7760
 1.1110	51.7600
 1.1120	51.7460
 1.1130	51.7340
 1.1140	51.7170
 1.1150	51.7010
 1.1160	51.6840
 1.1170	51.6630
 1.1180	51.6430
 1.1190	51.6260
 1.1200	51.6060
 1.1210	51.5820
 1.1220	51.5570
 1.1230	51.5320
 1.1240	51.5030
 1.1250	51.4700
 1.1260	51.4360
 1.1270	51.3950
 1.1280	51.3480
 1.1290	51.2980
 1.1300	51.2470
 1.1310	51.1870
 1.1320	51.1210
 1.1330	51.0520
 1.1340	50.9750
 1.1350	50.8960
 1.1360	50.8130
 1.1370	50.7300
 1.1380	50.6380
 1.1390	50.5440
 1.1400	50.4480
 1.1410	50.3460
 1.1420	50.2460
 1.1430	50.1470
 1.1440	50.0480
 1.1450	49.9470
 1.1460	49.8510
 1.1470	49.7560
 1.1480	49.6660
 1.1490	49.5770
 1.1500	49.4980
 1.1510	49.4230
 1.1520	49.3550
 1.1530	49.2960
 1.1540	49.2400
 1.1550	49.1870
 1.1560	49.1440
 1.1570	49.1110
 1.1580	49.0800
 1.1590	49.0560
 1.1600	49.0390
 1.1610	49.0200
 1.1620	49.0020
 1.1630	48.9890
 1.1640	48.9770
 1.1650	48.9700
 1.1660	48.9680
 1.1670	48.9640
 1.1680	48.9620
 1.1690	48.9600
 1.1700	48.9550
 1.1710	48.9530
 1.1720	48.9520
 1.1730	48.9510
 1.1740	48.9520
 1.1750	48.9510
 1.1760	48.9490
 1.1770	48.9520
 1.1780	48.9510
 1.1790	48.9470
 1.1800	48.9440
 1.1810	48.9410
 1.1820	48.9350
 1.1830	48.9290
 1.1840	48.9220
 1.1850	48.9150
 1.1860	48.9100
 1.1870	48.9070
 1.1880	48.9050
 1.1890	48.9070
 1.1900	48.9050
 1.1910	48.9020
 1.1920	48.9010
 1.1930	48.8980
 1.1940	48.8970
 1.1950	48.9000
 1.1960	48.9020
 1.1970	48.9040
 1.1980	48.9100
 1.1990	48.9200
 1.2000	48.9270
 1.2010	48.9370
 1.2020	48.9470
 1.2030	48.9600
 1.2040	48.9690
 1.2050	48.9760
 1.2060	48.9840
 1.2070	48.9890
 1.2080	48.9980
 1.2090	49.0100
 1.2100	49.0190
 1.2110	49.0300
 1.2120	49.0390
 1.2130	49.0500
 1.2140	49.0630
 1.2150	49.0770
 1.2160	49.0920
 1.2170	49.1050
 1.2180	49.1190
 1.2190	49.1330
 1.2200	49.1470
 1.2210	49.1640
 1.2220	49.1810
 1.2230	49.1980
 1.2240	49.2110
 1.2250	49.2250
 1.2260	49.2420
 1.2270	49.2560
 1.2280	49.2740
 1.2290	49.2930
 1.2300	49.3070
 1.2310	49.3180
 1.2320	49.3320
 1.2330	49.3440
 1.2340	49.3580
 1.2350	49.3790
 1.2360	49.3920
 1.2370	49.4010
 1.2380	49.4110
 1.2390	49.4200
 1.2400	49.4290
 1.2410	49.4430
 1.2420	49.4550
 1.2430	49.4610
 1.2440	49.4710
 1.2450	49.4870
 1.2460	49.5000
 1.2470	49.5140
 1.2480	49.5280
 1.2490	49.5330
 1.2500	49.5380
 1.2510	49.5440
 1.2520	49.5520
 1.2530	49.5560
 1.2540	49.5610
 1.2550	49.5700
 1.2560	49.5760
 1.2570	49.5830
 1.2580	49.5880
 1.2590	49.5930
 1.2600	49.5960
 1.2610	49.5970
 1.2620	49.5960
 1.2630	49.5970
 1.2640	49.5950
 1.2650	49.5910
 1.2660	49.5880
 1.2670	49.5830
 1.2680	49.5750
 1.2690	49.5620
 1.2700	49.5510
 1.2710	49.5440
 1.2720	49.5350
 1.2730	49.5270
 1.2740	49.5170
 1.2750	49.5050
 1.2760	49.4930
 1.2770	49.4810
 1.2780	49.4650
 1.2790	49.4490
 1.2800	49.4330
 1.2810	49.4170
 1.2820	49.3990
 1.2830	49.3790
 1.2840	49.3610
 1.2850	49.3410
 1.2860	49.3230
 1.2870	49.3060
 1.2880	49.2910
 1.2890	49.2740
 1.2900	49.2560
 1.2910	49.2370
 1.2920	49.2120
 1.2930	49.1870
 1.2940	49.1620
 1.2950	49.1350
 1.2960	49.1120
 1.2970	49.0880
 1.2980	49.0600
 1.2990	49.0340
 1.3000	49.0060
 1.3010	48.9720
 1.3020	48.9410
 1.3030	48.9080
 1.3040	48.8670
 1.3050	48.8280
 1.3060	48.7840
 1.3070	48.7350
 1.3080	48.6890
 1.3090	48.6340
 1.3100	48.5770
 1.3110	48.5200
 1.3120	48.4600
 1.3130	48.4040
 1.3140	48.3430
 1.3150	48.2820
 1.3160	48.2170
 1.3170	48.1500
 1.3180	48.0760
 1.3190	47.9960
 1.3200	47.9150
 1.3210	47.8290
 1.3220	47.7440
 1.3230	47.6610
 1.3240	47.5760
 1.3250	47.4860
 1.3260	47.3950
 1.3270	47.3010
 1.3280	47.2030
 1.3290	47.1020
 1.3300	46.9960
 1.3310	46.8870
 1.3320	46.7760
 1.3330	46.6660
 1.3340	46.5530
 1.3350	46.4400
 1.3360	46.3300
 1.3370	46.2190
 1.3380	46.1060
 1.3390	45.9950
 1.3400	45.8840
 1.3410	45.7710
 1.3420	45.6630
 1.3430	45.5520
 1.3440	45.4360
 1.3450	45.3230
 1.3460	45.2090
 1.3470	45.0970
 1.3480	44.9860
 1.3490	44.8790
 1.3500	44.7730
 1.3510	44.6660
 1.3520	44.5630
 1.3530	44.4560
 1.3540	44.3480
 1.3550	44.2460
 1.3560	44.1430
 1.3570	44.0350
 1.3580	43.9260
 1.3590	43.8080
 1.3600	43.6810
 1.3610	43.5520
 1.3620	43.4190
 1.3630	43.2850
 1.3640	43.1450
 1.3650	42.9970
 1.3660	42.8450
 1.3670	42.6790
 1.3680	42.5020
 1.3690	42.3140
 1.3700	42.1110
 1.3710	41.8940
 1.3720	41.6640
 1.3730	41.4190
 1.3740	41.1590
 1.3750	40.8790
 1.3760	40.5760
 1.3770	40.2530
 1.3780	39.9050
 1.3790	39.5360
 1.3800	39.1450
 1.3810	38.7260
 1.3820	38.2870
 1.3830	37.8240
 1.3840	37.3400
 1.3850	36.8320
 1.3860	36.3110
 1.3870	35.7670
 1.3880	35.2160
 1.3890	34.6530
 1.3900	34.0770
 1.3910	33.4960
 1.3920	32.9090
 1.3930	32.3190
 1.3940	31.7310
 1.3950	31.1400
 1.3960	30.5580
 1.3970	29.9850
 1.3980	29.4240
 1.3990	28.8860
 1.4000	28.3580
 1.4010	27.8470
 1.4020	27.3590
 1.4030	26.8860
 1.4040	26.4380
 1.4050	26.0140
 1.4060	25.6120
 1.4070	25.2380
 1.4080	24.8860
 1.4090	24.5570
 1.4100	24.2510
 1.4110	23.9660
 1.4120	23.7010
 1.4130	23.4580
 1.4140	23.2330
 1.4150	23.0300
 1.4160	22.8440
 1.4170	22.6730
 1.4180	22.5200
 1.4190	22.3760
 1.4200	22.2470
 1.4210	22.1300
 1.4220	22.0210
 1.4230	21.9260
 1.4240	21.8420
 1.4250	21.7660
 1.4260	21.6990
 1.4270	21.6390
 1.4280	21.5860
 1.4290	21.5400
 1.4300	21.5030
 1.4310	21.4720
 1.4320	21.4490
 1.4330	21.4300
 1.4340	21.4190
 1.4350	21.4100
 1.4360	21.4060
 1.4370	21.4070
 1.4380	21.4110
 1.4390	21.4170
 1.4400	21.4280
 1.4410	21.4400
 1.4420	21.4550
 1.4430	21.4740
 1.4440	21.4950
 1.4450	21.5180
 1.4460	21.5420
 1.4470	21.5680
 1.4480	21.5930
 1.4490	21.6200
 1.4500	21.6480
 1.4510	21.6750
 1.4520	21.7050
 1.4530	21.7380
 1.4540	21.7720
 1.4550	21.8130
 1.4560	21.8570
 1.4570	21.9020
 1.4580	21.9520
 1.4590	22.0060
 1.4600	22.0670
 1.4610	22.1310
 1.4620	22.2000
 1.4630	22.2760
 1.4640	22.3550
 1.4650	22.4380
 1.4660	22.5300
 1.4670	22.6270
 1.4680	22.7280
 1.4690	22.8360
 1.4700	22.9490
 1.4710	23.0660
 1.4720	23.1870
 1.4730	23.3140
 1.4740	23.4440
 1.4750	23.5770
 1.4760	23.7140
 1.4770	23.8510
 1.4780	23.9890
 1.4790	24.1320
 1.4800	24.2750
 1.4810	24.4200
 1.4820	24.5680
