Name: Puya venusta
Type: vegetation
Class: Shrub
Genus: Puya
Species: venusta
Sample No.: JPL078
Owner: JPL
Wavelength Range: TIR
Origin: 34.12502; - 118.11037; WGS84
Collection Date: 2/2/2016
Description: Samples were collected at the Huntington Garden in San Marino California as part of a JPL Subcontract studying HyTES imagery. Samples were taken to JPL and processed within 48 hours of collection. The same leaves were processed in the Nicolet and then measured using the ASD.
Measurement: Hemispherical reflectance
First Column: X
Second Column: Y
X Units: Wavelength (micrometer)
Y Units: Reflectance (percentage)
First X Value: 2.501
Last X Value: 15.387
Number of X Values: 1737
Additional Information: 

 2.5010	 8.7660
 2.5030	 8.8190
 2.5040	 8.8000
 2.5050	 8.7640
 2.5060	 8.7910
 2.5070	 8.7870
 2.5090	 8.7630
 2.5100	 8.7160
 2.5110	 8.7480
 2.5120	 8.7440
 2.5140	 8.6880
 2.5150	 8.6620
 2.5160	 8.7060
 2.5170	 8.7200
 2.5180	 8.7670
 2.5200	 8.7360
 2.5210	 8.7710
 2.5220	 8.7810
 2.5230	 8.7360
 2.5250	 8.6610
 2.5260	 8.6770
 2.5270	 8.7000
 2.5280	 8.7610
 2.5300	 8.7600
 2.5310	 8.8250
 2.5320	 8.7840
 2.5330	 8.7680
 2.5340	 8.7710
 2.5360	 8.8130
 2.5370	 8.7730
 2.5380	 8.8310
 2.5390	 8.8280
 2.5410	 8.7880
 2.5420	 8.7290
 2.5430	 8.7610
 2.5440	 8.7520
 2.5460	 8.8400
 2.5470	 8.8190
 2.5480	 8.7860
 2.5490	 8.7390
 2.5510	 8.7540
 2.5520	 8.7660
 2.5530	 8.8460
 2.5540	 8.8470
 2.5560	 8.8470
 2.5570	 8.7770
 2.5580	 8.7670
 2.5590	 8.8210
 2.5610	 8.9210
 2.5620	 8.9450
 2.5630	 8.9460
 2.5650	 8.8520
 2.5660	 8.8170
 2.5670	 8.7940
 2.5680	 8.8430
 2.5700	 8.8250
 2.5710	 8.8330
 2.5720	 8.8400
 2.5730	 8.8440
 2.5750	 8.7510
 2.5760	 8.8830
 2.5770	 8.9550
 2.5790	 8.8220
 2.5800	 8.7410
 2.5810	 8.8160
 2.5820	 8.8300
 2.5840	 8.8470
 2.5850	 8.8520
 2.5860	 8.9150
 2.5880	 8.9470
 2.5890	 8.9500
 2.5900	 8.9490
 2.5910	 8.9820
 2.5930	 8.9120
 2.5940	 8.9150
 2.5950	 8.8770
 2.5970	 8.9520
 2.5980	 8.9470
 2.5990	 8.9760
 2.6010	 8.9650
 2.6020	 8.8920
 2.6030	 8.8480
 2.6040	 8.8850
 2.6060	 8.9150
 2.6070	 8.9270
 2.6080	 8.8810
 2.6100	 8.8830
 2.6110	 8.8030
 2.6120	 8.8050
 2.6140	 8.8680
 2.6150	 8.8720
 2.6160	 8.8090
 2.6180	 8.8130
 2.6190	 8.8010
 2.6200	 8.8330
 2.6220	 8.8510
 2.6230	 8.8720
 2.6240	 8.8360
 2.6260	 8.8420
 2.6270	 8.8390
 2.6280	 8.8500
 2.6300	 8.8190
 2.6310	 8.7680
 2.6320	 8.7490
 2.6340	 8.7590
 2.6350	 8.6880
 2.6360	 8.7550
 2.6380	 8.7690
 2.6390	 8.7380
 2.6400	 8.7030
 2.6420	 8.7920
 2.6430	 8.7830
 2.6440	 8.7340
 2.6460	 8.7080
 2.6470	 8.7040
 2.6480	 8.6550
 2.6500	 8.7020
 2.6510	 8.7020
 2.6520	 8.6920
 2.6540	 8.6690
 2.6550	 8.6370
 2.6570	 8.5960
 2.6580	 8.6350
 2.6590	 8.6400
 2.6610	 8.6320
 2.6620	 8.5660
 2.6630	 8.5740
 2.6650	 8.5620
 2.6660	 8.5810
 2.6670	 8.5430
 2.6690	 8.5890
 2.6700	 8.5720
 2.6720	 8.5250
 2.6730	 8.4380
 2.6740	 8.5250
 2.6760	 8.5740
 2.6770	 8.5670
 2.6780	 8.5020
 2.6800	 8.4830
 2.6810	 8.4480
 2.6830	 8.4310
 2.6840	 8.4220
 2.6850	 8.4030
 2.6870	 8.3770
 2.6880	 8.3580
 2.6900	 8.2960
 2.6910	 8.2890
 2.6920	 8.2550
 2.6940	 8.2260
 2.6950	 8.1800
 2.6970	 8.2380
 2.6980	 8.2450
 2.6990	 8.1830
 2.7010	 8.1210
 2.7020	 8.0840
 2.7040	 7.9570
 2.7050	 7.9430
 2.7060	 7.9220
 2.7080	 7.9830
 2.7090	 7.9280
 2.7110	 7.8380
 2.7120	 7.8400
 2.7130	 7.8750
 2.7150	 7.8230
 2.7160	 7.7540
 2.7180	 7.6950
 2.7190	 7.6830
 2.7210	 7.6500
 2.7220	 7.6670
 2.7230	 7.6490
 2.7250	 7.6350
 2.7260	 7.5310
 2.7280	 7.5050
 2.7290	 7.4340
 2.7310	 7.3830
 2.7320	 7.3130
 2.7340	 7.3450
 2.7350	 7.2830
 2.7360	 7.2510
 2.7380	 7.2480
 2.7390	 7.2280
 2.7410	 7.1950
 2.7420	 7.1390
 2.7440	 7.0180
 2.7450	 7.0310
 2.7470	 7.0810
 2.7480	 7.0520
 2.7490	 6.9310
 2.7510	 6.9170
 2.7520	 6.8430
 2.7540	 6.8330
 2.7550	 6.8540
 2.7570	 6.7910
 2.7580	 6.7050
 2.7600	 6.7510
 2.7610	 6.6790
 2.7630	 6.6420
 2.7640	 6.5890
 2.7660	 6.6520
 2.7670	 6.6380
 2.7690	 6.5560
 2.7700	 6.4970
 2.7720	 6.4950
 2.7730	 6.4250
 2.7740	 6.4290
 2.7760	 6.4470
 2.7770	 6.4740
 2.7790	 6.4230
 2.7800	 6.3980
 2.7820	 6.3300
 2.7830	 6.3190
 2.7850	 6.2590
 2.7860	 6.2020
 2.7880	 6.1080
 2.7890	 6.1580
 2.7910	 6.1290
 2.7920	 6.1020
 2.7940	 6.1010
 2.7950	 6.1540
 2.7970	 6.1160
 2.7980	 6.0530
 2.8000	 5.9920
 2.8010	 5.9730
 2.8030	 5.9100
 2.8040	 5.8780
 2.8060	 5.8670
 2.8080	 5.8460
 2.8090	 5.7970
 2.8110	 5.8650
 2.8120	 5.8760
 2.8140	 5.8020
 2.8150	 5.7090
 2.8170	 5.7370
 2.8180	 5.6760
 2.8200	 5.6200
 2.8210	 5.5930
 2.8230	 5.6550
 2.8240	 5.7010
 2.8260	 5.6660
 2.8270	 5.5570
 2.8290	 5.5390
 2.8310	 5.4850
 2.8320	 5.5410
 2.8340	 5.4980
 2.8350	 5.4550
 2.8370	 5.4660
 2.8380	 5.4680
 2.8400	 5.3760
 2.8410	 5.4310
 2.8430	 5.4930
 2.8440	 5.4280
 2.8460	 5.3500
 2.8480	 5.3760
 2.8490	 5.3670
 2.8510	 5.3920
 2.8520	 5.3780
 2.8540	 5.4140
 2.8550	 5.3210
 2.8570	 5.2710
 2.8590	 5.2470
 2.8600	 5.3460
 2.8620	 5.3420
 2.8630	 5.2810
 2.8650	 5.2520
 2.8660	 5.3250
 2.8680	 5.2790
 2.8700	 5.2830
 2.8710	 5.2360
 2.8730	 5.2190
 2.8740	 5.1830
 2.8760	 5.2750
 2.8780	 5.2430
 2.8790	 5.1520
 2.8810	 5.1450
 2.8820	 5.2160
 2.8840	 5.1570
 2.8860	 5.1490
 2.8870	 5.0870
 2.8890	 5.1530
 2.8900	 5.1350
 2.8920	 5.1580
 2.8940	 5.1570
 2.8950	 5.1600
 2.8970	 5.1260
 2.8990	 5.1190
 2.9000	 5.1250
 2.9020	 5.1930
 2.9030	 5.1780
 2.9050	 5.2030
 2.9070	 5.1670
 2.9080	 5.1270
 2.9100	 5.0960
 2.9120	 5.1870
 2.9130	 5.2530
 2.9150	 5.3200
 2.9160	 5.2190
 2.9180	 5.1240
 2.9200	 5.0650
 2.9210	 5.1120
 2.9230	 5.1650
 2.9250	 5.2580
 2.9260	 5.2110
 2.9280	 5.1350
 2.9300	 5.0680
 2.9310	 5.0950
 2.9330	 5.1740
 2.9350	 5.2590
 2.9360	 5.2520
 2.9380	 5.2410
 2.9400	 5.2440
 2.9410	 5.2750
 2.9430	 5.2360
 2.9450	 5.2930
 2.9460	 5.2450
 2.9480	 5.2790
 2.9500	 5.2370
 2.9510	 5.2340
 2.9530	 5.2850
 2.9550	 5.3470
 2.9560	 5.2690
 2.9580	 5.3020
 2.9600	 5.3720
 2.9610	 5.4400
 2.9630	 5.4210
 2.9650	 5.4090
 2.9670	 5.3940
 2.9680	 5.4070
 2.9700	 5.3670
 2.9720	 5.3450
 2.9730	 5.2910
 2.9750	 5.3220
 2.9770	 5.3770
 2.9780	 5.4630
 2.9800	 5.4420
 2.9820	 5.4020
 2.9840	 5.3820
 2.9850	 5.4750
 2.9870	 5.4980
 2.9890	 5.5210
 2.9900	 5.4390
 2.9920	 5.3870
 2.9940	 5.4180
 2.9960	 5.5500
 2.9970	 5.5300
 2.9990	 5.5130
 3.0010	 5.5320
 3.0030	 5.5350
 3.0040	 5.4970
 3.0060	 5.5510
 3.0080	 5.5820
 3.0100	 5.6680
 3.0110	 5.6970
 3.0130	 5.7020
 3.0150	 5.6220
 3.0170	 5.6410
 3.0180	 5.7140
 3.0200	 5.8190
 3.0220	 5.8240
 3.0240	 5.8520
 3.0250	 5.8320
 3.0270	 5.8470
 3.0290	 5.8120
 3.0310	 5.8470
 3.0320	 5.8570
 3.0340	 5.8850
 3.0360	 5.9050
 3.0380	 5.9470
 3.0400	 5.9050
 3.0410	 5.9650
 3.0430	 5.9770
 3.0450	 5.9770
 3.0470	 5.9700
 3.0480	 6.0120
 3.0500	 5.9850
 3.0520	 6.0450
 3.0540	 6.0570
 3.0560	 6.0720
 3.0570	 6.0560
 3.0590	 6.0660
 3.0610	 6.0960
 3.0630	 6.1540
 3.0650	 6.1360
 3.0670	 6.1840
 3.0680	 6.1880
 3.0700	 6.1940
 3.0720	 6.1790
 3.0740	 6.2120
 3.0760	 6.2360
 3.0770	 6.2370
 3.0790	 6.2250
 3.0810	 6.2780
 3.0830	 6.2770
 3.0850	 6.2830
 3.0870	 6.2890
 3.0880	 6.3380
 3.0900	 6.3640
 3.0920	 6.4140
 3.0940	 6.3760
 3.0960	 6.4160
 3.0980	 6.4420
 3.1000	 6.4500
 3.1010	 6.4270
 3.1030	 6.4540
 3.1050	 6.5260
 3.1070	 6.5250
 3.1090	 6.4620
 3.1110	 6.4470
 3.1130	 6.4180
 3.1140	 6.4590
 3.1160	 6.4890
 3.1180	 6.5390
 3.1200	 6.5450
 3.1220	 6.5590
 3.1240	 6.5280
 3.1260	 6.5140
 3.1280	 6.5180
 3.1290	 6.5640
 3.1310	 6.5950
 3.1330	 6.6150
 3.1350	 6.5670
 3.1370	 6.5730
 3.1390	 6.6120
 3.1410	 6.6860
 3.1430	 6.7160
 3.1450	 6.7010
 3.1470	 6.6620
 3.1480	 6.6760
 3.1500	 6.6530
 3.1520	 6.6400
 3.1540	 6.6170
 3.1560	 6.7020
 3.1580	 6.7610
 3.1600	 6.7730
 3.1620	 6.7650
 3.1640	 6.7520
 3.1660	 6.7710
 3.1680	 6.7920
 3.1700	 6.7780
 3.1720	 6.8070
 3.1730	 6.7620
 3.1750	 6.7700
 3.1770	 6.7750
 3.1790	 6.7800
 3.1810	 6.7420
 3.1830	 6.7230
 3.1850	 6.7240
 3.1870	 6.7730
 3.1890	 6.8040
 3.1910	 6.8320
 3.1930	 6.8030
 3.1950	 6.8320
 3.1970	 6.8080
 3.1990	 6.8410
 3.2010	 6.8330
 3.2030	 6.8240
 3.2050	 6.8110
 3.2070	 6.8540
 3.2090	 6.8230
 3.2110	 6.8250
 3.2130	 6.9060
 3.2150	 6.9520
 3.2170	 6.8940
 3.2190	 6.8920
 3.2210	 6.8960
 3.2230	 6.8830
 3.2250	 6.8640
 3.2270	 6.9030
 3.2290	 6.8910
 3.2310	 6.9220
 3.2330	 6.8870
 3.2350	 6.8720
 3.2370	 6.8520
 3.2390	 6.8740
 3.2410	 6.9150
 3.2430	 6.9920
 3.2450	 7.0080
 3.2470	 6.9890
 3.2490	 6.9410
 3.2510	 6.9150
 3.2530	 6.9170
 3.2550	 6.9940
 3.2570	 6.9940
 3.2590	 6.9600
 3.2610	 6.9440
 3.2630	 6.9810
 3.2650	 6.9480
 3.2670	 6.9660
 3.2700	 6.9580
 3.2720	 6.9790
 3.2740	 6.9760
 3.2760	 6.9510
 3.2780	 6.9530
 3.2800	 7.0220
 3.2820	 7.0290
 3.2840	 6.9890
 3.2860	 6.9490
 3.2880	 6.9760
 3.2900	 7.0010
 3.2920	 7.0220
 3.2940	 6.9800
 3.2970	 6.9590
 3.2990	 6.9250
 3.3010	 6.9170
 3.3030	 6.9580
 3.3050	 6.9700
 3.3070	 6.9200
 3.3090	 6.9270
 3.3110	 6.8950
 3.3130	 6.9410
 3.3160	 6.9540
 3.3180	 6.9210
 3.3200	 6.8870
 3.3220	 6.8660
 3.3240	 6.8040
 3.3260	 6.8230
 3.3280	 6.8360
 3.3300	 6.8110
 3.3330	 6.7600
 3.3350	 6.7560
 3.3370	 6.7140
 3.3390	 6.6990
 3.3410	 6.6580
 3.3430	 6.6370
 3.3450	 6.6130
 3.3480	 6.5790
 3.3500	 6.5140
 3.3520	 6.5140
 3.3540	 6.5030
 3.3560	 6.4100
 3.3580	 6.3240
 3.3610	 6.3450
 3.3630	 6.3100
 3.3650	 6.2400
 3.3670	 6.1670
 3.3690	 6.1220
 3.3720	 6.0750
 3.3740	 6.0460
 3.3760	 5.9580
 3.3780	 5.9010
 3.3800	 5.8050
 3.3830	 5.8360
 3.3850	 5.8510
 3.3870	 5.8230
 3.3890	 5.7350
 3.3910	 5.6480
 3.3940	 5.6190
 3.3960	 5.6730
 3.3980	 5.5680
 3.4000	 5.4710
 3.4030	 5.4400
 3.4050	 5.4520
 3.4070	 5.4280
 3.4090	 5.4010
 3.4110	 5.3280
 3.4140	 5.3870
 3.4160	 5.4740
 3.4180	 5.4960
 3.4200	 5.5260
 3.4230	 5.6690
 3.4250	 5.7730
 3.4270	 5.9010
 3.4300	 6.0500
 3.4320	 6.1900
 3.4340	 6.2520
 3.4360	 6.2870
 3.4390	 6.2980
 3.4410	 6.3070
 3.4430	 6.2670
 3.4450	 6.2890
 3.4480	 6.3350
 3.4500	 6.3150
 3.4520	 6.2820
 3.4550	 6.3650
 3.4570	 6.3890
 3.4590	 6.4070
 3.4620	 6.4550
 3.4640	 6.5130
 3.4660	 6.5060
 3.4690	 6.5470
 3.4710	 6.5860
 3.4730	 6.5900
 3.4760	 6.5680
 3.4780	 6.5220
 3.4800	 6.4620
 3.4830	 6.4170
 3.4850	 6.3340
 3.4870	 6.3490
 3.4900	 6.3050
 3.4920	 6.2390
 3.4940	 6.1230
 3.4970	 6.0500
 3.4990	 5.9790
 3.5010	 5.9210
 3.5040	 5.8480
 3.5060	 5.8510
 3.5080	 5.9830
 3.5110	 6.3230
 3.5130	 6.7240
 3.5160	 7.0530
 3.5180	 7.2280
 3.5200	 7.3090
 3.5230	 7.3760
 3.5250	 7.5000
 3.5280	 7.5620
 3.5300	 7.5990
 3.5320	 7.5780
 3.5350	 7.5510
 3.5370	 7.5390
 3.5400	 7.5640
 3.5420	 7.5660
 3.5440	 7.5580
 3.5470	 7.5330
 3.5490	 7.5260
 3.5520	 7.5270
 3.5540	 7.5520
 3.5570	 7.5600
 3.5590	 7.5670
 3.5610	 7.5610
 3.5640	 7.5810
 3.5660	 7.5980
 3.5690	 7.6200
 3.5710	 7.5700
 3.5740	 7.5340
 3.5760	 7.5640
 3.5790	 7.5830
 3.5810	 7.5720
 3.5840	 7.5680
 3.5860	 7.5460
 3.5890	 7.5670
 3.5910	 7.5640
 3.5940	 7.6170
 3.5960	 7.6620
 3.5990	 7.6240
 3.6010	 7.5480
 3.6040	 7.5370
 3.6060	 7.5260
 3.6090	 7.5800
 3.6110	 7.5960
 3.6140	 7.5880
 3.6160	 7.5670
 3.6190	 7.5870
 3.6210	 7.5890
 3.6240	 7.5830
 3.6260	 7.5500
 3.6290	 7.5130
 3.6310	 7.5290
 3.6340	 7.5640
 3.6360	 7.5430
 3.6390	 7.5360
 3.6410	 7.5510
 3.6440	 7.5880
 3.6470	 7.5800
 3.6490	 7.5470
 3.6520	 7.5410
 3.6540	 7.5740
 3.6570	 7.5560
 3.6590	 7.5820
 3.6620	 7.5680
 3.6650	 7.5790
 3.6670	 7.5730
 3.6700	 7.5690
 3.6720	 7.5840
 3.6750	 7.6100
 3.6780	 7.5520
 3.6800	 7.5300
 3.6830	 7.5560
 3.6850	 7.6040
 3.6880	 7.6360
 3.6910	 7.6270
 3.6930	 7.5640
 3.6960	 7.5660
 3.6990	 7.6110
 3.7010	 7.6570
 3.7040	 7.6110
 3.7070	 7.6000
 3.7090	 7.5930
 3.7120	 7.5890
 3.7150	 7.5790
 3.7170	 7.5890
 3.7200	 7.5740
 3.7230	 7.5630
 3.7250	 7.5800
 3.7280	 7.5990
 3.7310	 7.5890
 3.7330	 7.6270
 3.7360	 7.6140
 3.7390	 7.5990
 3.7410	 7.5740
 3.7440	 7.5890
 3.7470	 7.6080
 3.7490	 7.5920
 3.7520	 7.5900
 3.7550	 7.6120
 3.7580	 7.5860
 3.7600	 7.6390
 3.7630	 7.6520
 3.7660	 7.6150
 3.7690	 7.6080
 3.7710	 7.6090
 3.7740	 7.6160
 3.7770	 7.6390
 3.7790	 7.6240
 3.7820	 7.6300
 3.7850	 7.6460
 3.7880	 7.6520
 3.7910	 7.6330
 3.7930	 7.6730
 3.7960	 7.6730
 3.7990	 7.6500
 3.8020	 7.6280
 3.8040	 7.6480
 3.8070	 7.6610
 3.8100	 7.6380
 3.8130	 7.6170
 3.8160	 7.6440
 3.8180	 7.6710
 3.8210	 7.6810
 3.8240	 7.6820
 3.8270	 7.6840
 3.8300	 7.6650
 3.8330	 7.6510
 3.8350	 7.6380
 3.8380	 7.6720
 3.8410	 7.6860
 3.8440	 7.6770
 3.8470	 7.6750
 3.8500	 7.6860
 3.8520	 7.6760
 3.8550	 7.6980
 3.8580	 7.7030
 3.8610	 7.7020
 3.8640	 7.7090
 3.8670	 7.7100
 3.8700	 7.6930
 3.8730	 7.7050
 3.8760	 7.7070
 3.8780	 7.7410
 3.8810	 7.7140
 3.8840	 7.6610
 3.8870	 7.6590
 3.8900	 7.7280
 3.8930	 7.7510
 3.8960	 7.7330
 3.8990	 7.7230
 3.9020	 7.7640
 3.9050	 7.7650
 3.9080	 7.7070
 3.9110	 7.6970
 3.9140	 7.7130
 3.9170	 7.7050
 3.9190	 7.7170
 3.9220	 7.7190
 3.9250	 7.7090
 3.9280	 7.7080
 3.9310	 7.7090
 3.9340	 7.7140
 3.9370	 7.7310
 3.9400	 7.7550
 3.9430	 7.7390
 3.9460	 7.6720
 3.9490	 7.6860
 3.9520	 7.7230
 3.9550	 7.7150
 3.9580	 7.6880
 3.9610	 7.7000
 3.9640	 7.7380
 3.9670	 7.7480
 3.9700	 7.7370
 3.9740	 7.7490
 3.9770	 7.7210
 3.9800	 7.6880
 3.9830	 7.7050
 3.9860	 7.7260
 3.9890	 7.7150
 3.9920	 7.7170
 3.9950	 7.7230
 3.9980	 7.7760
 4.0010	 7.7750
 4.0040	 7.7560
 4.0070	 7.7220
 4.0100	 7.7200
 4.0140	 7.7320
 4.0170	 7.7510
 4.0200	 7.7390
 4.0230	 7.6980
 4.0260	 7.7070
 4.0290	 7.7300
 4.0320	 7.7180
 4.0350	 7.7200
 4.0390	 7.7270
 4.0420	 7.7270
 4.0450	 7.7340
 4.0480	 7.7360
 4.0510	 7.7220
 4.0540	 7.6960
 4.0570	 7.6910
 4.0610	 7.7240
 4.0640	 7.7350
 4.0670	 7.7340
 4.0700	 7.7240
 4.0730	 7.7120
 4.0770	 7.6970
 4.0800	 7.7390
 4.0830	 7.7720
 4.0860	 7.7200
 4.0890	 7.7220
 4.0930	 7.7560
 4.0960	 7.7540
 4.0990	 7.7460
 4.1020	 7.7320
 4.1060	 7.7680
 4.1090	 7.7910
 4.1120	 7.7630
 4.1150	 7.7330
 4.1190	 7.7200
 4.1220	 7.7270
 4.1250	 7.7710
 4.1290	 7.7680
 4.1320	 7.7130
 4.1350	 7.6690
 4.1380	 7.6920
 4.1420	 7.7100
 4.1450	 7.7200
 4.1480	 7.7310
 4.1520	 7.7290
 4.1550	 7.7060
 4.1580	 7.7140
 4.1620	 7.7180
 4.1650	 7.7290
 4.1680	 7.7240
 4.1720	 7.7320
 4.1750	 7.7250
 4.1780	 7.6880
 4.1820	 7.6860
 4.1850	 7.7160
 4.1890	 7.7170
 4.1920	 7.7280
 4.1950	 7.7370
 4.1990	 7.7340
 4.2020	 7.7490
 4.2060	 7.8020
 4.2090	 7.8790
 4.2120	 7.8860
 4.2160	 7.8660
 4.2190	 7.9030
 4.2230	 7.9710
 4.2260	 8.0120
 4.2300	 7.9820
 4.2330	 8.0740
 4.2360	 8.1080
 4.2400	 8.0700
 4.2430	 8.0310
 4.2470	 8.0360
 4.2500	 7.9540
 4.2540	 7.8620
 4.2570	 7.8050
 4.2610	 7.8390
 4.2640	 7.9800
 4.2680	 8.0430
 4.2710	 7.9340
 4.2750	 7.8780
 4.2780	 7.8810
 4.2820	 7.8690
 4.2850	 7.8540
 4.2890	 7.8180
 4.2930	 7.8430
 4.2960	 7.8930
 4.3000	 7.8850
 4.3030	 7.8690
 4.3070	 7.8250
 4.3100	 7.8040
 4.3140	 7.8160
 4.3180	 7.8120
 4.3210	 7.7490
 4.3250	 7.7040
 4.3280	 7.6920
 4.3320	 7.7040
 4.3360	 7.6830
 4.3390	 7.6290
 4.3430	 7.6010
 4.3470	 7.5810
 4.3500	 7.5670
 4.3540	 7.5590
 4.3580	 7.5470
 4.3610	 7.5330
 4.3650	 7.5480
 4.3690	 7.5680
 4.3720	 7.5510
 4.3760	 7.5630
 4.3800	 7.5550
 4.3830	 7.5520
 4.3870	 7.5660
 4.3910	 7.5740
 4.3940	 7.5770
 4.3980	 7.5160
 4.4020	 7.5010
 4.4060	 7.5120
 4.4090	 7.5050
 4.4130	 7.5000
 4.4170	 7.4900
 4.4210	 7.4830
 4.4240	 7.4860
 4.4280	 7.4730
 4.4320	 7.4800
 4.4360	 7.4870
 4.4400	 7.4430
 4.4430	 7.4050
 4.4470	 7.4460
 4.4510	 7.4650
 4.4550	 7.4110
 4.4590	 7.3740
 4.4630	 7.3550
 4.4660	 7.3530
 4.4700	 7.3760
 4.4740	 7.3970
 4.4780	 7.4320
 4.4820	 7.4520
 4.4860	 7.4420
 4.4900	 7.4180
 4.4930	 7.4100
 4.4970	 7.3910
 4.5010	 7.3990
 4.5050	 7.3770
 4.5090	 7.3650
 4.5130	 7.3770
 4.5170	 7.3570
 4.5210	 7.3390
 4.5250	 7.3560
 4.5290	 7.3610
 4.5330	 7.3520
 4.5370	 7.3260
 4.5410	 7.3450
 4.5450	 7.3590
 4.5490	 7.3540
 4.5530	 7.3340
 4.5570	 7.3510
 4.5610	 7.3380
 4.5650	 7.3030
 4.5690	 7.2670
 4.5730	 7.2740
 4.5770	 7.3020
 4.5810	 7.2970
 4.5850	 7.2600
 4.5890	 7.2580
 4.5930	 7.2330
 4.5970	 7.2110
 4.6010	 7.2160
 4.6050	 7.2500
 4.6090	 7.2370
 4.6130	 7.2310
 4.6170	 7.2550
 4.6220	 7.2350
 4.6260	 7.2270
 4.6300	 7.2610
 4.6340	 7.2400
 4.6380	 7.2270
 4.6420	 7.2060
 4.6460	 7.1880
 4.6510	 7.1970
 4.6550	 7.2120
 4.6590	 7.2030
 4.6630	 7.2120
 4.6670	 7.2010
 4.6720	 7.1970
 4.6760	 7.1710
 4.6800	 7.1790
 4.6840	 7.1840
 4.6880	 7.1640
 4.6930	 7.1590
 4.6970	 7.1540
 4.7010	 7.1520
 4.7050	 7.1800
 4.7100	 7.1780
 4.7140	 7.1650
 4.7180	 7.1430
 4.7230	 7.1690
 4.7270	 7.1770
 4.7310	 7.1780
 4.7360	 7.1750
 4.7400	 7.1610
 4.7440	 7.1240
 4.7490	 7.1270
 4.7530	 7.1210
 4.7570	 7.1180
 4.7620	 7.1150
 4.7660	 7.1160
 4.7700	 7.1270
 4.7750	 7.1490
 4.7790	 7.1210
 4.7840	 7.1050
 4.7880	 7.1210
 4.7920	 7.1700
 4.7970	 7.1470
 4.8010	 7.1210
 4.8060	 7.1180
 4.8100	 7.1060
 4.8150	 7.1120
 4.8190	 7.1270
 4.8240	 7.1200
 4.8280	 7.1360
 4.8330	 7.1390
 4.8370	 7.1330
 4.8420	 7.0980
 4.8460	 7.1050
 4.8510	 7.1330
 4.8550	 7.1400
 4.8600	 7.0920
 4.8640	 7.0930
 4.8690	 7.1170
 4.8740	 7.1460
 4.8780	 7.1080
 4.8830	 7.0550
 4.8870	 7.0480
 4.8920	 7.0730
 4.8970	 7.0800
 4.9010	 7.0870
 4.9060	 7.0590
 4.9100	 7.0600
 4.9150	 7.0840
 4.9200	 7.0980
 4.9240	 7.0910
 4.9290	 7.1120
 4.9340	 7.1260
 4.9390	 7.1210
 4.9430	 7.0990
 4.9480	 7.0600
 4.9530	 7.0240
 4.9570	 7.0530
 4.9620	 7.0670
 4.9670	 7.1020
 4.9720	 7.1040
 4.9760	 7.0870
 4.9810	 7.0800
 4.9860	 7.0920
 4.9910	 7.0820
 4.9960	 7.1050
 5.0000	 7.0660
 5.0050	 7.0340
 5.0100	 7.0400
 5.0150	 7.0330
 5.0200	 7.0170
 5.0250	 7.0300
 5.0300	 7.0440
 5.0340	 7.0640
 5.0390	 7.0350
 5.0440	 7.0340
 5.0490	 7.0230
 5.0540	 7.0380
 5.0590	 7.0120
 5.0640	 7.0040
 5.0690	 7.0160
 5.0740	 7.0460
 5.0790	 7.0090
 5.0840	 6.9790
 5.0890	 6.9720
 5.0940	 7.0200
 5.0990	 7.0270
 5.1040	 7.0190
 5.1090	 7.0090
 5.1140	 7.0280
 5.1190	 6.9950
 5.1240	 6.9900
 5.1290	 7.0110
 5.1340	 7.0030
 5.1390	 6.9750
 5.1440	 6.9920
 5.1490	 6.9820
 5.1550	 6.9850
 5.1600	 6.9870
 5.1650	 7.0170
 5.1700	 6.9880
 5.1750	 6.9700
 5.1800	 6.9710
 5.1850	 6.9910
 5.1910	 7.0020
 5.1960	 7.0140
 5.2010	 6.9800
 5.2060	 6.9700
 5.2110	 6.9470
 5.2170	 6.9380
 5.2220	 6.9070
 5.2270	 6.9060
 5.2330	 6.9210
 5.2380	 6.9500
 5.2430	 6.9460
 5.2480	 6.9130
 5.2540	 6.8600
 5.2590	 6.8940
 5.2640	 6.8750
 5.2700	 6.8860
 5.2750	 6.8880
 5.2800	 6.9000
 5.2860	 6.8700
 5.2910	 6.8830
 5.2970	 6.8750
 5.3020	 6.9140
 5.3080	 6.8860
 5.3130	 6.8730
 5.3180	 6.8680
 5.3240	 6.8520
 5.3290	 6.8330
 5.3350	 6.8470
 5.3400	 6.8040
 5.3460	 6.8250
 5.3510	 6.8570
 5.3570	 6.8760
 5.3620	 6.8100
 5.3680	 6.7970
 5.3740	 6.7800
 5.3790	 6.8000
 5.3850	 6.7760
 5.3900	 6.7680
 5.3960	 6.7390
 5.4010	 6.7610
 5.4070	 6.7550
 5.4130	 6.7650
 5.4180	 6.7310
 5.4240	 6.7270
 5.4300	 6.6890
 5.4350	 6.6800
 5.4410	 6.6780
 5.4470	 6.6490
 5.4530	 6.6290
 5.4580	 6.6540
 5.4640	 6.6580
 5.4700	 6.6810
 5.4760	 6.6660
 5.4810	 6.6260
 5.4870	 6.5420
 5.4930	 6.5440
 5.4990	 6.5520
 5.5050	 6.5780
 5.5110	 6.5370
