Name: Betula papyrifera
Type: Vegetation
Class: Tree
Genus: Betula
Species: papyrifera
Sample No.: BEPA-1-33
Owner: UCSB
Wavelength Range: VSWIR
Origin: USA; Massachusetts; Harvard Forest
Collection Date: 7/8/2013
Description: Samples were collected as part of NSF Macrosystem Biology proposal titled: Collaborative Research: Thermal controls on ecosystem metabolism and function: scaling from leaves to canopies to regions. Samples were collected and overnighted to JPL facilities for processing. The same leaves were processed in the Nicolet and then measured using the ASD.
Measurement: Bidirectional reflectance
First Column: X
Second Column: Y
X Units: Wavelength (micrometers)
Y Units: Reflectance (percentage)
First X Value: 0.35
Last X Value: 2.5
Number of X Values: 2151
Additional Information: vegetation.tree.betula.papyrifera.vswir.bepa-1-33.ucsb.asd.ancillary.txt

 0.3500	 6.8440
 0.3510	 6.9530
 0.3520	 6.9080
 0.3530	 6.8680
 0.3540	 6.9910
 0.3550	 7.0070
 0.3560	 7.0820
 0.3570	 7.1270
 0.3580	 6.9730
 0.3590	 6.8710
 0.3600	 6.8880
 0.3610	 6.9780
 0.3620	 6.9840
 0.3630	 7.0120
 0.3640	 7.0300
 0.3650	 6.9820
 0.3660	 6.8170
 0.3670	 6.7350
 0.3680	 6.8210
 0.3690	 7.0450
 0.3700	 7.0950
 0.3710	 7.0200
 0.3720	 6.8990
 0.3730	 6.7330
 0.3740	 6.9100
 0.3750	 7.1020
 0.3760	 6.9230
 0.3770	 6.8690
 0.3780	 6.8470
 0.3790	 6.8310
 0.3800	 6.8730
 0.3810	 6.9000
 0.3820	 6.9160
 0.3830	 6.9290
 0.3840	 6.9380
 0.3850	 6.9060
 0.3860	 6.8370
 0.3870	 6.7700
 0.3880	 6.8690
 0.3890	 6.9530
 0.3900	 6.9340
 0.3910	 6.8520
 0.3920	 6.8230
 0.3930	 6.8560
 0.3940	 6.9190
 0.3950	 6.9490
 0.3960	 6.9480
 0.3970	 6.9150
 0.3980	 6.8590
 0.3990	 6.8780
 0.4000	 6.8810
 0.4010	 6.8360
 0.4020	 6.8050
 0.4030	 6.8060
 0.4040	 6.8220
 0.4050	 6.8360
 0.4060	 6.8910
 0.4070	 6.9170
 0.4080	 6.8980
 0.4090	 6.8630
 0.4100	 6.8700
 0.4110	 6.8850
 0.4120	 6.8860
 0.4130	 6.8890
 0.4140	 6.9170
 0.4150	 6.9290
 0.4160	 6.8900
 0.4170	 6.8840
 0.4180	 6.8900
 0.4190	 6.8940
 0.4200	 6.8880
 0.4210	 6.8910
 0.4220	 6.9060
 0.4230	 6.9270
 0.4240	 6.9360
 0.4250	 6.9350
 0.4260	 6.9260
 0.4270	 6.9170
 0.4280	 6.9280
 0.4290	 6.9350
 0.4300	 6.9320
 0.4310	 6.9330
 0.4320	 6.9300
 0.4330	 6.9250
 0.4340	 6.9190
 0.4350	 6.9130
 0.4360	 6.9070
 0.4370	 6.9070
 0.4380	 6.9150
 0.4390	 6.9380
 0.4400	 6.9440
 0.4410	 6.9230
 0.4420	 6.9210
 0.4430	 6.9090
 0.4440	 6.9040
 0.4450	 6.9260
 0.4460	 6.9440
 0.4470	 6.9420
 0.4480	 6.9300
 0.4490	 6.9510
 0.4500	 6.9500
 0.4510	 6.9450
 0.4520	 6.9570
 0.4530	 6.9650
 0.4540	 6.9650
 0.4550	 6.9630
 0.4560	 6.9670
 0.4570	 6.9690
 0.4580	 6.9670
 0.4590	 6.9620
 0.4600	 6.9550
 0.4610	 6.9660
 0.4620	 6.9790
 0.4630	 6.9730
 0.4640	 6.9580
 0.4650	 6.9500
 0.4660	 6.9520
 0.4670	 6.9560
 0.4680	 6.9520
 0.4690	 6.9470
 0.4700	 6.9490
 0.4710	 6.9550
 0.4720	 6.9540
 0.4730	 6.9510
 0.4740	 6.9580
 0.4750	 6.9580
 0.4760	 6.9520
 0.4770	 6.9450
 0.4780	 6.9470
 0.4790	 6.9500
 0.4800	 6.9520
 0.4810	 6.9530
 0.4820	 6.9590
 0.4830	 6.9590
 0.4840	 6.9530
 0.4850	 6.9470
 0.4860	 6.9500
 0.4870	 6.9650
 0.4880	 6.9820
 0.4890	 6.9770
 0.4900	 6.9810
 0.4910	 6.9970
 0.4920	 7.0090
 0.4930	 7.0120
 0.4940	 7.0150
 0.4950	 7.0280
 0.4960	 7.0520
 0.4970	 7.0600
 0.4980	 7.0690
 0.4990	 7.0980
 0.5000	 7.1150
 0.5010	 7.1350
 0.5020	 7.1640
 0.5030	 7.1990
 0.5040	 7.2300
 0.5050	 7.2650
 0.5060	 7.3110
 0.5070	 7.3730
 0.5080	 7.4400
 0.5090	 7.5160
 0.5100	 7.6070
 0.5110	 7.6920
 0.5120	 7.7890
 0.5130	 7.9120
 0.5140	 8.0530
 0.5150	 8.2000
 0.5160	 8.3600
 0.5170	 8.5400
 0.5180	 8.7190
 0.5190	 8.9120
 0.5200	 9.1230
 0.5210	 9.3400
 0.5220	 9.5620
 0.5230	 9.7870
 0.5240	10.0100
 0.5250	10.2190
 0.5260	10.4250
 0.5270	10.6260
 0.5280	10.8150
 0.5290	10.9970
 0.5300	11.1590
 0.5310	11.3000
 0.5320	11.4380
 0.5330	11.5530
 0.5340	11.6560
 0.5350	11.7560
 0.5360	11.8280
 0.5370	11.8970
 0.5380	11.9680
 0.5390	12.0320
 0.5400	12.0800
 0.5410	12.1230
 0.5420	12.1680
 0.5430	12.2110
 0.5440	12.2570
 0.5450	12.3030
 0.5460	12.3430
 0.5470	12.3760
 0.5480	12.4010
 0.5490	12.4200
 0.5500	12.4410
 0.5510	12.4580
 0.5520	12.4660
 0.5530	12.4620
 0.5540	12.4470
 0.5550	12.4160
 0.5560	12.3670
 0.5570	12.3040
 0.5580	12.2310
 0.5590	12.1490
 0.5600	12.0540
 0.5610	11.9450
 0.5620	11.8240
 0.5630	11.6940
 0.5640	11.5600
 0.5650	11.4170
 0.5660	11.2650
 0.5670	11.1060
 0.5680	10.9470
 0.5690	10.7870
 0.5700	10.6300
 0.5710	10.4800
 0.5720	10.3370
 0.5730	10.1980
 0.5740	10.0640
 0.5750	 9.9440
 0.5760	 9.8370
 0.5770	 9.7400
 0.5780	 9.6520
 0.5790	 9.5650
 0.5800	 9.4790
 0.5810	 9.3940
 0.5820	 9.3150
 0.5830	 9.2480
 0.5840	 9.1890
 0.5850	 9.1350
 0.5860	 9.0800
 0.5870	 9.0230
 0.5880	 8.9650
 0.5890	 8.9110
 0.5900	 8.8700
 0.5910	 8.8310
 0.5920	 8.7950
 0.5930	 8.7730
 0.5940	 8.7500
 0.5950	 8.7250
 0.5960	 8.6980
 0.5970	 8.6790
 0.5980	 8.6580
 0.5990	 8.6340
 0.6000	 8.6110
 0.6010	 8.5880
 0.6020	 8.5650
 0.6030	 8.5390
 0.6040	 8.5080
 0.6050	 8.4720
 0.6060	 8.4300
 0.6070	 8.3800
 0.6080	 8.3410
 0.6090	 8.2980
 0.6100	 8.2460
 0.6110	 8.1860
 0.6120	 8.1350
 0.6130	 8.0880
 0.6140	 8.0420
 0.6150	 7.9970
 0.6160	 7.9550
 0.6170	 7.9170
 0.6180	 7.8820
 0.6190	 7.8440
 0.6200	 7.8120
 0.6210	 7.7880
 0.6220	 7.7670
 0.6230	 7.7420
 0.6240	 7.7250
 0.6250	 7.7190
 0.6260	 7.7050
 0.6270	 7.6950
 0.6280	 7.6860
 0.6290	 7.6750
 0.6300	 7.6660
 0.6310	 7.6580
 0.6320	 7.6510
 0.6330	 7.6420
 0.6340	 7.6190
 0.6350	 7.5930
 0.6360	 7.5710
 0.6370	 7.5370
 0.6380	 7.5010
 0.6390	 7.4640
 0.6400	 7.4260
 0.6410	 7.3890
 0.6420	 7.3460
 0.6430	 7.2990
 0.6440	 7.2680
 0.6450	 7.2370
 0.6460	 7.2040
 0.6470	 7.1740
 0.6480	 7.1460
 0.6490	 7.1230
 0.6500	 7.1060
 0.6510	 7.0910
 0.6520	 7.0760
 0.6530	 7.0640
 0.6540	 7.0540
 0.6550	 7.0440
 0.6560	 7.0330
 0.6570	 7.0220
 0.6580	 7.0080
 0.6590	 6.9950
 0.6600	 6.9810
 0.6610	 6.9670
 0.6620	 6.9560
 0.6630	 6.9430
 0.6640	 6.9330
 0.6650	 6.9290
 0.6660	 6.9250
 0.6670	 6.9240
 0.6680	 6.9250
 0.6690	 6.9260
 0.6700	 6.9350
 0.6710	 6.9440
 0.6720	 6.9520
 0.6730	 6.9610
 0.6740	 6.9760
 0.6750	 6.9950
 0.6760	 7.0130
 0.6770	 7.0310
 0.6780	 7.0510
 0.6790	 7.0740
 0.6800	 7.1020
 0.6810	 7.1310
 0.6820	 7.1590
 0.6830	 7.1890
 0.6840	 7.2210
 0.6850	 7.2590
 0.6860	 7.3050
 0.6870	 7.3580
 0.6880	 7.4200
 0.6890	 7.5010
 0.6900	 7.6090
 0.6910	 7.7540
 0.6920	 7.9460
 0.6930	 8.1930
 0.6940	 8.5070
 0.6950	 8.8910
 0.6960	 9.3580
 0.6970	 9.9090
 0.6980	10.5390
 0.6990	11.2340
 0.7000	11.9970
 0.7010	12.8230
 0.7020	13.7000
 0.7030	14.6110
 0.7040	15.5530
 0.7050	16.5200
 0.7060	17.4900
 0.7070	18.4730
 0.7080	19.4600
 0.7090	20.4370
 0.7100	21.4290
 0.7110	22.4180
 0.7120	23.3950
 0.7130	24.3580
 0.7140	25.3160
 0.7150	26.2590
 0.7160	27.1760
 0.7170	28.0930
 0.7180	28.9860
 0.7190	29.8470
 0.7200	30.6790
 0.7210	31.4940
 0.7220	32.2910
 0.7230	33.0610
 0.7240	33.7890
 0.7250	34.4780
 0.7260	35.1420
 0.7270	35.7860
 0.7280	36.3820
 0.7290	36.9600
 0.7300	37.5060
 0.7310	37.9960
 0.7320	38.4800
 0.7330	38.9310
 0.7340	39.3450
 0.7350	39.7490
 0.7360	40.1040
 0.7370	40.4400
 0.7380	40.7740
 0.7390	41.0630
 0.7400	41.3380
 0.7410	41.5960
 0.7420	41.8240
 0.7430	42.0210
 0.7440	42.2170
 0.7450	42.4130
 0.7460	42.5870
 0.7470	42.7350
 0.7480	42.8580
 0.7490	42.9660
 0.7500	43.1000
 0.7510	43.1970
 0.7520	43.2730
 0.7530	43.3600
 0.7540	43.4210
 0.7550	43.4910
 0.7560	43.5680
 0.7570	43.6240
 0.7580	43.6550
 0.7590	43.6890
 0.7600	43.7360
 0.7610	43.7600
 0.7620	43.7960
 0.7630	43.8310
 0.7640	43.8460
 0.7650	43.8740
 0.7660	43.8920
 0.7670	43.9010
 0.7680	43.9130
 0.7690	43.9230
 0.7700	43.9340
 0.7710	43.9490
 0.7720	43.9710
 0.7730	43.9600
 0.7740	43.9520
 0.7750	43.9740
 0.7760	43.9900
 0.7770	43.9980
 0.7780	44.0020
 0.7790	44.0070
 0.7800	44.0220
 0.7810	44.0280
 0.7820	44.0230
 0.7830	44.0330
 0.7840	44.0310
 0.7850	44.0240
 0.7860	44.0250
 0.7870	44.0440
 0.7880	44.0560
 0.7890	44.0630
 0.7900	44.0770
 0.7910	44.0740
 0.7920	44.0690
 0.7930	44.0720
 0.7940	44.0790
 0.7950	44.0920
 0.7960	44.0960
 0.7970	44.0900
 0.7980	44.0900
 0.7990	44.0990
 0.8000	44.1110
 0.8010	44.1180
 0.8020	44.0960
 0.8030	44.0860
 0.8040	44.0930
 0.8050	44.1010
 0.8060	44.0810
 0.8070	44.0760
 0.8080	44.0870
 0.8090	44.0770
 0.8100	44.0920
 0.8110	44.0940
 0.8120	44.0680
 0.8130	44.0590
 0.8140	44.0610
 0.8150	44.0670
 0.8160	44.0680
 0.8170	44.0670
 0.8180	44.0500
 0.8190	44.0310
 0.8200	44.0320
 0.8210	44.0370
 0.8220	44.0320
 0.8230	44.0210
 0.8240	44.0190
 0.8250	44.0160
 0.8260	44.0150
 0.8270	44.0130
 0.8280	44.0030
 0.8290	43.9940
 0.8300	43.9900
 0.8310	43.9860
 0.8320	43.9580
 0.8330	43.9590
 0.8340	43.9780
 0.8350	43.9790
 0.8360	43.9530
 0.8370	43.9490
 0.8380	43.9640
 0.8390	43.9530
 0.8400	43.9430
 0.8410	43.9490
 0.8420	43.9640
 0.8430	43.9480
 0.8440	43.9300
 0.8450	43.9260
 0.8460	43.9340
 0.8470	43.9250
 0.8480	43.9250
 0.8490	43.9310
 0.8500	43.9350
 0.8510	43.9420
 0.8520	43.9260
 0.8530	43.9120
 0.8540	43.9370
 0.8550	43.9480
 0.8560	43.9440
 0.8570	43.9410
 0.8580	43.9590
 0.8590	43.9450
 0.8600	43.9320
 0.8610	43.9390
 0.8620	43.9430
 0.8630	43.9300
 0.8640	43.9230
 0.8650	43.9360
 0.8660	43.9180
 0.8670	43.9230
 0.8680	43.9490
 0.8690	43.9700
 0.8700	43.9550
 0.8710	43.9520
 0.8720	43.9580
 0.8730	43.9510
 0.8740	43.9680
 0.8750	43.9910
 0.8760	44.0010
 0.8770	43.9880
 0.8780	43.9920
 0.8790	43.9920
 0.8800	43.9800
 0.8810	43.9840
 0.8820	43.9610
 0.8830	43.9520
 0.8840	43.9830
 0.8850	43.9970
 0.8860	44.0120
 0.8870	44.0170
 0.8880	44.0050
 0.8890	44.0000
 0.8900	44.0090
 0.8910	44.0220
 0.8920	44.0230
 0.8930	44.0210
 0.8940	44.0220
 0.8950	44.0340
 0.8960	44.0580
 0.8970	44.0560
 0.8980	44.0480
 0.8990	44.0500
 0.9000	44.0650
 0.9010	44.0350
 0.9020	44.0270
 0.9030	44.0580
 0.9040	44.0610
 0.9050	44.0530
 0.9060	44.0560
 0.9070	44.0720
 0.9080	44.0690
 0.9090	44.0770
 0.9100	44.0860
 0.9110	44.0880
 0.9120	44.0960
 0.9130	44.1040
 0.9140	44.0940
 0.9150	44.0660
 0.9160	44.0800
 0.9170	44.0940
 0.9180	44.1070
 0.9190	44.1260
 0.9200	44.1190
 0.9210	44.0990
 0.9220	44.0870
 0.9230	44.0950
 0.9240	44.1090
 0.9250	44.1110
 0.9260	44.0990
 0.9270	44.0850
 0.9280	44.0910
 0.9290	44.0950
 0.9300	44.0880
 0.9310	44.0800
 0.9320	44.0640
 0.9330	44.0450
 0.9340	44.0270
 0.9350	44.0080
 0.9360	44.0140
 0.9370	44.0290
 0.9380	44.0350
 0.9390	44.0220
 0.9400	43.9950
 0.9410	43.9820
 0.9420	43.9840
 0.9430	43.9660
 0.9440	43.9760
 0.9450	43.9760
 0.9460	43.9400
 0.9470	43.9140
 0.9480	43.8920
 0.9490	43.8740
 0.9500	43.8580
 0.9510	43.8220
 0.9520	43.8050
 0.9530	43.7890
 0.9540	43.7560
 0.9550	43.7290
 0.9560	43.6940
 0.9570	43.6660
 0.9580	43.6560
 0.9590	43.6420
 0.9600	43.6080
 0.9610	43.5710
 0.9620	43.5550
 0.9630	43.5450
 0.9640	43.5280
 0.9650	43.5210
 0.9660	43.5350
 0.9670	43.5210
 0.9680	43.5090
 0.9690	43.4950
 0.9700	43.4740
 0.9710	43.4770
 0.9720	43.4660
 0.9730	43.4500
 0.9740	43.4560
 0.9750	43.4670
 0.9760	43.4940
 0.9770	43.5050
 0.9780	43.4680
 0.9790	43.4610
 0.9800	43.4760
 0.9810	43.4890
 0.9820	43.4730
 0.9830	43.4430
 0.9840	43.4250
 0.9850	43.4410
 0.9860	43.4890
 0.9870	43.5090
 0.9880	43.5240
 0.9890	43.5240
 0.9900	43.4910
 0.9910	43.4760
 0.9920	43.4950
 0.9930	43.5130
 0.9940	43.5320
 0.9950	43.5500
 0.9960	43.5690
 0.9970	43.5870
 0.9980	43.6060
 0.9990	43.6240
 1.0000	43.6430
 1.0010	43.6610
 1.0020	43.6800
 1.0030	43.6980
 1.0040	43.7170
 1.0050	43.7350
 1.0060	43.7540
 1.0070	43.7720
 1.0080	43.7910
 1.0090	43.8090
 1.0100	43.8090
 1.0110	43.8170
 1.0120	43.8260
 1.0130	43.8300
 1.0140	43.8350
 1.0150	43.8450
 1.0160	43.8510
 1.0170	43.8500
 1.0180	43.8600
 1.0190	43.8670
 1.0200	43.8730
 1.0210	43.8810
 1.0220	43.8840
 1.0230	43.8860
 1.0240	43.8850
 1.0250	43.8890
 1.0260	43.8920
 1.0270	43.8990
 1.0280	43.9110
 1.0290	43.9220
 1.0300	43.9360
 1.0310	43.9450
 1.0320	43.9480
 1.0330	43.9590
 1.0340	43.9650
 1.0350	43.9630
 1.0360	43.9680
 1.0370	43.9690
 1.0380	43.9740
 1.0390	43.9790
 1.0400	43.9870
 1.0410	44.0010
 1.0420	44.0090
 1.0430	44.0170
 1.0440	44.0200
 1.0450	44.0140
 1.0460	44.0140
 1.0470	44.0160
 1.0480	44.0170
 1.0490	44.0190
 1.0500	44.0240
 1.0510	44.0290
 1.0520	44.0320
 1.0530	44.0360
 1.0540	44.0420
 1.0550	44.0480
 1.0560	44.0530
 1.0570	44.0560
 1.0580	44.0600
 1.0590	44.0660
 1.0600	44.0720
 1.0610	44.0760
 1.0620	44.0830
 1.0630	44.0870
 1.0640	44.0860
 1.0650	44.0860
 1.0660	44.0890
 1.0670	44.0900
 1.0680	44.0900
 1.0690	44.0880
 1.0700	44.0920
 1.0710	44.0980
 1.0720	44.1000
 1.0730	44.1040
 1.0740	44.1050
 1.0750	44.0970
 1.0760	44.0960
 1.0770	44.0980
 1.0780	44.0980
 1.0790	44.1010
 1.0800	44.1020
 1.0810	44.1010
 1.0820	44.1040
 1.0830	44.1150
 1.0840	44.1180
 1.0850	44.1200
 1.0860	44.1200
 1.0870	44.1150
 1.0880	44.1020
 1.0890	44.0930
 1.0900	44.0840
 1.0910	44.0760
 1.0920	44.0670
 1.0930	44.0600
 1.0940	44.0550
 1.0950	44.0490
 1.0960	44.0440
 1.0970	44.0400
 1.0980	44.0350
 1.0990	44.0320
 1.1000	44.0360
 1.1010	44.0310
 1.1020	44.0210
 1.1030	44.0110
 1.1040	44.0000
 1.1050	43.9880
 1.1060	43.9780
 1.1070	43.9720
 1.1080	43.9640
 1.1090	43.9530
 1.1100	43.9440
 1.1110	43.9370
 1.1120	43.9290
 1.1130	43.9210
 1.1140	43.9110
 1.1150	43.9010
 1.1160	43.8910
 1.1170	43.8790
 1.1180	43.8670
 1.1190	43.8550
 1.1200	43.8440
 1.1210	43.8310
 1.1220	43.8170
 1.1230	43.7990
 1.1240	43.7780
 1.1250	43.7550
 1.1260	43.7280
 1.1270	43.7000
 1.1280	43.6690
 1.1290	43.6400
 1.1300	43.6140
 1.1310	43.5800
 1.1320	43.5420
 1.1330	43.5030
 1.1340	43.4580
 1.1350	43.4110
 1.1360	43.3620
 1.1370	43.3120
 1.1380	43.2530
 1.1390	43.1920
 1.1400	43.1320
 1.1410	43.0680
 1.1420	43.0020
 1.1430	42.9350
 1.1440	42.8710
 1.1450	42.8090
 1.1460	42.7450
 1.1470	42.6820
 1.1480	42.6220
 1.1490	42.5590
 1.1500	42.5050
 1.1510	42.4580
 1.1520	42.4120
 1.1530	42.3680
 1.1540	42.3280
 1.1550	42.2900
 1.1560	42.2570
 1.1570	42.2290
 1.1580	42.2030
 1.1590	42.1780
 1.1600	42.1550
 1.1610	42.1360
 1.1620	42.1220
 1.1630	42.1130
 1.1640	42.1020
 1.1650	42.0930
 1.1660	42.0840
 1.1670	42.0770
 1.1680	42.0720
 1.1690	42.0680
 1.1700	42.0670
 1.1710	42.0620
 1.1720	42.0550
 1.1730	42.0500
 1.1740	42.0430
 1.1750	42.0380
 1.1760	42.0390
 1.1770	42.0380
 1.1780	42.0340
 1.1790	42.0300
 1.1800	42.0260
 1.1810	42.0210
 1.1820	42.0150
 1.1830	42.0070
 1.1840	41.9990
 1.1850	41.9910
 1.1860	41.9850
 1.1870	41.9830
 1.1880	41.9820
 1.1890	41.9810
 1.1900	41.9810
 1.1910	41.9840
 1.1920	41.9820
 1.1930	41.9790
 1.1940	41.9770
 1.1950	41.9720
 1.1960	41.9730
 1.1970	41.9720
 1.1980	41.9730
 1.1990	41.9780
 1.2000	41.9790
 1.2010	41.9810
 1.2020	41.9830
 1.2030	41.9850
 1.2040	41.9890
 1.2050	41.9890
 1.2060	41.9920
 1.2070	41.9950
 1.2080	41.9950
 1.2090	42.0020
 1.2100	42.0090
 1.2110	42.0170
 1.2120	42.0300
 1.2130	42.0390
 1.2140	42.0470
 1.2150	42.0550
 1.2160	42.0640
 1.2170	42.0710
 1.2180	42.0830
 1.2190	42.0930
 1.2200	42.0990
 1.2210	42.1090
 1.2220	42.1190
 1.2230	42.1290
 1.2240	42.1400
 1.2250	42.1500
 1.2260	42.1600
 1.2270	42.1690
 1.2280	42.1810
 1.2290	42.1940
 1.2300	42.2040
 1.2310	42.2150
 1.2320	42.2230
 1.2330	42.2280
 1.2340	42.2370
 1.2350	42.2480
 1.2360	42.2570
 1.2370	42.2670
 1.2380	42.2780
 1.2390	42.2830
 1.2400	42.2860
 1.2410	42.2900
 1.2420	42.2940
 1.2430	42.2980
 1.2440	42.3010
 1.2450	42.3050
 1.2460	42.3080
 1.2470	42.3130
 1.2480	42.3210
 1.2490	42.3260
 1.2500	42.3290
 1.2510	42.3370
 1.2520	42.3420
 1.2530	42.3480
 1.2540	42.3560
 1.2550	42.3590
 1.2560	42.3610
 1.2570	42.3660
 1.2580	42.3660
 1.2590	42.3670
 1.2600	42.3720
 1.2610	42.3730
 1.2620	42.3690
 1.2630	42.3670
 1.2640	42.3640
 1.2650	42.3560
 1.2660	42.3520
 1.2670	42.3460
 1.2680	42.3360
 1.2690	42.3310
 1.2700	42.3240
 1.2710	42.3190
 1.2720	42.3170
 1.2730	42.3120
 1.2740	42.3060
 1.2750	42.3010
 1.2760	42.2940
 1.2770	42.2890
 1.2780	42.2830
 1.2790	42.2730
 1.2800	42.2640
 1.2810	42.2560
 1.2820	42.2440
 1.2830	42.2320
 1.2840	42.2230
 1.2850	42.2130
 1.2860	42.2050
 1.2870	42.1960
 1.2880	42.1900
 1.2890	42.1800
 1.2900	42.1690
 1.2910	42.1600
 1.2920	42.1470
 1.2930	42.1360
 1.2940	42.1250
 1.2950	42.1090
 1.2960	42.0950
 1.2970	42.0780
 1.2980	42.0580
 1.2990	42.0330
 1.3000	42.0120
 1.3010	41.9920
 1.3020	41.9690
 1.3030	41.9450
 1.3040	41.9160
 1.3050	41.8820
 1.3060	41.8460
 1.3070	41.8080
 1.3080	41.7720
 1.3090	41.7370
 1.3100	41.7030
 1.3110	41.6690
 1.3120	41.6280
 1.3130	41.5830
 1.3140	41.5370
 1.3150	41.4880
 1.3160	41.4380
 1.3170	41.3870
 1.3180	41.3360
 1.3190	41.2830
 1.3200	41.2280
 1.3210	41.1700
 1.3220	41.1090
 1.3230	41.0450
 1.3240	40.9790
 1.3250	40.9130
 1.3260	40.8460
 1.3270	40.7780
 1.3280	40.7060
 1.3290	40.6350
 1.3300	40.5620
 1.3310	40.4890
 1.3320	40.4180
 1.3330	40.3470
 1.3340	40.2760
 1.3350	40.2030
 1.3360	40.1250
 1.3370	40.0450
 1.3380	39.9640
 1.3390	39.8840
 1.3400	39.8050
 1.3410	39.7270
 1.3420	39.6480
 1.3430	39.5680
 1.3440	39.4870
 1.3450	39.4090
 1.3460	39.3310
 1.3470	39.2570
 1.3480	39.1860
 1.3490	39.1150
 1.3500	39.0440
 1.3510	38.9740
 1.3520	38.9050
 1.3530	38.8340
 1.3540	38.7610
 1.3550	38.6900
 1.3560	38.6170
 1.3570	38.5430
 1.3580	38.4720
 1.3590	38.4010
 1.3600	38.3230
 1.3610	38.2410
 1.3620	38.1560
 1.3630	38.0680
 1.3640	37.9770
 1.3650	37.8830
 1.3660	37.7840
 1.3670	37.6770
 1.3680	37.5630
 1.3690	37.4400
 1.3700	37.3060
 1.3710	37.1610
 1.3720	37.0050
 1.3730	36.8380
 1.3740	36.6610
 1.3750	36.4730
 1.3760	36.2700
 1.3770	36.0530
 1.3780	35.8170
 1.3790	35.5630
 1.3800	35.2940
 1.3810	35.0050
 1.3820	34.6990
 1.3830	34.3780
 1.3840	34.0380
 1.3850	33.6800
 1.3860	33.3090
 1.3870	32.9190
 1.3880	32.5230
 1.3890	32.1140
 1.3900	31.6940
 1.3910	31.2700
 1.3920	30.8370
 1.3930	30.3960
 1.3940	29.9540
 1.3950	29.5040
 1.3960	29.0570
 1.3970	28.6140
 1.3980	28.1730
 1.3990	27.7460
 1.4000	27.3270
 1.4010	26.9150
 1.4020	26.5180
 1.4030	26.1280
 1.4040	25.7540
 1.4050	25.3990
 1.4060	25.0590
 1.4070	24.7430
 1.4080	24.4430
 1.4090	24.1600
 1.4100	23.8940
 1.4110	23.6410
 1.4120	23.4070
 1.4130	23.1880
 1.4140	22.9870
 1.4150	22.8050
 1.4160	22.6360
 1.4170	22.4800
 1.4180	22.3380
 1.4190	22.2070
 1.4200	22.0890
 1.4210	21.9830
 1.4220	21.8880
 1.4230	21.8020
 1.4240	21.7240
 1.4250	21.6550
 1.4260	21.5950
 1.4270	21.5400
 1.4280	21.4920
 1.4290	21.4520
 1.4300	21.4170
 1.4310	21.3890
 1.4320	21.3710
 1.4330	21.3540
 1.4340	21.3410
 1.4350	21.3300
 1.4360	21.3240
 1.4370	21.3180
 1.4380	21.3180
 1.4390	21.3200
 1.4400	21.3250
 1.4410	21.3320
 1.4420	21.3420
 1.4430	21.3560
 1.4440	21.3720
 1.4450	21.3890
 1.4460	21.4080
 1.4470	21.4280
 1.4480	21.4490
 1.4490	21.4720
 1.4500	21.4950
 1.4510	21.5170
 1.4520	21.5410
 1.4530	21.5660
 1.4540	21.5950
 1.4550	21.6270
 1.4560	21.6610
 1.4570	21.6980
 1.4580	21.7380
 1.4590	21.7810
 1.4600	21.8270
 1.4610	21.8780
 1.4620	21.9330
 1.4630	21.9940
 1.4640	22.0590
 1.4650	22.1280
 1.4660	22.2000
 1.4670	22.2790
 1.4680	22.3640
 1.4690	22.4520
 1.4700	22.5460
 1.4710	22.6450
 1.4720	22.7440
