Name: Pinus lambertiana 2
Type: vegetation
Class: Tree
Genus: Pinus
Species: lambertiana
Sample No.: VH161
Owner: UCSB
Wavelength Range: VSWIR
Origin: 37.0422; -119.3028; WGS84
Collection Date: 6/8/2013
Description: Samples were collected as part of the HyspIRI Airborne Campaign. 48 individual plants were sampled in three times in 2013 - spring  summer  and fall. The name of the sample includes a 1  2  or 3 which references a different individual of the species. Samples were taken to JPL and processed within 48 hours of collection. The same leaves were processed in the Nicolet and then measured using the ASD.
Measurement: Bidirectional reflectance
First Column: X
Second Column: Y
X Units: Wavelength (micrometers)
Y Units: Reflectance (percentage)
First X Value: 0.35
Last X Value: 2.5
Number of X Values: 2151
Additional Information: vegetation.tree.pinus.lambertiana.vswir.vh161.ucsb.asd.ancillary.txt

 0.3500	 5.1000
 0.3510	 5.1900
 0.3520	 5.1750
 0.3530	 5.1790
 0.3540	 5.2830
 0.3550	 5.1830
 0.3560	 5.1680
 0.3570	 5.1930
 0.3580	 5.0680
 0.3590	 5.0610
 0.3600	 5.0630
 0.3610	 5.0140
 0.3620	 4.9460
 0.3630	 4.9310
 0.3640	 4.9270
 0.3650	 4.8860
 0.3660	 4.9270
 0.3670	 4.9000
 0.3680	 4.8660
 0.3690	 4.9810
 0.3700	 4.9590
 0.3710	 4.8870
 0.3720	 4.8560
 0.3730	 4.8990
 0.3740	 4.9470
 0.3750	 4.9500
 0.3760	 4.8960
 0.3770	 4.8640
 0.3780	 4.9090
 0.3790	 4.9560
 0.3800	 4.8500
 0.3810	 4.8360
 0.3820	 4.8690
 0.3830	 4.8840
 0.3840	 4.9060
 0.3850	 4.8910
 0.3860	 4.8780
 0.3870	 4.9050
 0.3880	 4.8430
 0.3890	 4.8310
 0.3900	 4.8810
 0.3910	 4.8580
 0.3920	 4.8790
 0.3930	 4.8920
 0.3940	 4.8550
 0.3950	 4.8360
 0.3960	 4.8600
 0.3970	 4.9080
 0.3980	 4.9430
 0.3990	 4.9420
 0.4000	 4.9350
 0.4010	 4.9500
 0.4020	 4.9920
 0.4030	 5.0190
 0.4040	 5.0190
 0.4050	 5.0030
 0.4060	 5.0060
 0.4070	 5.0270
 0.4080	 5.0720
 0.4090	 5.1520
 0.4100	 5.1660
 0.4110	 5.1750
 0.4120	 5.2200
 0.4130	 5.2640
 0.4140	 5.3250
 0.4150	 5.3860
 0.4160	 5.4290
 0.4170	 5.4910
 0.4180	 5.5530
 0.4190	 5.6060
 0.4200	 5.6530
 0.4210	 5.7160
 0.4220	 5.7680
 0.4230	 5.8010
 0.4240	 5.8490
 0.4250	 5.9000
 0.4260	 5.9470
 0.4270	 5.9840
 0.4280	 6.0370
 0.4290	 6.0940
 0.4300	 6.1380
 0.4310	 6.1640
 0.4320	 6.1830
 0.4330	 6.2060
 0.4340	 6.2360
 0.4350	 6.2720
 0.4360	 6.2980
 0.4370	 6.3250
 0.4380	 6.3690
 0.4390	 6.3930
 0.4400	 6.4120
 0.4410	 6.4380
 0.4420	 6.4590
 0.4430	 6.4910
 0.4440	 6.5260
 0.4450	 6.5510
 0.4460	 6.5650
 0.4470	 6.5950
 0.4480	 6.6280
 0.4490	 6.6360
 0.4500	 6.6580
 0.4510	 6.6830
 0.4520	 6.7000
 0.4530	 6.7280
 0.4540	 6.7450
 0.4550	 6.7520
 0.4560	 6.7610
 0.4570	 6.7830
 0.4580	 6.7990
 0.4590	 6.8020
 0.4600	 6.8240
 0.4610	 6.8360
 0.4620	 6.8430
 0.4630	 6.8530
 0.4640	 6.8520
 0.4650	 6.8600
 0.4660	 6.8750
 0.4670	 6.8750
 0.4680	 6.8800
 0.4690	 6.8850
 0.4700	 6.8840
 0.4710	 6.8980
 0.4720	 6.9020
 0.4730	 6.8990
 0.4740	 6.9060
 0.4750	 6.9200
 0.4760	 6.9260
 0.4770	 6.9210
 0.4780	 6.9240
 0.4790	 6.9340
 0.4800	 6.9450
 0.4810	 6.9530
 0.4820	 6.9560
 0.4830	 6.9590
 0.4840	 6.9650
 0.4850	 6.9870
 0.4860	 7.0030
 0.4870	 7.0140
 0.4880	 7.0260
 0.4890	 7.0490
 0.4900	 7.0750
 0.4910	 7.1010
 0.4920	 7.1260
 0.4930	 7.1590
 0.4940	 7.1960
 0.4950	 7.2420
 0.4960	 7.2910
 0.4970	 7.3430
 0.4980	 7.4020
 0.4990	 7.4580
 0.5000	 7.5120
 0.5010	 7.5810
 0.5020	 7.6650
 0.5030	 7.7620
 0.5040	 7.8560
 0.5050	 7.9550
 0.5060	 8.0700
 0.5070	 8.2080
 0.5080	 8.3430
 0.5090	 8.4850
 0.5100	 8.6500
 0.5110	 8.8230
 0.5120	 9.0040
 0.5130	 9.1940
 0.5140	 9.4060
 0.5150	 9.6270
 0.5160	 9.8580
 0.5170	10.0980
 0.5180	10.3470
 0.5190	10.6000
 0.5200	10.8560
 0.5210	11.1130
 0.5220	11.3640
 0.5230	11.6090
 0.5240	11.8490
 0.5250	12.0850
 0.5260	12.3090
 0.5270	12.5170
 0.5280	12.7070
 0.5290	12.8890
 0.5300	13.0560
 0.5310	13.2090
 0.5320	13.3570
 0.5330	13.4850
 0.5340	13.5970
 0.5350	13.7020
 0.5360	13.7980
 0.5370	13.8840
 0.5380	13.9610
 0.5390	14.0350
 0.5400	14.0940
 0.5410	14.1460
 0.5420	14.1990
 0.5430	14.2450
 0.5440	14.3010
 0.5450	14.3630
 0.5460	14.4230
 0.5470	14.4980
 0.5480	14.5660
 0.5490	14.6170
 0.5500	14.6620
 0.5510	14.7010
 0.5520	14.7300
 0.5530	14.7440
 0.5540	14.7470
 0.5550	14.7310
 0.5560	14.6980
 0.5570	14.6560
 0.5580	14.5970
 0.5590	14.5260
 0.5600	14.4470
 0.5610	14.3620
 0.5620	14.2660
 0.5630	14.1610
 0.5640	14.0510
 0.5650	13.9370
 0.5660	13.8160
 0.5670	13.6880
 0.5680	13.5560
 0.5690	13.4140
 0.5700	13.2690
 0.5710	13.1280
 0.5720	12.9810
 0.5730	12.8410
 0.5740	12.7080
 0.5750	12.5810
 0.5760	12.4580
 0.5770	12.3440
 0.5780	12.2420
 0.5790	12.1480
 0.5800	12.0640
 0.5810	11.9830
 0.5820	11.8990
 0.5830	11.8190
 0.5840	11.7450
 0.5850	11.6790
 0.5860	11.6210
 0.5870	11.5650
 0.5880	11.5120
 0.5890	11.4650
 0.5900	11.4130
 0.5910	11.3640
 0.5920	11.3210
 0.5930	11.2840
 0.5940	11.2540
 0.5950	11.2300
 0.5960	11.2110
 0.5970	11.1950
 0.5980	11.1750
 0.5990	11.1540
 0.6000	11.1340
 0.6010	11.1050
 0.6020	11.0720
 0.6030	11.0360
 0.6040	10.9940
 0.6050	10.9440
 0.6060	10.8840
 0.6070	10.8160
 0.6080	10.7460
 0.6090	10.6660
 0.6100	10.5770
 0.6110	10.4850
 0.6120	10.4110
 0.6130	10.3440
 0.6140	10.2760
 0.6150	10.2040
 0.6160	10.1320
 0.6170	10.0650
 0.6180	10.0060
 0.6190	 9.9500
 0.6200	 9.8990
 0.6210	 9.8510
 0.6220	 9.8180
 0.6230	 9.7880
 0.6240	 9.7610
 0.6250	 9.7390
 0.6260	 9.7250
 0.6270	 9.7120
 0.6280	 9.7020
 0.6290	 9.6940
 0.6300	 9.6850
 0.6310	 9.6740
 0.6320	 9.6610
 0.6330	 9.6400
 0.6340	 9.6150
 0.6350	 9.5790
 0.6360	 9.5260
 0.6370	 9.4620
 0.6380	 9.3910
 0.6390	 9.3140
 0.6400	 9.2250
 0.6410	 9.1360
 0.6420	 9.0440
 0.6430	 8.9540
 0.6440	 8.8600
 0.6450	 8.7670
 0.6460	 8.6770
 0.6470	 8.5920
 0.6480	 8.5140
 0.6490	 8.4470
 0.6500	 8.3880
 0.6510	 8.3410
 0.6520	 8.3010
 0.6530	 8.2640
 0.6540	 8.2260
 0.6550	 8.1820
 0.6560	 8.1350
 0.6570	 8.0860
 0.6580	 8.0300
 0.6590	 7.9680
 0.6600	 7.9020
 0.6610	 7.8330
 0.6620	 7.7600
 0.6630	 7.6940
 0.6640	 7.6390
 0.6650	 7.5880
 0.6660	 7.5410
 0.6670	 7.4990
 0.6680	 7.4650
 0.6690	 7.4410
 0.6700	 7.4290
 0.6710	 7.4220
 0.6720	 7.4190
 0.6730	 7.4220
 0.6740	 7.4310
 0.6750	 7.4450
 0.6760	 7.4650
 0.6770	 7.4890
 0.6780	 7.5200
 0.6790	 7.5580
 0.6800	 7.6010
 0.6810	 7.6540
 0.6820	 7.7210
 0.6830	 7.7970
 0.6840	 7.8940
 0.6850	 8.0140
 0.6860	 8.1620
 0.6870	 8.3430
 0.6880	 8.5740
 0.6890	 8.8610
 0.6900	 9.2120
 0.6910	 9.6340
 0.6920	10.1250
 0.6930	10.6920
 0.6940	11.3340
 0.6950	12.0360
 0.6960	12.7980
 0.6970	13.6150
 0.6980	14.4760
 0.6990	15.3760
 0.7000	16.3050
 0.7010	17.2560
 0.7020	18.2240
 0.7030	19.1990
 0.7040	20.1780
 0.7050	21.1580
 0.7060	22.1320
 0.7070	23.1050
 0.7080	24.0770
 0.7090	25.0490
 0.7100	26.0190
 0.7110	26.9880
 0.7120	27.9560
 0.7130	28.9240
 0.7140	29.8930
 0.7150	30.8600
 0.7160	31.8230
 0.7170	32.7820
 0.7180	33.7370
 0.7190	34.6880
 0.7200	35.6290
 0.7210	36.5590
 0.7220	37.4780
 0.7230	38.3860
 0.7240	39.2740
 0.7250	40.1380
 0.7260	40.9820
 0.7270	41.8070
 0.7280	42.5990
 0.7290	43.3650
 0.7300	44.1030
 0.7310	44.8120
 0.7320	45.4940
 0.7330	46.1450
 0.7340	46.7650
 0.7350	47.3580
 0.7360	47.9190
 0.7370	48.4510
 0.7380	48.9570
 0.7390	49.4390
 0.7400	49.8880
 0.7410	50.3080
 0.7420	50.7100
 0.7430	51.0810
 0.7440	51.4260
 0.7450	51.7500
 0.7460	52.0550
 0.7470	52.3310
 0.7480	52.5890
 0.7490	52.8320
 0.7500	53.0480
 0.7510	53.2510
 0.7520	53.4410
 0.7530	53.6170
 0.7540	53.7810
 0.7550	53.9330
 0.7560	54.0720
 0.7570	54.2010
 0.7580	54.3170
 0.7590	54.4260
 0.7600	54.5290
 0.7610	54.6230
 0.7620	54.7120
 0.7630	54.7960
 0.7640	54.8730
 0.7650	54.9450
 0.7660	55.0130
 0.7670	55.0780
 0.7680	55.1390
 0.7690	55.1960
 0.7700	55.2520
 0.7710	55.3060
 0.7720	55.3520
 0.7730	55.4050
 0.7740	55.4560
 0.7750	55.4980
 0.7760	55.5450
 0.7770	55.5910
 0.7780	55.6360
 0.7790	55.6840
 0.7800	55.7270
 0.7810	55.7680
 0.7820	55.8100
 0.7830	55.8530
 0.7840	55.8950
 0.7850	55.9380
 0.7860	55.9780
 0.7870	56.0150
 0.7880	56.0540
 0.7890	56.0920
 0.7900	56.1290
 0.7910	56.1620
 0.7920	56.2000
 0.7930	56.2390
 0.7940	56.2700
 0.7950	56.3020
 0.7960	56.3340
 0.7970	56.3650
 0.7980	56.3910
 0.7990	56.4220
 0.8000	56.4550
 0.8010	56.4860
 0.8020	56.5090
 0.8030	56.5360
 0.8040	56.5630
 0.8050	56.5850
 0.8060	56.6080
 0.8070	56.6320
 0.8080	56.6550
 0.8090	56.6750
 0.8100	56.6990
 0.8110	56.7190
 0.8120	56.7340
 0.8130	56.7570
 0.8140	56.7790
 0.8150	56.7980
 0.8160	56.8130
 0.8170	56.8290
 0.8180	56.8500
 0.8190	56.8680
 0.8200	56.8770
 0.8210	56.8930
 0.8220	56.9110
 0.8230	56.9280
 0.8240	56.9400
 0.8250	56.9540
 0.8260	56.9660
 0.8270	56.9740
 0.8280	56.9780
 0.8290	56.9870
 0.8300	56.9990
 0.8310	57.0100
 0.8320	57.0140
 0.8330	57.0240
 0.8340	57.0360
 0.8350	57.0450
 0.8360	57.0630
 0.8370	57.0780
 0.8380	57.0920
 0.8390	57.1110
 0.8400	57.1270
 0.8410	57.1450
 0.8420	57.1660
 0.8430	57.1850
 0.8440	57.2020
 0.8450	57.2210
 0.8460	57.2420
 0.8470	57.2640
 0.8480	57.2760
 0.8490	57.2900
 0.8500	57.3180
 0.8510	57.3370
 0.8520	57.3540
 0.8530	57.3750
 0.8540	57.3990
 0.8550	57.4140
 0.8560	57.4310
 0.8570	57.4520
 0.8580	57.4660
 0.8590	57.4870
 0.8600	57.5060
 0.8610	57.5200
 0.8620	57.5410
 0.8630	57.5630
 0.8640	57.5780
 0.8650	57.5880
 0.8660	57.6030
 0.8670	57.6240
 0.8680	57.6440
 0.8690	57.6570
 0.8700	57.6770
 0.8710	57.6990
 0.8720	57.7170
 0.8730	57.7260
 0.8740	57.7410
 0.8750	57.7580
 0.8760	57.7750
 0.8770	57.7940
 0.8780	57.8110
 0.8790	57.8250
 0.8800	57.8400
 0.8810	57.8560
 0.8820	57.8730
 0.8830	57.8830
 0.8840	57.8870
 0.8850	57.9100
 0.8860	57.9240
 0.8870	57.9310
 0.8880	57.9360
 0.8890	57.9460
 0.8900	57.9540
 0.8910	57.9610
 0.8920	57.9720
 0.8930	57.9830
 0.8940	57.9890
 0.8950	57.9940
 0.8960	58.0070
 0.8970	58.0110
 0.8980	58.0240
 0.8990	58.0400
 0.9000	58.0370
 0.9010	58.0420
 0.9020	58.0490
 0.9030	58.0520
 0.9040	58.0570
 0.9050	58.0640
 0.9060	58.0720
 0.9070	58.0780
 0.9080	58.0800
 0.9090	58.0830
 0.9100	58.0870
 0.9110	58.0920
 0.9120	58.1040
 0.9130	58.1090
 0.9140	58.1110
 0.9150	58.1150
 0.9160	58.1160
 0.9170	58.1130
 0.9180	58.1140
 0.9190	58.1260
 0.9200	58.1110
 0.9210	58.0970
 0.9220	58.0960
 0.9230	58.1010
 0.9240	58.0900
 0.9250	58.0680
 0.9260	58.0460
 0.9270	58.0320
 0.9280	58.0140
 0.9290	57.9920
 0.9300	57.9650
 0.9310	57.9320
 0.9320	57.9010
 0.9330	57.8660
 0.9340	57.8250
 0.9350	57.7790
 0.9360	57.7410
 0.9370	57.7000
 0.9380	57.6500
 0.9390	57.5980
 0.9400	57.5500
 0.9410	57.4970
 0.9420	57.4350
 0.9430	57.3580
 0.9440	57.2880
 0.9450	57.2150
 0.9460	57.1300
 0.9470	57.0450
 0.9480	56.9360
 0.9490	56.8210
 0.9500	56.7130
 0.9510	56.5870
 0.9520	56.4620
 0.9530	56.3280
 0.9540	56.1800
 0.9550	56.0350
 0.9560	55.8990
 0.9570	55.7620
 0.9580	55.6210
 0.9590	55.5180
 0.9600	55.4080
 0.9610	55.3020
 0.9620	55.2210
 0.9630	55.1520
 0.9640	55.0780
 0.9650	55.0030
 0.9660	54.9370
 0.9670	54.8830
 0.9680	54.8390
 0.9690	54.8010
 0.9700	54.7620
 0.9710	54.7060
 0.9720	54.6810
 0.9730	54.6680
 0.9740	54.6340
 0.9750	54.6230
 0.9760	54.6080
 0.9770	54.5900
 0.9780	54.5860
 0.9790	54.5830
 0.9800	54.5810
 0.9810	54.5930
 0.9820	54.6260
 0.9830	54.6220
 0.9840	54.6180
 0.9850	54.6410
 0.9860	54.6980
 0.9870	54.7300
 0.9880	54.7560
 0.9890	54.7860
 0.9900	54.8250
 0.9910	54.8790
 0.9920	54.9180
 0.9930	54.9550
 0.9940	55.0150
 0.9950	55.0830
 0.9960	55.1270
 0.9970	55.1650
 0.9980	55.2230
 0.9990	55.2590
 1.0000	55.6010
 1.0010	56.1650
 1.0020	56.5090
 1.0030	56.5810
 1.0040	56.6490
 1.0050	56.7150
 1.0060	56.7870
 1.0070	56.8560
 1.0080	56.9240
 1.0090	56.9980
 1.0100	57.0670
 1.0110	57.1300
 1.0120	57.1970
 1.0130	57.2650
 1.0140	57.3350
 1.0150	57.4080
 1.0160	57.4800
 1.0170	57.5510
 1.0180	57.6230
 1.0190	57.6930
 1.0200	57.7650
 1.0210	57.8400
 1.0220	57.9150
 1.0230	57.9870
 1.0240	58.0590
 1.0250	58.1290
 1.0260	58.1930
 1.0270	58.2610
 1.0280	58.3290
 1.0290	58.3960
 1.0300	58.4660
 1.0310	58.5330
 1.0320	58.5990
 1.0330	58.6650
 1.0340	58.7270
 1.0350	58.7860
 1.0360	58.8430
 1.0370	58.8950
 1.0380	58.9520
 1.0390	59.0100
 1.0400	59.0660
 1.0410	59.1240
 1.0420	59.1810
 1.0430	59.2370
 1.0440	59.2910
 1.0450	59.3490
 1.0460	59.3990
 1.0470	59.4410
 1.0480	59.4860
 1.0490	59.5270
 1.0500	59.5680
 1.0510	59.6100
 1.0520	59.6510
 1.0530	59.6930
 1.0540	59.7350
 1.0550	59.7740
 1.0560	59.8160
 1.0570	59.8520
 1.0580	59.8830
 1.0590	59.9150
 1.0600	59.9450
 1.0610	59.9760
 1.0620	60.0070
 1.0630	60.0370
 1.0640	60.0710
 1.0650	60.0990
 1.0660	60.1270
 1.0670	60.1520
 1.0680	60.1730
 1.0690	60.1890
 1.0700	60.2070
 1.0710	60.2250
 1.0720	60.2420
 1.0730	60.2590
 1.0740	60.2750
 1.0750	60.2880
 1.0760	60.3020
 1.0770	60.3170
 1.0780	60.3270
 1.0790	60.3350
 1.0800	60.3410
 1.0810	60.3400
 1.0820	60.3420
 1.0830	60.3480
 1.0840	60.3500
 1.0850	60.3480
 1.0860	60.3480
 1.0870	60.3450
 1.0880	60.3410
 1.0890	60.3320
 1.0900	60.3210
 1.0910	60.3080
 1.0920	60.2880
 1.0930	60.2740
 1.0940	60.2640
 1.0950	60.2500
 1.0960	60.2380
 1.0970	60.2210
 1.0980	60.1980
 1.0990	60.1760
 1.1000	60.1500
 1.1010	60.1250
 1.1020	60.1020
 1.1030	60.0750
 1.1040	60.0480
 1.1050	60.0190
 1.1060	59.9910
 1.1070	59.9640
 1.1080	59.9320
 1.1090	59.9000
 1.1100	59.8640
 1.1110	59.8210
 1.1120	59.7800
 1.1130	59.7380
 1.1140	59.6920
 1.1150	59.6450
 1.1160	59.5920
 1.1170	59.5380
 1.1180	59.4740
 1.1190	59.4070
 1.1200	59.3300
 1.1210	59.2470
 1.1220	59.1540
 1.1230	59.0510
 1.1240	58.9440
 1.1250	58.8230
 1.1260	58.6940
 1.1270	58.5490
 1.1280	58.3930
 1.1290	58.2180
 1.1300	58.0280
 1.1310	57.8230
 1.1320	57.6010
 1.1330	57.3670
 1.1340	57.1200
 1.1350	56.8560
 1.1360	56.5750
 1.1370	56.2840
 1.1380	55.9800
 1.1390	55.6650
 1.1400	55.3440
 1.1410	55.0180
 1.1420	54.6870
 1.1430	54.3530
 1.1440	54.0220
 1.1450	53.6850
 1.1460	53.3640
 1.1470	53.0460
 1.1480	52.7410
 1.1490	52.4430
 1.1500	52.1630
 1.1510	51.8900
 1.1520	51.6380
 1.1530	51.4000
 1.1540	51.1810
 1.1550	50.9770
 1.1560	50.7900
 1.1570	50.6150
 1.1580	50.4580
 1.1590	50.3110
 1.1600	50.1770
 1.1610	50.0600
 1.1620	49.9540
 1.1630	49.8580
 1.1640	49.7710
 1.1650	49.6910
 1.1660	49.6190
 1.1670	49.5510
 1.1680	49.4910
 1.1690	49.4330
 1.1700	49.3790
 1.1710	49.3270
 1.1720	49.2810
 1.1730	49.2340
 1.1740	49.1890
 1.1750	49.1460
 1.1760	49.0990
 1.1770	49.0530
 1.1780	49.0020
 1.1790	48.9510
 1.1800	48.9020
 1.1810	48.8500
 1.1820	48.7990
 1.1830	48.7490
 1.1840	48.6980
 1.1850	48.6500
 1.1860	48.6010
 1.1870	48.5540
 1.1880	48.5110
 1.1890	48.4670
 1.1900	48.4280
 1.1910	48.3930
 1.1920	48.3630
 1.1930	48.3360
 1.1940	48.3140
 1.1950	48.2980
 1.1960	48.2860
 1.1970	48.2770
 1.1980	48.2710
 1.1990	48.2680
 1.2000	48.2680
 1.2010	48.2740
 1.2020	48.2850
 1.2030	48.3030
 1.2040	48.3260
 1.2050	48.3510
 1.2060	48.3810
 1.2070	48.4190
 1.2080	48.4580
 1.2090	48.5010
 1.2100	48.5480
 1.2110	48.5990
 1.2120	48.6510
 1.2130	48.7080
 1.2140	48.7710
 1.2150	48.8370
 1.2160	48.9060
 1.2170	48.9750
 1.2180	49.0480
 1.2190	49.1230
 1.2200	49.1990
 1.2210	49.2790
 1.2220	49.3600
 1.2230	49.4410
 1.2240	49.5200
 1.2250	49.5970
 1.2260	49.6740
 1.2270	49.7510
 1.2280	49.8290
 1.2290	49.9070
 1.2300	49.9810
 1.2310	50.0530
 1.2320	50.1220
 1.2330	50.1870
 1.2340	50.2520
 1.2350	50.3170
 1.2360	50.3800
 1.2370	50.4390
 1.2380	50.5010
 1.2390	50.5620
 1.2400	50.6220
 1.2410	50.6820
 1.2420	50.7380
 1.2430	50.7900
 1.2440	50.8420
 1.2450	50.8920
 1.2460	50.9430
 1.2470	50.9920
 1.2480	51.0360
 1.2490	51.0770
 1.2500	51.1190
 1.2510	51.1570
 1.2520	51.1990
 1.2530	51.2400
 1.2540	51.2750
 1.2550	51.3060
 1.2560	51.3360
 1.2570	51.3650
 1.2580	51.3930
 1.2590	51.4180
 1.2600	51.4410
 1.2610	51.4620
 1.2620	51.4790
 1.2630	51.4950
 1.2640	51.5140
 1.2650	51.5300
 1.2660	51.5460
 1.2670	51.5590
 1.2680	51.5690
 1.2690	51.5760
 1.2700	51.5780
 1.2710	51.5790
 1.2720	51.5770
 1.2730	51.5740
 1.2740	51.5700
 1.2750	51.5640
 1.2760	51.5560
 1.2770	51.5450
 1.2780	51.5320
 1.2790	51.5180
 1.2800	51.4980
 1.2810	51.4760
 1.2820	51.4510
 1.2830	51.4210
 1.2840	51.3880
 1.2850	51.3540
 1.2860	51.3150
 1.2870	51.2710
 1.2880	51.2240
 1.2890	51.1720
 1.2900	51.1130
 1.2910	51.0510
 1.2920	50.9870
 1.2930	50.9170
 1.2940	50.8410
 1.2950	50.7620
 1.2960	50.6760
 1.2970	50.5850
 1.2980	50.4920
 1.2990	50.3930
 1.3000	50.2890
 1.3010	50.1810
 1.3020	50.0660
 1.3030	49.9430
 1.3040	49.8150
 1.3050	49.6810
 1.3060	49.5410
 1.3070	49.3960
 1.3080	49.2470
 1.3090	49.0920
 1.3100	48.9320
 1.3110	48.7650
 1.3120	48.5910
 1.3130	48.4150
 1.3140	48.2330
 1.3150	48.0460
 1.3160	47.8520
 1.3170	47.6540
 1.3180	47.4480
 1.3190	47.2360
 1.3200	47.0210
 1.3210	46.7990
 1.3220	46.5710
 1.3230	46.3410
 1.3240	46.1030
 1.3250	45.8650
 1.3260	45.6250
 1.3270	45.3790
 1.3280	45.1330
 1.3290	44.8830
 1.3300	44.6310
 1.3310	44.3790
 1.3320	44.1230
 1.3330	43.8700
 1.3340	43.6150
 1.3350	43.3590
 1.3360	43.1040
 1.3370	42.8480
 1.3380	42.5970
 1.3390	42.3500
 1.3400	42.1050
 1.3410	41.8640
 1.3420	41.6230
 1.3430	41.3850
 1.3440	41.1510
 1.3450	40.9220
 1.3460	40.6970
 1.3470	40.4770
 1.3480	40.2600
 1.3490	40.0490
 1.3500	39.8430
 1.3510	39.6380
 1.3520	39.4350
 1.3530	39.2350
 1.3540	39.0350
 1.3550	38.8380
 1.3560	38.6420
 1.3570	38.4450
 1.3580	38.2490
 1.3590	38.0500
 1.3600	37.8490
 1.3610	37.6440
 1.3620	37.4320
 1.3630	37.2160
 1.3640	36.9940
 1.3650	36.7650
 1.3660	36.5300
 1.3670	36.2870
 1.3680	36.0300
 1.3690	35.7640
 1.3700	35.4800
 1.3710	35.1860
 1.3720	34.8780
 1.3730	34.5490
 1.3740	34.2080
 1.3750	33.8450
 1.3760	33.4580
 1.3770	33.0520
 1.3780	32.6190
 1.3790	32.1670
 1.3800	31.6940
 1.3810	31.1960
 1.3820	30.6850
 1.3830	30.1570
 1.3840	29.6140
 1.3850	29.0520
 1.3860	28.4850
 1.3870	27.9000
 1.3880	27.3190
 1.3890	26.7310
 1.3900	26.1410
 1.3910	25.5600
 1.3920	24.9790
 1.3930	24.4000
 1.3940	23.8330
 1.3950	23.2680
 1.3960	22.7170
 1.3970	22.1830
 1.3980	21.6630
 1.3990	21.1700
 1.4000	20.6940
 1.4010	20.2330
 1.4020	19.7950
 1.4030	19.3720
 1.4040	18.9700
 1.4050	18.5920
 1.4060	18.2330
 1.4070	17.8970
 1.4080	17.5800
 1.4090	17.2790
 1.4100	16.9990
 1.4110	16.7340
 1.4120	16.4860
 1.4130	16.2550
 1.4140	16.0390
 1.4150	15.8410
 1.4160	15.6560
 1.4170	15.4820
 1.4180	15.3230
 1.4190	15.1730
 1.4200	15.0330
 1.4210	14.9050
 1.4220	14.7840
 1.4230	14.6740
 1.4240	14.5730
 1.4250	14.4790
 1.4260	14.3930
 1.4270	14.3130
 1.4280	14.2400
 1.4290	14.1730
 1.4300	14.1120
 1.4310	14.0570
 1.4320	14.0070
 1.4330	13.9610
 1.4340	13.9210
 1.4350	13.8840
 1.4360	13.8530
 1.4370	13.8260
 1.4380	13.8020
 1.4390	13.7820
 1.4400	13.7650
 1.4410	13.7500
 1.4420	13.7380
 1.4430	13.7290
 1.4440	13.7220
 1.4450	13.7180
 1.4460	13.7160
 1.4470	13.7150
 1.4480	13.7160
 1.4490	13.7180
 1.4500	13.7210
 1.4510	13.7270
 1.4520	13.7340
 1.4530	13.7420
 1.4540	13.7520
 1.4550	13.7650
 1.4560	13.7780
 1.4570	13.7930
 1.4580	13.8110
 1.4590	13.8310
 1.4600	13.8540
 1.4610	13.8790
 1.4620	13.9070
 1.4630	13.9380
 1.4640	13.9730
 1.4650	14.0110
 1.4660	14.0520
 1.4670	14.0970
 1.4680	14.1440
 1.4690	14.1960
 1.4700	14.2510
