Name: Calodendrum capense
Type: vegetation
Class: Tree
Genus: Calodendrum
Species: capense
Sample No.: JPL123
Owner: JPL
Wavelength Range: VSWIR
Origin: 34.12568; -118.11443;; WGS84
Collection Date: 9/7/2016
Description: Samples were collected at the Huntington Garden in San Marino California as part of a JPL Subcontract studying HyTES imagery. Samples were taken to JPL and processed within 48 hours of collection. The same leaves were processed in the Nicolet and then measured using the ASD.
Measurement: Bidirectional reflectance
First Column: X
Second Column: Y
X Units: Wavelength (micrometer)
Y Units: Reflectance (percentage)
First X Value: 0.35
Last X Value: 2.5
Number of X Values: 2151
Additional Information: vegetation.tree.calodendrum.capense.vswir.jpl123.jpl.asd.ancillary.txt

 0.3500	 6.8070
 0.3510	 6.7960
 0.3520	 6.7800
 0.3530	 6.8120
 0.3540	 6.8780
 0.3550	 6.7660
 0.3560	 6.6690
 0.3570	 6.6420
 0.3580	 6.6590
 0.3590	 6.7040
 0.3600	 6.7000
 0.3610	 6.6650
 0.3620	 6.7500
 0.3630	 6.7210
 0.3640	 6.6470
 0.3650	 6.6320
 0.3660	 6.5930
 0.3670	 6.5890
 0.3680	 6.6000
 0.3690	 6.5630
 0.3700	 6.5350
 0.3710	 6.5590
 0.3720	 6.6220
 0.3730	 6.6020
 0.3740	 6.5900
 0.3750	 6.5760
 0.3760	 6.5360
 0.3770	 6.5070
 0.3780	 6.5030
 0.3790	 6.5180
 0.3800	 6.5250
 0.3810	 6.5280
 0.3820	 6.5190
 0.3830	 6.5070
 0.3840	 6.5580
 0.3850	 6.5450
 0.3860	 6.5170
 0.3870	 6.5590
 0.3880	 6.5430
 0.3890	 6.5290
 0.3900	 6.5290
 0.3910	 6.4930
 0.3920	 6.4880
 0.3930	 6.5000
 0.3940	 6.5060
 0.3950	 6.4910
 0.3960	 6.5020
 0.3970	 6.5160
 0.3980	 6.4840
 0.3990	 6.4680
 0.4000	 6.4760
 0.4010	 6.4960
 0.4020	 6.4980
 0.4030	 6.5050
 0.4040	 6.5070
 0.4050	 6.4970
 0.4060	 6.5030
 0.4070	 6.5070
 0.4080	 6.5190
 0.4090	 6.5610
 0.4100	 6.5600
 0.4110	 6.5520
 0.4120	 6.5610
 0.4130	 6.5670
 0.4140	 6.5680
 0.4150	 6.5700
 0.4160	 6.5790
 0.4170	 6.5970
 0.4180	 6.6150
 0.4190	 6.6280
 0.4200	 6.6410
 0.4210	 6.6380
 0.4220	 6.6380
 0.4230	 6.6540
 0.4240	 6.6640
 0.4250	 6.6780
 0.4260	 6.6890
 0.4270	 6.6870
 0.4280	 6.6930
 0.4290	 6.6940
 0.4300	 6.6890
 0.4310	 6.6900
 0.4320	 6.6870
 0.4330	 6.6760
 0.4340	 6.6600
 0.4350	 6.6570
 0.4360	 6.6620
 0.4370	 6.6750
 0.4380	 6.7000
 0.4390	 6.7330
 0.4400	 6.7630
 0.4410	 6.7820
 0.4420	 6.8000
 0.4430	 6.8130
 0.4440	 6.8230
 0.4450	 6.8290
 0.4460	 6.8400
 0.4470	 6.8500
 0.4480	 6.8580
 0.4490	 6.8700
 0.4500	 6.8760
 0.4510	 6.8830
 0.4520	 6.8960
 0.4530	 6.9010
 0.4540	 6.9050
 0.4550	 6.9120
 0.4560	 6.9200
 0.4570	 6.9280
 0.4580	 6.9330
 0.4590	 6.9350
 0.4600	 6.9400
 0.4610	 6.9420
 0.4620	 6.9410
 0.4630	 6.9440
 0.4640	 6.9490
 0.4650	 6.9530
 0.4660	 6.9570
 0.4670	 6.9610
 0.4680	 6.9620
 0.4690	 6.9650
 0.4700	 6.9730
 0.4710	 6.9800
 0.4720	 6.9840
 0.4730	 6.9850
 0.4740	 6.9820
 0.4750	 6.9830
 0.4760	 6.9870
 0.4770	 6.9910
 0.4780	 6.9940
 0.4790	 7.0000
 0.4800	 7.0030
 0.4810	 6.9980
 0.4820	 6.9930
 0.4830	 6.9880
 0.4840	 6.9840
 0.4850	 6.9750
 0.4860	 6.9750
 0.4870	 6.9790
 0.4880	 6.9820
 0.4890	 6.9890
 0.4900	 7.0030
 0.4910	 7.0190
 0.4920	 7.0330
 0.4930	 7.0480
 0.4940	 7.0640
 0.4950	 7.0840
 0.4960	 7.1100
 0.4970	 7.1330
 0.4980	 7.1520
 0.4990	 7.1730
 0.5000	 7.2030
 0.5010	 7.2320
 0.5020	 7.2600
 0.5030	 7.2930
 0.5040	 7.3290
 0.5050	 7.3670
 0.5060	 7.4050
 0.5070	 7.4480
 0.5080	 7.4980
 0.5090	 7.5520
 0.5100	 7.6090
 0.5110	 7.6760
 0.5120	 7.7490
 0.5130	 7.8260
 0.5140	 7.9140
 0.5150	 8.0090
 0.5160	 8.1130
 0.5170	 8.2260
 0.5180	 8.3480
 0.5190	 8.4780
 0.5200	 8.6130
 0.5210	 8.7510
 0.5220	 8.8980
 0.5230	 9.0500
 0.5240	 9.2040
 0.5250	 9.3530
 0.5260	 9.5000
 0.5270	 9.6440
 0.5280	 9.7820
 0.5290	 9.9120
 0.5300	10.0390
 0.5310	10.1590
 0.5320	10.2570
 0.5330	10.3510
 0.5340	10.4410
 0.5350	10.5210
 0.5360	10.5890
 0.5370	10.6460
 0.5380	10.6910
 0.5390	10.7260
 0.5400	10.7410
 0.5410	10.7380
 0.5420	10.7300
 0.5430	10.7320
 0.5440	10.7540
 0.5450	10.7970
 0.5460	10.8560
 0.5470	10.9250
 0.5480	10.9890
 0.5490	11.0360
 0.5500	11.0610
 0.5510	11.0830
 0.5520	11.0990
 0.5530	11.1030
 0.5540	11.1030
 0.5550	11.0880
 0.5560	11.0590
 0.5570	11.0210
 0.5580	10.9670
 0.5590	10.9020
 0.5600	10.8290
 0.5610	10.7480
 0.5620	10.6620
 0.5630	10.5700
 0.5640	10.4730
 0.5650	10.3690
 0.5660	10.2600
 0.5670	10.1500
 0.5680	10.0440
 0.5690	 9.9390
 0.5700	 9.8330
 0.5710	 9.7300
 0.5720	 9.6330
 0.5730	 9.5440
 0.5740	 9.4660
 0.5750	 9.4000
 0.5760	 9.3340
 0.5770	 9.2680
 0.5780	 9.2030
 0.5790	 9.1410
 0.5800	 9.0900
 0.5810	 9.0460
 0.5820	 9.0040
 0.5830	 8.9570
 0.5840	 8.9090
 0.5850	 8.8610
 0.5860	 8.8070
 0.5870	 8.7580
 0.5880	 8.7210
 0.5890	 8.7000
 0.5900	 8.6900
 0.5910	 8.6810
 0.5920	 8.6670
 0.5930	 8.6490
 0.5940	 8.6410
 0.5950	 8.6360
 0.5960	 8.6310
 0.5970	 8.6270
 0.5980	 8.6200
 0.5990	 8.6080
 0.6000	 8.5930
 0.6010	 8.5800
 0.6020	 8.5620
 0.6030	 8.5390
 0.6040	 8.5170
 0.6050	 8.4860
 0.6060	 8.4540
 0.6070	 8.4230
 0.6080	 8.3830
 0.6090	 8.3200
 0.6100	 8.2340
 0.6110	 8.1360
 0.6120	 8.1020
 0.6130	 8.1030
 0.6140	 8.1060
 0.6150	 8.0910
 0.6160	 8.0690
 0.6170	 8.0450
 0.6180	 8.0190
 0.6190	 7.9920
 0.6200	 7.9680
 0.6210	 7.9470
 0.6220	 7.9320
 0.6230	 7.9200
 0.6240	 7.9100
 0.6250	 7.9020
 0.6260	 7.8950
 0.6270	 7.8890
 0.6280	 7.8830
 0.6290	 7.8750
 0.6300	 7.8650
 0.6310	 7.8590
 0.6320	 7.8580
 0.6330	 7.8550
 0.6340	 7.8470
 0.6350	 7.8330
 0.6360	 7.8130
 0.6370	 7.7930
 0.6380	 7.7680
 0.6390	 7.7380
 0.6400	 7.7090
 0.6410	 7.6790
 0.6420	 7.6480
 0.6430	 7.6170
 0.6440	 7.5880
 0.6450	 7.5590
 0.6460	 7.5330
 0.6470	 7.5090
 0.6480	 7.4880
 0.6490	 7.4690
 0.6500	 7.4540
 0.6510	 7.4440
 0.6520	 7.4370
 0.6530	 7.4290
 0.6540	 7.4200
 0.6550	 7.4110
 0.6560	 7.4040
 0.6570	 7.3960
 0.6580	 7.3810
 0.6590	 7.3660
 0.6600	 7.3520
 0.6610	 7.3390
 0.6620	 7.3230
 0.6630	 7.3080
 0.6640	 7.2970
 0.6650	 7.2890
 0.6660	 7.2820
 0.6670	 7.2770
 0.6680	 7.2740
 0.6690	 7.2750
 0.6700	 7.2770
 0.6710	 7.2830
 0.6720	 7.2920
 0.6730	 7.3040
 0.6740	 7.3170
 0.6750	 7.3330
 0.6760	 7.3490
 0.6770	 7.3680
 0.6780	 7.3880
 0.6790	 7.4110
 0.6800	 7.4390
 0.6810	 7.4680
 0.6820	 7.5020
 0.6830	 7.5420
 0.6840	 7.5860
 0.6850	 7.6340
 0.6860	 7.6850
 0.6870	 7.7440
 0.6880	 7.8140
 0.6890	 7.9000
 0.6900	 8.0050
 0.6910	 8.1320
 0.6920	 8.2900
 0.6930	 8.4820
 0.6940	 8.7150
 0.6950	 9.0010
 0.6960	 9.3420
 0.6970	 9.7410
 0.6980	10.1990
 0.6990	10.7210
 0.7000	11.3030
 0.7010	11.9390
 0.7020	12.6240
 0.7030	13.3510
 0.7040	14.1150
 0.7050	14.9110
 0.7060	15.7340
 0.7070	16.5780
 0.7080	17.4430
 0.7090	18.3300
 0.7100	19.2340
 0.7110	20.1530
 0.7120	21.0840
 0.7130	22.0270
 0.7140	22.9810
 0.7150	23.9410
 0.7160	24.9030
 0.7170	25.8700
 0.7180	26.8340
 0.7190	27.7950
 0.7200	28.7510
 0.7210	29.7000
 0.7220	30.6370
 0.7230	31.5580
 0.7240	32.4600
 0.7250	33.3390
 0.7260	34.1950
 0.7270	35.0270
 0.7280	35.8260
 0.7290	36.5960
 0.7300	37.3350
 0.7310	38.0410
 0.7320	38.7150
 0.7330	39.3570
 0.7340	39.9680
 0.7350	40.5450
 0.7360	41.0920
 0.7370	41.6090
 0.7380	42.0940
 0.7390	42.5490
 0.7400	42.9770
 0.7410	43.3780
 0.7420	43.7520
 0.7430	44.0990
 0.7440	44.4230
 0.7450	44.7240
 0.7460	45.0000
 0.7470	45.2520
 0.7480	45.4860
 0.7490	45.7040
 0.7500	45.9040
 0.7510	46.0860
 0.7520	46.2530
 0.7530	46.4100
 0.7540	46.5490
 0.7550	46.6760
 0.7560	46.7930
 0.7570	46.8990
 0.7580	46.9940
 0.7590	47.0820
 0.7600	47.1650
 0.7610	47.2380
 0.7620	47.3040
 0.7630	47.3660
 0.7640	47.4240
 0.7650	47.4770
 0.7660	47.5270
 0.7670	47.5720
 0.7680	47.6080
 0.7690	47.6440
 0.7700	47.6770
 0.7710	47.7070
 0.7720	47.7330
 0.7730	47.7580
 0.7740	47.7820
 0.7750	47.8040
 0.7760	47.8260
 0.7770	47.8460
 0.7780	47.8640
 0.7790	47.8830
 0.7800	47.8990
 0.7810	47.9140
 0.7820	47.9260
 0.7830	47.9390
 0.7840	47.9510
 0.7850	47.9630
 0.7860	47.9710
 0.7870	47.9760
 0.7880	47.9830
 0.7890	47.9890
 0.7900	47.9910
 0.7910	47.9970
 0.7920	48.0020
 0.7930	48.0060
 0.7940	48.0080
 0.7950	48.0050
 0.7960	48.0000
 0.7970	47.9960
 0.7980	47.9940
 0.7990	47.9880
 0.8000	47.9810
 0.8010	47.9770
 0.8020	47.9740
 0.8030	47.9680
 0.8040	47.9590
 0.8050	47.9520
 0.8060	47.9450
 0.8070	47.9340
 0.8080	47.9200
 0.8090	47.9070
 0.8100	47.8930
 0.8110	47.8790
 0.8120	47.8670
 0.8130	47.8530
 0.8140	47.8430
 0.8150	47.8310
 0.8160	47.8130
 0.8170	47.8010
 0.8180	47.7880
 0.8190	47.7750
 0.8200	47.7620
 0.8210	47.7500
 0.8220	47.7360
 0.8230	47.7210
 0.8240	47.7040
 0.8250	47.6850
 0.8260	47.6680
 0.8270	47.6520
 0.8280	47.6370
 0.8290	47.6230
 0.8300	47.6110
 0.8310	47.6010
 0.8320	47.5900
 0.8330	47.5780
 0.8340	47.5650
 0.8350	47.5510
 0.8360	47.5430
 0.8370	47.5350
 0.8380	47.5260
 0.8390	47.5150
 0.8400	47.5070
 0.8410	47.5020
 0.8420	47.4980
 0.8430	47.4920
 0.8440	47.4880
 0.8450	47.4840
 0.8460	47.4790
 0.8470	47.4770
 0.8480	47.4770
 0.8490	47.4760
 0.8500	47.4710
 0.8510	47.4730
 0.8520	47.4760
 0.8530	47.4770
 0.8540	47.4800
 0.8550	47.4800
 0.8560	47.4800
 0.8570	47.4810
 0.8580	47.4820
 0.8590	47.4880
 0.8600	47.4960
 0.8610	47.5050
 0.8620	47.5130
 0.8630	47.5170
 0.8640	47.5210
 0.8650	47.5300
 0.8660	47.5420
 0.8670	47.5490
 0.8680	47.5550
 0.8690	47.5620
 0.8700	47.5730
 0.8710	47.5830
 0.8720	47.5920
 0.8730	47.6030
 0.8740	47.6160
 0.8750	47.6270
 0.8760	47.6350
 0.8770	47.6450
 0.8780	47.6610
 0.8790	47.6780
 0.8800	47.6930
 0.8810	47.7070
 0.8820	47.7200
 0.8830	47.7330
 0.8840	47.7470
 0.8850	47.7560
 0.8860	47.7670
 0.8870	47.7810
 0.8880	47.7950
 0.8890	47.8060
 0.8900	47.8180
 0.8910	47.8310
 0.8920	47.8450
 0.8930	47.8590
 0.8940	47.8740
 0.8950	47.8900
 0.8960	47.9060
 0.8970	47.9160
 0.8980	47.9260
 0.8990	47.9380
 0.9000	47.9540
 0.9010	47.9650
 0.9020	47.9770
 0.9030	47.9910
 0.9040	48.0060
 0.9050	48.0160
 0.9060	48.0250
 0.9070	48.0370
 0.9080	48.0460
 0.9090	48.0590
 0.9100	48.0700
 0.9110	48.0750
 0.9120	48.0820
 0.9130	48.0890
 0.9140	48.0970
 0.9150	48.1050
 0.9160	48.1110
 0.9170	48.1160
 0.9180	48.1160
 0.9190	48.1090
 0.9200	48.1130
 0.9210	48.1160
 0.9220	48.1150
 0.9230	48.1120
 0.9240	48.1090
 0.9250	48.1050
 0.9260	48.0980
 0.9270	48.0860
 0.9280	48.0790
 0.9290	48.0710
 0.9300	48.0600
 0.9310	48.0430
 0.9320	48.0280
 0.9330	48.0110
 0.9340	47.9920
 0.9350	47.9800
 0.9360	47.9620
 0.9370	47.9410
 0.9380	47.9190
 0.9390	47.8970
 0.9400	47.8710
 0.9410	47.8430
 0.9420	47.8160
 0.9430	47.7900
 0.9440	47.7600
 0.9450	47.7250
 0.9460	47.6870
 0.9470	47.6500
 0.9480	47.6120
 0.9490	47.5710
 0.9500	47.5280
 0.9510	47.4760
 0.9520	47.4250
 0.9530	47.3760
 0.9540	47.3250
 0.9550	47.2620
 0.9560	47.2110
 0.9570	47.1660
 0.9580	47.1180
 0.9590	47.0800
 0.9600	47.0400
 0.9610	47.0010
 0.9620	46.9720
 0.9630	46.9460
 0.9640	46.9130
 0.9650	46.8800
 0.9660	46.8610
 0.9670	46.8410
 0.9680	46.8270
 0.9690	46.8180
 0.9700	46.8100
 0.9710	46.8060
 0.9720	46.7920
 0.9730	46.7730
 0.9740	46.7640
 0.9750	46.7620
 0.9760	46.7620
 0.9770	46.7600
 0.9780	46.7550
 0.9790	46.7510
 0.9800	46.7500
 0.9810	46.7520
 0.9820	46.7550
 0.9830	46.7520
 0.9840	46.7560
 0.9850	46.7710
 0.9860	46.7930
 0.9870	46.7940
 0.9880	46.7960
 0.9890	46.8040
 0.9900	46.8110
 0.9910	46.8110
 0.9920	46.8270
 0.9930	46.8510
 0.9940	46.8630
 0.9950	46.8660
 0.9960	46.8750
 0.9970	46.8880
 0.9980	46.8940
 0.9990	46.8950
 1.0000	46.9120
 1.0010	48.6200
 1.0020	48.6300
 1.0030	48.6410
 1.0040	48.6530
 1.0050	48.6660
 1.0060	48.6800
 1.0070	48.6920
 1.0080	48.7030
 1.0090	48.7160
 1.0100	48.7280
 1.0110	48.7370
 1.0120	48.7500
 1.0130	48.7680
 1.0140	48.7810
 1.0150	48.7910
 1.0160	48.8030
 1.0170	48.8140
 1.0180	48.8270
 1.0190	48.8390
 1.0200	48.8540
 1.0210	48.8730
 1.0220	48.8880
 1.0230	48.9040
 1.0240	48.9230
 1.0250	48.9370
 1.0260	48.9470
 1.0270	48.9580
 1.0280	48.9670
 1.0290	48.9790
 1.0300	48.9920
 1.0310	49.0060
 1.0320	49.0200
 1.0330	49.0360
 1.0340	49.0520
 1.0350	49.0650
 1.0360	49.0780
 1.0370	49.0900
 1.0380	49.1020
 1.0390	49.1120
 1.0400	49.1240
 1.0410	49.1370
 1.0420	49.1490
 1.0430	49.1600
 1.0440	49.1720
 1.0450	49.1850
 1.0460	49.1950
 1.0470	49.2040
 1.0480	49.2120
 1.0490	49.2140
 1.0500	49.2210
 1.0510	49.2310
 1.0520	49.2420
 1.0530	49.2490
 1.0540	49.2570
 1.0550	49.2630
 1.0560	49.2630
 1.0570	49.2660
 1.0580	49.2700
 1.0590	49.2730
 1.0600	49.2740
 1.0610	49.2770
 1.0620	49.2810
 1.0630	49.2830
 1.0640	49.2840
 1.0650	49.2830
 1.0660	49.2750
 1.0670	49.2710
 1.0680	49.2670
 1.0690	49.2620
 1.0700	49.2590
 1.0710	49.2590
 1.0720	49.2580
 1.0730	49.2580
 1.0740	49.2550
 1.0750	49.2500
 1.0760	49.2450
 1.0770	49.2360
 1.0780	49.2290
 1.0790	49.2240
 1.0800	49.2170
 1.0810	49.2090
 1.0820	49.2020
 1.0830	49.1930
 1.0840	49.1860
 1.0850	49.1800
 1.0860	49.1750
 1.0870	49.1690
 1.0880	49.1660
 1.0890	49.1580
 1.0900	49.1460
 1.0910	49.1380
 1.0920	49.1280
 1.0930	49.1200
 1.0940	49.1160
 1.0950	49.1090
 1.0960	49.1010
 1.0970	49.0940
 1.0980	49.0870
 1.0990	49.0790
 1.1000	49.0670
 1.1010	49.0580
 1.1020	49.0480
 1.1030	49.0400
 1.1040	49.0350
 1.1050	49.0300
 1.1060	49.0220
 1.1070	49.0110
 1.1080	49.0020
 1.1090	48.9900
 1.1100	48.9820
 1.1110	48.9780
 1.1120	48.9710
 1.1130	48.9630
 1.1140	48.9530
 1.1150	48.9380
 1.1160	48.9260
 1.1170	48.9150
 1.1180	48.8990
 1.1190	48.8840
 1.1200	48.8670
 1.1210	48.8440
 1.1220	48.8190
 1.1230	48.7950
 1.1240	48.7690
 1.1250	48.7380
 1.1260	48.7090
 1.1270	48.6690
 1.1280	48.6240
 1.1290	48.5730
 1.1300	48.5160
 1.1310	48.4530
 1.1320	48.3850
 1.1330	48.3110
 1.1340	48.2310
 1.1350	48.1440
 1.1360	48.0500
 1.1370	47.9520
 1.1380	47.8480
 1.1390	47.7380
 1.1400	47.6240
 1.1410	47.5110
 1.1420	47.3930
 1.1430	47.2750
 1.1440	47.1580
 1.1450	47.0400
 1.1460	46.9250
 1.1470	46.8090
 1.1480	46.6990
 1.1490	46.5900
 1.1500	46.4890
 1.1510	46.3940
 1.1520	46.3050
 1.1530	46.2240
 1.1540	46.1480
 1.1550	46.0770
 1.1560	46.0120
 1.1570	45.9510
 1.1580	45.8970
 1.1590	45.8510
 1.1600	45.8090
 1.1610	45.7720
 1.1620	45.7390
 1.1630	45.7090
 1.1640	45.6830
 1.1650	45.6580
 1.1660	45.6360
 1.1670	45.6160
 1.1680	45.5990
 1.1690	45.5830
 1.1700	45.5680
 1.1710	45.5550
 1.1720	45.5440
 1.1730	45.5310
 1.1740	45.5180
 1.1750	45.5050
 1.1760	45.4900
 1.1770	45.4760
 1.1780	45.4600
 1.1790	45.4440
 1.1800	45.4290
 1.1810	45.4130
 1.1820	45.3980
 1.1830	45.3820
 1.1840	45.3670
 1.1850	45.3500
 1.1860	45.3350
 1.1870	45.3220
 1.1880	45.3100
 1.1890	45.3000
 1.1900	45.2900
 1.1910	45.2790
 1.1920	45.2690
 1.1930	45.2590
 1.1940	45.2510
 1.1950	45.2450
 1.1960	45.2400
 1.1970	45.2360
 1.1980	45.2320
 1.1990	45.2300
 1.2000	45.2300
 1.2010	45.2330
 1.2020	45.2380
 1.2030	45.2430
 1.2040	45.2510
 1.2050	45.2610
 1.2060	45.2730
 1.2070	45.2860
 1.2080	45.3000
 1.2090	45.3130
 1.2100	45.3270
 1.2110	45.3420
 1.2120	45.3580
 1.2130	45.3750
 1.2140	45.3940
 1.2150	45.4120
 1.2160	45.4320
 1.2170	45.4510
 1.2180	45.4710
 1.2190	45.4910
 1.2200	45.5100
 1.2210	45.5310
 1.2220	45.5510
 1.2230	45.5710
 1.2240	45.5920
 1.2250	45.6110
 1.2260	45.6300
 1.2270	45.6490
 1.2280	45.6670
 1.2290	45.6840
 1.2300	45.7010
 1.2310	45.7170
 1.2320	45.7330
 1.2330	45.7490
 1.2340	45.7640
 1.2350	45.7760
 1.2360	45.7890
 1.2370	45.8020
 1.2380	45.8130
 1.2390	45.8250
 1.2400	45.8370
 1.2410	45.8470
 1.2420	45.8600
 1.2430	45.8710
 1.2440	45.8820
 1.2450	45.8920
 1.2460	45.9010
 1.2470	45.9090
 1.2480	45.9160
 1.2490	45.9230
 1.2500	45.9290
 1.2510	45.9330
 1.2520	45.9380
 1.2530	45.9420
 1.2540	45.9450
 1.2550	45.9510
 1.2560	45.9550
 1.2570	45.9580
 1.2580	45.9600
 1.2590	45.9600
 1.2600	45.9590
 1.2610	45.9570
 1.2620	45.9550
 1.2630	45.9530
 1.2640	45.9490
 1.2650	45.9450
 1.2660	45.9410
 1.2670	45.9370
 1.2680	45.9320
 1.2690	45.9280
 1.2700	45.9250
 1.2710	45.9190
 1.2720	45.9120
 1.2730	45.9020
 1.2740	45.8900
 1.2750	45.8790
 1.2760	45.8670
 1.2770	45.8560
 1.2780	45.8420
 1.2790	45.8260
 1.2800	45.8080
 1.2810	45.7900
 1.2820	45.7700
 1.2830	45.7480
 1.2840	45.7250
 1.2850	45.6990
 1.2860	45.6710
 1.2870	45.6400
 1.2880	45.6090
 1.2890	45.5720
 1.2900	45.5340
 1.2910	45.4940
 1.2920	45.4510
 1.2930	45.4060
 1.2940	45.3590
 1.2950	45.3110
 1.2960	45.2620
 1.2970	45.2110
 1.2980	45.1580
 1.2990	45.1010
 1.3000	45.0390
 1.3010	44.9790
 1.3020	44.9160
 1.3030	44.8510
 1.3040	44.7860
 1.3050	44.7180
 1.3060	44.6500
 1.3070	44.5780
 1.3080	44.5040
 1.3090	44.4300
 1.3100	44.3530
 1.3110	44.2750
 1.3120	44.1970
 1.3130	44.1160
 1.3140	44.0320
 1.3150	43.9450
 1.3160	43.8580
 1.3170	43.7710
 1.3180	43.6800
 1.3190	43.5880
 1.3200	43.4960
 1.3210	43.4000
 1.3220	43.3020
 1.3230	43.2050
 1.3240	43.1070
 1.3250	43.0050
 1.3260	42.9030
 1.3270	42.7990
 1.3280	42.6930
 1.3290	42.5860
 1.3300	42.4780
 1.3310	42.3680
 1.3320	42.2570
 1.3330	42.1480
 1.3340	42.0370
 1.3350	41.9240
 1.3360	41.8120
 1.3370	41.6990
 1.3380	41.5850
 1.3390	41.4740
 1.3400	41.3610
 1.3410	41.2500
 1.3420	41.1410
 1.3430	41.0330
 1.3440	40.9270
 1.3450	40.8200
 1.3460	40.7120
 1.3470	40.6070
 1.3480	40.5020
 1.3490	40.3990
 1.3500	40.2970
 1.3510	40.1950
 1.3520	40.0910
 1.3530	39.9880
 1.3540	39.8840
 1.3550	39.7820
 1.3560	39.6770
 1.3570	39.5720
 1.3580	39.4660
 1.3590	39.3570
 1.3600	39.2450
 1.3610	39.1300
 1.3620	39.0090
 1.3630	38.8840
 1.3640	38.7550
 1.3650	38.6180
 1.3660	38.4760
 1.3670	38.3250
 1.3680	38.1640
 1.3690	37.9920
 1.3700	37.8070
 1.3710	37.6100
 1.3720	37.4000
 1.3730	37.1720
 1.3740	36.9310
 1.3750	36.6720
 1.3760	36.3930
 1.3770	36.0950
 1.3780	35.7720
 1.3790	35.4290
 1.3800	35.0630
 1.3810	34.6720
 1.3820	34.2650
 1.3830	33.8380
 1.3840	33.3930
 1.3850	32.9280
 1.3860	32.4500
 1.3870	31.9510
 1.3880	31.4480
 1.3890	30.9340
 1.3900	30.4100
 1.3910	29.8840
 1.3920	29.3520
 1.3930	28.8150
 1.3940	28.2810
 1.3950	27.7440
 1.3960	27.2160
 1.3970	26.6990
 1.3980	26.1900
 1.3990	25.7010
 1.4000	25.2270
 1.4010	24.7640
 1.4020	24.3230
 1.4030	23.8960
 1.4040	23.4890
 1.4050	23.1040
 1.4060	22.7370
 1.4070	22.3950
 1.4080	22.0720
 1.4090	21.7670
 1.4100	21.4840
 1.4110	21.2170
 1.4120	20.9680
 1.4130	20.7390
 1.4140	20.5260
 1.4150	20.3300
 1.4160	20.1490
 1.4170	19.9800
 1.4180	19.8250
 1.4190	19.6820
 1.4200	19.5500
 1.4210	19.4280
 1.4220	19.3160
 1.4230	19.2150
 1.4240	19.1220
 1.4250	19.0370
 1.4260	18.9610
 1.4270	18.8910
 1.4280	18.8270
 1.4290	18.7700
 1.4300	18.7200
 1.4310	18.6750
 1.4320	18.6370
 1.4330	18.6020
 1.4340	18.5720
 1.4350	18.5460
 1.4360	18.5240
 1.4370	18.5070
 1.4380	18.4930
 1.4390	18.4830
 1.4400	18.4760
 1.4410	18.4720
 1.4420	18.4710
 1.4430	18.4730
 1.4440	18.4770
 1.4450	18.4840
 1.4460	18.4920
 1.4470	18.5020
 1.4480	18.5140
 1.4490	18.5270
 1.4500	18.5430
 1.4510	18.5600
 1.4520	18.5790
 1.4530	18.5990
 1.4540	18.6200
 1.4550	18.6440
 1.4560	18.6710
 1.4570	18.7000
 1.4580	18.7320
 1.4590	18.7670
 1.4600	18.8060
 1.4610	18.8490
 1.4620	18.8950
 1.4630	18.9470
 1.4640	19.0020
 1.4650	19.0620
 1.4660	19.1280
 1.4670	19.1970
 1.4680	19.2720
 1.4690	19.3510
 1.4700	19.4320
 1.4710	19.5180
 1.4720	19.6070
 1.4730	19.7000
 1.4740	19.7970
 1.4750	19.8960
 1.4760	19.9970
 1.4770	20.1030
