Name: Umbellularia californica 1
Type: vegetation
Class: Shrub
Genus: Umbellularia
Species: californica
Sample No.: VH103
Owner: UCSB
Wavelength Range: VSWIR
Origin: 34.5074; -119.7634; WGS84
Collection Date: 6/3/2013
Description: Samples were collected as part of the HyspIRI Airborne Campaign. 48 individual plants were sampled in three times in 2013 - spring  summer  and fall. The name of the sample includes a 1  2  or 3 which references a different individual of the species. Samples were taken to JPL and processed within 48 hours of collection. The same leaves were processed in the Nicolet and then measured using the ASD.
Measurement: Bidirectional reflectance
First Column: X
Second Column: Y
X Units: Wavelength (micrometers)
Y Units: Reflectance (percentage)
First X Value: 0.35
Last X Value: 2.5
Number of X Values: 2151
Additional Information: vegetation.shrub.umbellularia.californica.vswir.vh103.ucsb.asd.ancillary.txt

 0.3500	 8.1230
 0.3510	 8.0220
 0.3520	 7.9340
 0.3530	 7.9480
 0.3540	 8.0680
 0.3550	 8.0810
 0.3560	 8.0630
 0.3570	 7.9930
 0.3580	 7.8310
 0.3590	 7.8590
 0.3600	 7.9310
 0.3610	 7.9400
 0.3620	 7.9000
 0.3630	 7.8380
 0.3640	 7.7620
 0.3650	 7.7030
 0.3660	 7.8310
 0.3670	 7.9060
 0.3680	 7.8740
 0.3690	 7.8190
 0.3700	 7.8140
 0.3710	 7.7830
 0.3720	 7.7030
 0.3730	 7.6860
 0.3740	 7.7180
 0.3750	 7.7690
 0.3760	 7.7950
 0.3770	 7.7220
 0.3780	 7.6840
 0.3790	 7.7070
 0.3800	 7.7130
 0.3810	 7.6700
 0.3820	 7.6700
 0.3830	 7.7500
 0.3840	 7.7980
 0.3850	 7.7440
 0.3860	 7.6730
 0.3870	 7.6970
 0.3880	 7.7000
 0.3890	 7.6730
 0.3900	 7.6520
 0.3910	 7.7110
 0.3920	 7.7270
 0.3930	 7.6830
 0.3940	 7.6090
 0.3950	 7.5780
 0.3960	 7.6150
 0.3970	 7.6810
 0.3980	 7.7100
 0.3990	 7.6810
 0.4000	 7.6510
 0.4010	 7.6490
 0.4020	 7.6550
 0.4030	 7.7030
 0.4040	 7.7380
 0.4050	 7.7170
 0.4060	 7.7250
 0.4070	 7.7180
 0.4080	 7.6980
 0.4090	 7.6950
 0.4100	 7.7310
 0.4110	 7.7620
 0.4120	 7.7670
 0.4130	 7.7780
 0.4140	 7.8090
 0.4150	 7.8490
 0.4160	 7.8810
 0.4170	 7.9080
 0.4180	 7.9430
 0.4190	 7.9780
 0.4200	 7.9830
 0.4210	 8.0180
 0.4220	 8.0540
 0.4230	 8.0670
 0.4240	 8.0960
 0.4250	 8.1300
 0.4260	 8.1550
 0.4270	 8.1610
 0.4280	 8.1960
 0.4290	 8.2300
 0.4300	 8.2500
 0.4310	 8.2760
 0.4320	 8.2870
 0.4330	 8.2880
 0.4340	 8.2900
 0.4350	 8.3100
 0.4360	 8.3260
 0.4370	 8.3350
 0.4380	 8.3470
 0.4390	 8.3820
 0.4400	 8.4120
 0.4410	 8.4220
 0.4420	 8.4400
 0.4430	 8.4480
 0.4440	 8.4610
 0.4450	 8.4970
 0.4460	 8.5140
 0.4470	 8.5300
 0.4480	 8.5520
 0.4490	 8.5710
 0.4500	 8.5940
 0.4510	 8.6160
 0.4520	 8.6330
 0.4530	 8.6530
 0.4540	 8.6610
 0.4550	 8.6680
 0.4560	 8.6950
 0.4570	 8.7050
 0.4580	 8.7070
 0.4590	 8.7110
 0.4600	 8.7220
 0.4610	 8.7240
 0.4620	 8.7250
 0.4630	 8.7370
 0.4640	 8.7530
 0.4650	 8.7450
 0.4660	 8.7230
 0.4670	 8.7320
 0.4680	 8.7410
 0.4690	 8.7480
 0.4700	 8.7560
 0.4710	 8.7630
 0.4720	 8.7650
 0.4730	 8.7620
 0.4740	 8.7590
 0.4750	 8.7710
 0.4760	 8.7780
 0.4770	 8.7720
 0.4780	 8.7720
 0.4790	 8.7780
 0.4800	 8.7850
 0.4810	 8.7880
 0.4820	 8.7950
 0.4830	 8.8030
 0.4840	 8.8120
 0.4850	 8.8260
 0.4860	 8.8320
 0.4870	 8.8400
 0.4880	 8.8570
 0.4890	 8.8770
 0.4900	 8.9020
 0.4910	 8.9300
 0.4920	 8.9560
 0.4930	 8.9830
 0.4940	 9.0170
 0.4950	 9.0610
 0.4960	 9.1080
 0.4970	 9.1530
 0.4980	 9.2000
 0.4990	 9.2560
 0.5000	 9.3150
 0.5010	 9.3840
 0.5020	 9.4640
 0.5030	 9.5500
 0.5040	 9.6370
 0.5050	 9.7350
 0.5060	 9.8480
 0.5070	 9.9740
 0.5080	10.1050
 0.5090	10.2450
 0.5100	10.4010
 0.5110	10.5670
 0.5120	10.7470
 0.5130	10.9440
 0.5140	11.1530
 0.5150	11.3780
 0.5160	11.6100
 0.5170	11.8470
 0.5180	12.1090
 0.5190	12.3830
 0.5200	12.6590
 0.5210	12.9320
 0.5220	13.2090
 0.5230	13.4890
 0.5240	13.7640
 0.5250	14.0280
 0.5260	14.2830
 0.5270	14.5270
 0.5280	14.7520
 0.5290	14.9660
 0.5300	15.1690
 0.5310	15.3600
 0.5320	15.5350
 0.5330	15.6940
 0.5340	15.8400
 0.5350	15.9750
 0.5360	16.0990
 0.5370	16.2080
 0.5380	16.3060
 0.5390	16.3990
 0.5400	16.4840
 0.5410	16.5610
 0.5420	16.6290
 0.5430	16.6950
 0.5440	16.7610
 0.5450	16.8270
 0.5460	16.8910
 0.5470	16.9650
 0.5480	17.0340
 0.5490	17.0890
 0.5500	17.1300
 0.5510	17.1570
 0.5520	17.1740
 0.5530	17.1770
 0.5540	17.1630
 0.5550	17.1320
 0.5560	17.0840
 0.5570	17.0190
 0.5580	16.9340
 0.5590	16.8360
 0.5600	16.7300
 0.5610	16.6120
 0.5620	16.4880
 0.5630	16.3580
 0.5640	16.2160
 0.5650	16.0650
 0.5660	15.9020
 0.5670	15.7300
 0.5680	15.5530
 0.5690	15.3730
 0.5700	15.1900
 0.5710	15.0050
 0.5720	14.8270
 0.5730	14.6590
 0.5740	14.5020
 0.5750	14.3530
 0.5760	14.2120
 0.5770	14.0840
 0.5780	13.9670
 0.5790	13.8530
 0.5800	13.7460
 0.5810	13.6490
 0.5820	13.5600
 0.5830	13.4670
 0.5840	13.3750
 0.5850	13.2880
 0.5860	13.2080
 0.5870	13.1300
 0.5880	13.0560
 0.5890	12.9900
 0.5900	12.9450
 0.5910	12.9050
 0.5920	12.8640
 0.5930	12.8170
 0.5940	12.7800
 0.5950	12.7450
 0.5960	12.7070
 0.5970	12.6700
 0.5980	12.6350
 0.5990	12.5990
 0.6000	12.5590
 0.6010	12.5120
 0.6020	12.4640
 0.6030	12.4150
 0.6040	12.3620
 0.6050	12.3030
 0.6060	12.2370
 0.6070	12.1660
 0.6080	12.0940
 0.6090	12.0110
 0.6100	11.9150
 0.6110	11.8160
 0.6120	11.7390
 0.6130	11.6690
 0.6140	11.5960
 0.6150	11.5200
 0.6160	11.4490
 0.6170	11.3800
 0.6180	11.3120
 0.6190	11.2550
 0.6200	11.2030
 0.6210	11.1530
 0.6220	11.1110
 0.6230	11.0730
 0.6240	11.0410
 0.6250	11.0170
 0.6260	10.9930
 0.6270	10.9770
 0.6280	10.9620
 0.6290	10.9430
 0.6300	10.9280
 0.6310	10.9140
 0.6320	10.8970
 0.6330	10.8720
 0.6340	10.8420
 0.6350	10.8030
 0.6360	10.7510
 0.6370	10.6910
 0.6380	10.6190
 0.6390	10.5370
 0.6400	10.4510
 0.6410	10.3650
 0.6420	10.2770
 0.6430	10.1850
 0.6440	10.0870
 0.6450	 9.9940
 0.6460	 9.9080
 0.6470	 9.8300
 0.6480	 9.7560
 0.6490	 9.6910
 0.6500	 9.6360
 0.6510	 9.5890
 0.6520	 9.5480
 0.6530	 9.5100
 0.6540	 9.4730
 0.6550	 9.4350
 0.6560	 9.3970
 0.6570	 9.3540
 0.6580	 9.3050
 0.6590	 9.2500
 0.6600	 9.1930
 0.6610	 9.1360
 0.6620	 9.0770
 0.6630	 9.0240
 0.6640	 8.9770
 0.6650	 8.9320
 0.6660	 8.8940
 0.6670	 8.8630
 0.6680	 8.8390
 0.6690	 8.8210
 0.6700	 8.8090
 0.6710	 8.8010
 0.6720	 8.7980
 0.6730	 8.8070
 0.6740	 8.8140
 0.6750	 8.8250
 0.6760	 8.8440
 0.6770	 8.8650
 0.6780	 8.8910
 0.6790	 8.9250
 0.6800	 8.9630
 0.6810	 9.0070
 0.6820	 9.0590
 0.6830	 9.1220
 0.6840	 9.1980
 0.6850	 9.2930
 0.6860	 9.4090
 0.6870	 9.5480
 0.6880	 9.7230
 0.6890	 9.9410
 0.6900	10.2100
 0.6910	10.5380
 0.6920	10.9340
 0.6930	11.4020
 0.6940	11.9480
 0.6950	12.5790
 0.6960	13.2950
 0.6970	14.0930
 0.6980	14.9670
 0.6990	15.9120
 0.7000	16.9210
 0.7010	17.9810
 0.7020	19.0820
 0.7030	20.2160
 0.7040	21.3730
 0.7050	22.5430
 0.7060	23.7230
 0.7070	24.9020
 0.7080	26.0800
 0.7090	27.2610
 0.7100	28.4380
 0.7110	29.6120
 0.7120	30.7820
 0.7130	31.9400
 0.7140	33.0920
 0.7150	34.2370
 0.7160	35.3710
 0.7170	36.4960
 0.7180	37.6090
 0.7190	38.7080
 0.7200	39.7930
 0.7210	40.8650
 0.7220	41.9230
 0.7230	42.9610
 0.7240	43.9700
 0.7250	44.9620
 0.7260	45.9310
 0.7270	46.8690
 0.7280	47.7730
 0.7290	48.6510
 0.7300	49.5030
 0.7310	50.3230
 0.7320	51.1090
 0.7330	51.8620
 0.7340	52.5870
 0.7350	53.2830
 0.7360	53.9450
 0.7370	54.5770
 0.7380	55.1790
 0.7390	55.7490
 0.7400	56.2900
 0.7410	56.8030
 0.7420	57.2910
 0.7430	57.7440
 0.7440	58.1670
 0.7450	58.5660
 0.7460	58.9490
 0.7470	59.3020
 0.7480	59.6260
 0.7490	59.9280
 0.7500	60.2110
 0.7510	60.4700
 0.7520	60.7090
 0.7530	60.9350
 0.7540	61.1390
 0.7550	61.3210
 0.7560	61.4860
 0.7570	61.6460
 0.7580	61.7930
 0.7590	61.9260
 0.7600	62.0480
 0.7610	62.1630
 0.7620	62.2640
 0.7630	62.3560
 0.7640	62.4460
 0.7650	62.5300
 0.7660	62.6010
 0.7670	62.6610
 0.7680	62.7190
 0.7690	62.7830
 0.7700	62.8360
 0.7710	62.8760
 0.7720	62.9220
 0.7730	62.9620
 0.7740	62.9990
 0.7750	63.0380
 0.7760	63.0720
 0.7770	63.1070
 0.7780	63.1420
 0.7790	63.1720
 0.7800	63.2000
 0.7810	63.2230
 0.7820	63.2470
 0.7830	63.2760
 0.7840	63.2980
 0.7850	63.3200
 0.7860	63.3460
 0.7870	63.3630
 0.7880	63.3860
 0.7890	63.4080
 0.7900	63.4230
 0.7910	63.4440
 0.7920	63.4590
 0.7930	63.4710
 0.7940	63.4870
 0.7950	63.5000
 0.7960	63.5080
 0.7970	63.5130
 0.7980	63.5240
 0.7990	63.5330
 0.8000	63.5410
 0.8010	63.5480
 0.8020	63.5520
 0.8030	63.5570
 0.8040	63.5610
 0.8050	63.5630
 0.8060	63.5690
 0.8070	63.5740
 0.8080	63.5740
 0.8090	63.5640
 0.8100	63.5570
 0.8110	63.5520
 0.8120	63.5490
 0.8130	63.5530
 0.8140	63.5440
 0.8150	63.5320
 0.8160	63.5280
 0.8170	63.5250
 0.8180	63.5160
 0.8190	63.5050
 0.8200	63.5020
 0.8210	63.4920
 0.8220	63.4880
 0.8230	63.4860
 0.8240	63.4740
 0.8250	63.4630
 0.8260	63.4540
 0.8270	63.4470
 0.8280	63.4290
 0.8290	63.4190
 0.8300	63.4140
 0.8310	63.4030
 0.8320	63.3920
 0.8330	63.3850
 0.8340	63.3780
 0.8350	63.3660
 0.8360	63.3630
 0.8370	63.3650
 0.8380	63.3660
 0.8390	63.3580
 0.8400	63.3560
 0.8410	63.3540
 0.8420	63.3500
 0.8430	63.3550
 0.8440	63.3610
 0.8450	63.3610
 0.8460	63.3550
 0.8470	63.3580
 0.8480	63.3630
 0.8490	63.3670
 0.8500	63.3680
 0.8510	63.3650
 0.8520	63.3730
 0.8530	63.3820
 0.8540	63.3750
 0.8550	63.3800
 0.8560	63.3880
 0.8570	63.3960
 0.8580	63.4000
 0.8590	63.4060
 0.8600	63.4120
 0.8610	63.4170
 0.8620	63.4200
 0.8630	63.4200
 0.8640	63.4230
 0.8650	63.4320
 0.8660	63.4440
 0.8670	63.4560
 0.8680	63.4620
 0.8690	63.4610
 0.8700	63.4650
 0.8710	63.4710
 0.8720	63.4790
 0.8730	63.4860
 0.8740	63.4890
 0.8750	63.4960
 0.8760	63.5060
 0.8770	63.5110
 0.8780	63.5190
 0.8790	63.5250
 0.8800	63.5310
 0.8810	63.5480
 0.8820	63.5560
 0.8830	63.5550
 0.8840	63.5520
 0.8850	63.5620
 0.8860	63.5760
 0.8870	63.5880
 0.8880	63.5960
 0.8890	63.6020
 0.8900	63.6020
 0.8910	63.5990
 0.8920	63.6030
 0.8930	63.6080
 0.8940	63.6150
 0.8950	63.6200
 0.8960	63.6240
 0.8970	63.6280
 0.8980	63.6310
 0.8990	63.6340
 0.9000	63.6370
 0.9010	63.6430
 0.9020	63.6470
 0.9030	63.6500
 0.9040	63.6640
 0.9050	63.6710
 0.9060	63.6680
 0.9070	63.6640
 0.9080	63.6780
 0.9090	63.6780
 0.9100	63.6760
 0.9110	63.6850
 0.9120	63.6970
 0.9130	63.7020
 0.9140	63.7030
 0.9150	63.7050
 0.9160	63.7110
 0.9170	63.7110
 0.9180	63.7050
 0.9190	63.6960
 0.9200	63.6870
 0.9210	63.6810
 0.9220	63.6780
 0.9230	63.6720
 0.9240	63.6700
 0.9250	63.6620
 0.9260	63.6480
 0.9270	63.6390
 0.9280	63.6240
 0.9290	63.6150
 0.9300	63.6090
 0.9310	63.5860
 0.9320	63.5560
 0.9330	63.5330
 0.9340	63.5180
 0.9350	63.4960
 0.9360	63.4720
 0.9370	63.4410
 0.9380	63.4050
 0.9390	63.3750
 0.9400	63.3410
 0.9410	63.3080
 0.9420	63.2760
 0.9430	63.2380
 0.9440	63.1930
 0.9450	63.1450
 0.9460	63.0950
 0.9470	63.0380
 0.9480	62.9690
 0.9490	62.8990
 0.9500	62.8320
 0.9510	62.7530
 0.9520	62.6720
 0.9530	62.5890
 0.9540	62.5030
 0.9550	62.4200
 0.9560	62.3390
 0.9570	62.2590
 0.9580	62.1810
 0.9590	62.0990
 0.9600	62.0280
 0.9610	61.9690
 0.9620	61.9190
 0.9630	61.8740
 0.9640	61.8220
 0.9650	61.7790
 0.9660	61.7590
 0.9670	61.7350
 0.9680	61.7070
 0.9690	61.6840
 0.9700	61.6710
 0.9710	61.6510
 0.9720	61.6310
 0.9730	61.6220
 0.9740	61.6260
 0.9750	61.6050
 0.9760	61.5970
 0.9770	61.5920
 0.9780	61.5690
 0.9790	61.5770
 0.9800	61.5930
 0.9810	61.6060
 0.9820	61.6190
 0.9830	61.6240
 0.9840	61.6190
 0.9850	61.6200
 0.9860	61.6470
 0.9870	61.6740
 0.9880	61.6790
 0.9890	61.6750
 0.9900	61.6860
 0.9910	61.7220
 0.9920	61.7730
 0.9930	61.8240
 0.9940	61.8740
 0.9950	61.9250
 0.9960	61.9760
 0.9970	62.0270
 0.9980	62.0780
 0.9990	62.1290
 1.0000	62.1800
 1.0010	62.2310
 1.0020	62.2810
 1.0030	62.3320
 1.0040	62.3830
 1.0050	62.4340
 1.0060	62.4850
 1.0070	62.5360
 1.0080	62.5870
 1.0090	62.6370
 1.0100	62.6370
 1.0110	62.6570
 1.0120	62.6840
 1.0130	62.7180
 1.0140	62.7450
 1.0150	62.7670
 1.0160	62.7960
 1.0170	62.8230
 1.0180	62.8460
 1.0190	62.8680
 1.0200	62.8900
 1.0210	62.9110
 1.0220	62.9380
 1.0230	62.9630
 1.0240	62.9930
 1.0250	63.0170
 1.0260	63.0340
 1.0270	63.0570
 1.0280	63.0820
 1.0290	63.1060
 1.0300	63.1320
 1.0310	63.1550
 1.0320	63.1770
 1.0330	63.1960
 1.0340	63.2110
 1.0350	63.2270
 1.0360	63.2450
 1.0370	63.2650
 1.0380	63.2810
 1.0390	63.2990
 1.0400	63.3150
 1.0410	63.3250
 1.0420	63.3390
 1.0430	63.3550
 1.0440	63.3700
 1.0450	63.3880
 1.0460	63.4030
 1.0470	63.4200
 1.0480	63.4340
 1.0490	63.4450
 1.0500	63.4570
 1.0510	63.4690
 1.0520	63.4790
 1.0530	63.4910
 1.0540	63.5060
 1.0550	63.5160
 1.0560	63.5240
 1.0570	63.5320
 1.0580	63.5370
 1.0590	63.5440
 1.0600	63.5540
 1.0610	63.5630
 1.0620	63.5730
 1.0630	63.5800
 1.0640	63.5850
 1.0650	63.5890
 1.0660	63.5860
 1.0670	63.5890
 1.0680	63.5940
 1.0690	63.6030
 1.0700	63.6070
 1.0710	63.6140
 1.0720	63.6160
 1.0730	63.6120
 1.0740	63.6110
 1.0750	63.6110
 1.0760	63.6090
 1.0770	63.6040
 1.0780	63.5990
 1.0790	63.5930
 1.0800	63.5880
 1.0810	63.5840
 1.0820	63.5790
 1.0830	63.5720
 1.0840	63.5660
 1.0850	63.5610
 1.0860	63.5550
 1.0870	63.5470
 1.0880	63.5380
 1.0890	63.5300
 1.0900	63.5190
 1.0910	63.5090
 1.0920	63.5000
 1.0930	63.4890
 1.0940	63.4760
 1.0950	63.4620
 1.0960	63.4440
 1.0970	63.4300
 1.0980	63.4140
 1.0990	63.3990
 1.1000	63.3880
 1.1010	63.3750
 1.1020	63.3630
 1.1030	63.3480
 1.1040	63.3300
 1.1050	63.3110
 1.1060	63.2920
 1.1070	63.2710
 1.1080	63.2480
 1.1090	63.2240
 1.1100	63.2010
 1.1110	63.1730
 1.1120	63.1480
 1.1130	63.1280
 1.1140	63.1020
 1.1150	63.0730
 1.1160	63.0430
 1.1170	63.0110
 1.1180	62.9750
 1.1190	62.9360
 1.1200	62.8950
 1.1210	62.8510
 1.1220	62.8010
 1.1230	62.7450
 1.1240	62.6830
 1.1250	62.6150
 1.1260	62.5400
 1.1270	62.4560
 1.1280	62.3690
 1.1290	62.2690
 1.1300	62.1580
 1.1310	62.0370
 1.1320	61.9070
 1.1330	61.7680
 1.1340	61.6200
 1.1350	61.4630
 1.1360	61.2960
 1.1370	61.1210
 1.1380	60.9400
 1.1390	60.7480
 1.1400	60.5490
 1.1410	60.3500
 1.1420	60.1430
 1.1430	59.9360
 1.1440	59.7310
 1.1450	59.5220
 1.1460	59.3210
 1.1470	59.1220
 1.1480	58.9340
 1.1490	58.7490
 1.1500	58.5780
 1.1510	58.4160
 1.1520	58.2640
 1.1530	58.1230
 1.1540	57.9940
 1.1550	57.8720
 1.1560	57.7630
 1.1570	57.6660
 1.1580	57.5770
 1.1590	57.4980
 1.1600	57.4250
 1.1610	57.3580
 1.1620	57.2990
 1.1630	57.2430
 1.1640	57.1930
 1.1650	57.1480
 1.1660	57.1090
 1.1670	57.0720
 1.1680	57.0420
 1.1690	57.0090
 1.1700	56.9780
 1.1710	56.9480
 1.1720	56.9180
 1.1730	56.8890
 1.1740	56.8630
 1.1750	56.8380
 1.1760	56.8120
 1.1770	56.7830
 1.1780	56.7510
 1.1790	56.7150
 1.1800	56.6770
 1.1810	56.6410
 1.1820	56.6020
 1.1830	56.5620
 1.1840	56.5240
 1.1850	56.4880
 1.1860	56.4550
 1.1870	56.4240
 1.1880	56.3950
 1.1890	56.3660
 1.1900	56.3400
 1.1910	56.3170
 1.1920	56.2950
 1.1930	56.2740
 1.1940	56.2560
 1.1950	56.2380
 1.1960	56.2260
 1.1970	56.2170
 1.1980	56.2140
 1.1990	56.2180
 1.2000	56.2220
 1.2010	56.2310
 1.2020	56.2470
 1.2030	56.2630
 1.2040	56.2840
 1.2050	56.3100
 1.2060	56.3390
 1.2070	56.3730
 1.2080	56.4110
 1.2090	56.4530
 1.2100	56.4990
 1.2110	56.5440
 1.2120	56.5930
 1.2130	56.6430
 1.2140	56.6930
 1.2150	56.7460
 1.2160	56.8030
 1.2170	56.8630
 1.2180	56.9230
 1.2190	56.9840
 1.2200	57.0480
 1.2210	57.1110
 1.2220	57.1750
 1.2230	57.2400
 1.2240	57.3010
 1.2250	57.3610
 1.2260	57.4180
 1.2270	57.4730
 1.2280	57.5250
 1.2290	57.5780
 1.2300	57.6300
 1.2310	57.6830
 1.2320	57.7330
 1.2330	57.7770
 1.2340	57.8210
 1.2350	57.8610
 1.2360	57.9020
 1.2370	57.9410
 1.2380	57.9820
 1.2390	58.0210
 1.2400	58.0580
 1.2410	58.0950
 1.2420	58.1290
 1.2430	58.1590
 1.2440	58.1880
 1.2450	58.2170
 1.2460	58.2430
 1.2470	58.2730
 1.2480	58.3010
 1.2490	58.3220
 1.2500	58.3450
 1.2510	58.3650
 1.2520	58.3810
 1.2530	58.4010
 1.2540	58.4180
 1.2550	58.4310
 1.2560	58.4440
 1.2570	58.4520
 1.2580	58.4600
 1.2590	58.4680
 1.2600	58.4770
 1.2610	58.4850
 1.2620	58.4930
 1.2630	58.4980
 1.2640	58.5020
 1.2650	58.5040
 1.2660	58.5040
 1.2670	58.5010
 1.2680	58.4980
 1.2690	58.4910
 1.2700	58.4820
 1.2710	58.4740
 1.2720	58.4660
 1.2730	58.4580
 1.2740	58.4470
 1.2750	58.4340
 1.2760	58.4170
 1.2770	58.3980
 1.2780	58.3780
 1.2790	58.3580
 1.2800	58.3370
 1.2810	58.3120
 1.2820	58.2870
 1.2830	58.2640
 1.2840	58.2400
 1.2850	58.2080
 1.2860	58.1740
 1.2870	58.1390
 1.2880	58.1000
 1.2890	58.0570
 1.2900	58.0160
 1.2910	57.9730
 1.2920	57.9240
 1.2930	57.8710
 1.2940	57.8200
 1.2950	57.7660
 1.2960	57.7080
 1.2970	57.6480
 1.2980	57.5820
 1.2990	57.5110
 1.3000	57.4420
 1.3010	57.3680
 1.3020	57.2890
 1.3030	57.2090
 1.3040	57.1260
 1.3050	57.0360
 1.3060	56.9440
 1.3070	56.8460
 1.3080	56.7400
 1.3090	56.6330
 1.3100	56.5230
 1.3110	56.4080
 1.3120	56.2950
 1.3130	56.1770
 1.3140	56.0520
 1.3150	55.9220
 1.3160	55.7890
 1.3170	55.6510
 1.3180	55.5070
 1.3190	55.3600
 1.3200	55.2110
 1.3210	55.0530
 1.3220	54.8920
 1.3230	54.7280
 1.3240	54.5570
 1.3250	54.3850
 1.3260	54.2100
 1.3270	54.0320
 1.3280	53.8540
 1.3290	53.6700
 1.3300	53.4840
 1.3310	53.2950
 1.3320	53.1010
 1.3330	52.9080
 1.3340	52.7140
 1.3350	52.5190
 1.3360	52.3220
 1.3370	52.1240
 1.3380	51.9260
 1.3390	51.7280
 1.3400	51.5290
 1.3410	51.3330
 1.3420	51.1380
 1.3430	50.9440
 1.3440	50.7500
 1.3450	50.5570
 1.3460	50.3620
 1.3470	50.1700
 1.3480	49.9790
 1.3490	49.7900
 1.3500	49.6050
 1.3510	49.4160
 1.3520	49.2290
 1.3530	49.0440
 1.3540	48.8560
 1.3550	48.6700
 1.3560	48.4810
 1.3570	48.2870
 1.3580	48.0940
 1.3590	47.8990
 1.3600	47.6980
 1.3610	47.4930
 1.3620	47.2820
 1.3630	47.0650
 1.3640	46.8410
 1.3650	46.6070
 1.3660	46.3650
 1.3670	46.1140
 1.3680	45.8480
 1.3690	45.5690
 1.3700	45.2710
 1.3710	44.9560
 1.3720	44.6220
 1.3730	44.2660
 1.3740	43.8930
 1.3750	43.4960
 1.3760	43.0720
 1.3770	42.6250
 1.3780	42.1460
 1.3790	41.6410
 1.3800	41.1090
 1.3810	40.5440
 1.3820	39.9610
 1.3830	39.3550
 1.3840	38.7290
 1.3850	38.0800
 1.3860	37.4180
 1.3870	36.7310
 1.3880	36.0440
 1.3890	35.3450
 1.3900	34.6400
 1.3910	33.9380
 1.3920	33.2320
 1.3930	32.5240
 1.3940	31.8240
 1.3950	31.1250
 1.3960	30.4390
 1.3970	29.7690
 1.3980	29.1150
 1.3990	28.4880
 1.4000	27.8800
 1.4010	27.2900
 1.4020	26.7290
 1.4030	26.1860
 1.4040	25.6710
 1.4050	25.1860
 1.4060	24.7240
 1.4070	24.2950
 1.4080	23.8910
 1.4090	23.5110
 1.4100	23.1610
 1.4110	22.8330
 1.4120	22.5310
 1.4130	22.2540
 1.4140	21.9970
 1.4150	21.7640
 1.4160	21.5500
 1.4170	21.3560
 1.4180	21.1790
 1.4190	21.0180
 1.4200	20.8730
 1.4210	20.7410
 1.4220	20.6210
 1.4230	20.5150
 1.4240	20.4220
 1.4250	20.3370
 1.4260	20.2650
 1.4270	20.2000
 1.4280	20.1430
 1.4290	20.0950
 1.4300	20.0550
 1.4310	20.0210
 1.4320	19.9960
 1.4330	19.9750
 1.4340	19.9610
 1.4350	19.9500
 1.4360	19.9460
 1.4370	19.9460
 1.4380	19.9500
 1.4390	19.9570
 1.4400	19.9690
 1.4410	19.9850
 1.4420	20.0040
 1.4430	20.0250
 1.4440	20.0480
 1.4450	20.0740
 1.4460	20.1000
 1.4470	20.1300
 1.4480	20.1600
 1.4490	20.1910
 1.4500	20.2230
 1.4510	20.2570
 1.4520	20.2930
 1.4530	20.3300
 1.4540	20.3680
 1.4550	20.4080
 1.4560	20.4500
 1.4570	20.4970
 1.4580	20.5480
 1.4590	20.6020
 1.4600	20.6610
 1.4610	20.7240
 1.4620	20.7910
 1.4630	20.8640
 1.4640	20.9420
 1.4650	21.0260
 1.4660	21.1150
 1.4670	21.2100
 1.4680	21.3120
 1.4690	21.4170
