Name: Heteromeles arbutifolia 1
Type: vegetation
Class: Shrub
Genus: Heteromeles
Species: arbutifolia
Sample No.: VH014
Owner: UCSB
Wavelength Range: VSWIR
Origin: 34.4907; -119.791; WGS84
Collection Date: 4/1/2013
Description: Samples were collected as part of the HyspIRI Airborne Campaign. 48 individual plants were sampled in three times in 2013 - spring  summer  and fall. The name of the sample includes a 1  2  or 3 which references a different individual of the species. Samples were taken to JPL and processed within 48 hours of collection. The same leaves were processed in the Nicolet and then measured using the ASD.
Measurement: Bidirectional reflectance
First Column: X
Second Column: Y
X Units: Wavelength (micrometers)
Y Units: Reflectance (percentage)
First X Value: 0.35
Last X Value: 2.5
Number of X Values: 2151
Additional Information: vegetation.shrub.heteromeles.arbutifolia.vswir.vh014.ucsb.asd.ancillary.txt

 0.3500	 6.1630
 0.3510	 6.5760
 0.3520	 6.6090
 0.3530	 6.4220
 0.3540	 6.3030
 0.3550	 6.3020
 0.3560	 6.3230
 0.3570	 6.3060
 0.3580	 6.2400
 0.3590	 6.3340
 0.3600	 6.3660
 0.3610	 6.2790
 0.3620	 6.3040
 0.3630	 6.2890
 0.3640	 6.2800
 0.3650	 6.3290
 0.3660	 6.3470
 0.3670	 6.4090
 0.3680	 6.4350
 0.3690	 6.2760
 0.3700	 6.2340
 0.3710	 6.3150
 0.3720	 6.4090
 0.3730	 6.2740
 0.3740	 6.2340
 0.3750	 6.2940
 0.3760	 6.3410
 0.3770	 6.2520
 0.3780	 6.1940
 0.3790	 6.2080
 0.3800	 6.2130
 0.3810	 6.1910
 0.3820	 6.1540
 0.3830	 6.1320
 0.3840	 6.2030
 0.3850	 6.2260
 0.3860	 6.1920
 0.3870	 6.1490
 0.3880	 6.1480
 0.3890	 6.1850
 0.3900	 6.2080
 0.3910	 6.1280
 0.3920	 6.1730
 0.3930	 6.2080
 0.3940	 6.1390
 0.3950	 6.1540
 0.3960	 6.2060
 0.3970	 6.2450
 0.3980	 6.2210
 0.3990	 6.1390
 0.4000	 6.1190
 0.4010	 6.1720
 0.4020	 6.1570
 0.4030	 6.1250
 0.4040	 6.1360
 0.4050	 6.2100
 0.4060	 6.2230
 0.4070	 6.2150
 0.4080	 6.2030
 0.4090	 6.1890
 0.4100	 6.2100
 0.4110	 6.2170
 0.4120	 6.1950
 0.4130	 6.1990
 0.4140	 6.2290
 0.4150	 6.2500
 0.4160	 6.2400
 0.4170	 6.2730
 0.4180	 6.3030
 0.4190	 6.3080
 0.4200	 6.2920
 0.4210	 6.3080
 0.4220	 6.3290
 0.4230	 6.3290
 0.4240	 6.3340
 0.4250	 6.3470
 0.4260	 6.3630
 0.4270	 6.3690
 0.4280	 6.3580
 0.4290	 6.3550
 0.4300	 6.3690
 0.4310	 6.3840
 0.4320	 6.3850
 0.4330	 6.3820
 0.4340	 6.3880
 0.4350	 6.3940
 0.4360	 6.3860
 0.4370	 6.3770
 0.4380	 6.3970
 0.4390	 6.4050
 0.4400	 6.4020
 0.4410	 6.3950
 0.4420	 6.3910
 0.4430	 6.3960
 0.4440	 6.4060
 0.4450	 6.4140
 0.4460	 6.4200
 0.4470	 6.4230
 0.4480	 6.4240
 0.4490	 6.4290
 0.4500	 6.4300
 0.4510	 6.4280
 0.4520	 6.4290
 0.4530	 6.4450
 0.4540	 6.4500
 0.4550	 6.4450
 0.4560	 6.4490
 0.4570	 6.4470
 0.4580	 6.4450
 0.4590	 6.4450
 0.4600	 6.4360
 0.4610	 6.4350
 0.4620	 6.4370
 0.4630	 6.4310
 0.4640	 6.4180
 0.4650	 6.4220
 0.4660	 6.4370
 0.4670	 6.4230
 0.4680	 6.4230
 0.4690	 6.4220
 0.4700	 6.4100
 0.4710	 6.4150
 0.4720	 6.4150
 0.4730	 6.4060
 0.4740	 6.3970
 0.4750	 6.3960
 0.4760	 6.3980
 0.4770	 6.3990
 0.4780	 6.3950
 0.4790	 6.4050
 0.4800	 6.4160
 0.4810	 6.4120
 0.4820	 6.4100
 0.4830	 6.4090
 0.4840	 6.4090
 0.4850	 6.4080
 0.4860	 6.4080
 0.4870	 6.4130
 0.4880	 6.4250
 0.4890	 6.4380
 0.4900	 6.4430
 0.4910	 6.4420
 0.4920	 6.4450
 0.4930	 6.4520
 0.4940	 6.4690
 0.4950	 6.4910
 0.4960	 6.5010
 0.4970	 6.5110
 0.4980	 6.5270
 0.4990	 6.5490
 0.5000	 6.5730
 0.5010	 6.5980
 0.5020	 6.6240
 0.5030	 6.6510
 0.5040	 6.6870
 0.5050	 6.7340
 0.5060	 6.7860
 0.5070	 6.8270
 0.5080	 6.8780
 0.5090	 6.9420
 0.5100	 7.0160
 0.5110	 7.1040
 0.5120	 7.1960
 0.5130	 7.2910
 0.5140	 7.3970
 0.5150	 7.5200
 0.5160	 7.6490
 0.5170	 7.7800
 0.5180	 7.9360
 0.5190	 8.0980
 0.5200	 8.2640
 0.5210	 8.4440
 0.5220	 8.6250
 0.5230	 8.8040
 0.5240	 8.9800
 0.5250	 9.1570
 0.5260	 9.3310
 0.5270	 9.4990
 0.5280	 9.6580
 0.5290	 9.8140
 0.5300	 9.9580
 0.5310	10.0860
 0.5320	10.2020
 0.5330	10.3080
 0.5340	10.4070
 0.5350	10.4990
 0.5360	10.5750
 0.5370	10.6420
 0.5380	10.7010
 0.5390	10.7540
 0.5400	10.8080
 0.5410	10.8600
 0.5420	10.9060
 0.5430	10.9440
 0.5440	10.9850
 0.5450	11.0220
 0.5460	11.0470
 0.5470	11.0680
 0.5480	11.0910
 0.5490	11.1140
 0.5500	11.1330
 0.5510	11.1420
 0.5520	11.1430
 0.5530	11.1370
 0.5540	11.1250
 0.5550	11.1010
 0.5560	11.0650
 0.5570	11.0220
 0.5580	10.9690
 0.5590	10.9040
 0.5600	10.8260
 0.5610	10.7360
 0.5620	10.6360
 0.5630	10.5280
 0.5640	10.4140
 0.5650	10.2880
 0.5660	10.1570
 0.5670	10.0250
 0.5680	 9.9020
 0.5690	 9.7710
 0.5700	 9.6430
 0.5710	 9.5250
 0.5720	 9.4090
 0.5730	 9.2980
 0.5740	 9.1970
 0.5750	 9.1010
 0.5760	 9.0140
 0.5770	 8.9320
 0.5780	 8.8530
 0.5790	 8.7750
 0.5800	 8.6980
 0.5810	 8.6240
 0.5820	 8.5590
 0.5830	 8.5080
 0.5840	 8.4610
 0.5850	 8.4150
 0.5860	 8.3680
 0.5870	 8.3260
 0.5880	 8.2860
 0.5890	 8.2480
 0.5900	 8.2200
 0.5910	 8.1980
 0.5920	 8.1760
 0.5930	 8.1560
 0.5940	 8.1290
 0.5950	 8.1020
 0.5960	 8.0790
 0.5970	 8.0550
 0.5980	 8.0350
 0.5990	 8.0170
 0.6000	 7.9960
 0.6010	 7.9700
 0.6020	 7.9450
 0.6030	 7.9180
 0.6040	 7.8800
 0.6050	 7.8450
 0.6060	 7.8080
 0.6070	 7.7640
 0.6080	 7.7170
 0.6090	 7.6780
 0.6100	 7.6410
 0.6110	 7.5930
 0.6120	 7.5470
 0.6130	 7.5010
 0.6140	 7.4550
 0.6150	 7.4110
 0.6160	 7.3670
 0.6170	 7.3250
 0.6180	 7.2900
 0.6190	 7.2610
 0.6200	 7.2340
 0.6210	 7.2090
 0.6220	 7.1920
 0.6230	 7.1720
 0.6240	 7.1500
 0.6250	 7.1290
 0.6260	 7.1200
 0.6270	 7.1150
 0.6280	 7.1090
 0.6290	 7.0990
 0.6300	 7.0920
 0.6310	 7.0860
 0.6320	 7.0800
 0.6330	 7.0670
 0.6340	 7.0530
 0.6350	 7.0370
 0.6360	 7.0170
 0.6370	 6.9890
 0.6380	 6.9570
 0.6390	 6.9220
 0.6400	 6.8820
 0.6410	 6.8430
 0.6420	 6.8050
 0.6430	 6.7660
 0.6440	 6.7230
 0.6450	 6.6810
 0.6460	 6.6450
 0.6470	 6.6150
 0.6480	 6.5800
 0.6490	 6.5520
 0.6500	 6.5310
 0.6510	 6.5150
 0.6520	 6.4950
 0.6530	 6.4760
 0.6540	 6.4590
 0.6550	 6.4450
 0.6560	 6.4310
 0.6570	 6.4150
 0.6580	 6.3970
 0.6590	 6.3750
 0.6600	 6.3560
 0.6610	 6.3390
 0.6620	 6.3230
 0.6630	 6.3060
 0.6640	 6.2930
 0.6650	 6.2850
 0.6660	 6.2780
 0.6670	 6.2740
 0.6680	 6.2740
 0.6690	 6.2770
 0.6700	 6.2800
 0.6710	 6.2850
 0.6720	 6.2930
 0.6730	 6.3030
 0.6740	 6.3180
 0.6750	 6.3360
 0.6760	 6.3550
 0.6770	 6.3780
 0.6780	 6.4010
 0.6790	 6.4240
 0.6800	 6.4510
 0.6810	 6.4830
 0.6820	 6.5170
 0.6830	 6.5530
 0.6840	 6.5910
 0.6850	 6.6370
 0.6860	 6.6920
 0.6870	 6.7540
 0.6880	 6.8270
 0.6890	 6.9180
 0.6900	 7.0330
 0.6910	 7.1800
 0.6920	 7.3600
 0.6930	 7.5840
 0.6940	 7.8580
 0.6950	 8.1830
 0.6960	 8.5710
 0.6970	 9.0220
 0.6980	 9.5360
 0.6990	10.1130
 0.7000	10.7540
 0.7010	11.4550
 0.7020	12.2030
 0.7030	12.9990
 0.7040	13.8350
 0.7050	14.7000
 0.7060	15.5870
 0.7070	16.4990
 0.7080	17.4290
 0.7090	18.3700
 0.7100	19.3260
 0.7110	20.2900
 0.7120	21.2590
 0.7130	22.2340
 0.7140	23.2070
 0.7150	24.1780
 0.7160	25.1430
 0.7170	26.1010
 0.7180	27.0500
 0.7190	27.9890
 0.7200	28.9110
 0.7210	29.8180
 0.7220	30.7070
 0.7230	31.5730
 0.7240	32.4110
 0.7250	33.2230
 0.7260	34.0130
 0.7270	34.7770
 0.7280	35.5060
 0.7290	36.1990
 0.7300	36.8620
 0.7310	37.4980
 0.7320	38.1050
 0.7330	38.6810
 0.7340	39.2240
 0.7350	39.7370
 0.7360	40.2230
 0.7370	40.6800
 0.7380	41.1070
 0.7390	41.5120
 0.7400	41.8940
 0.7410	42.2490
 0.7420	42.5740
 0.7430	42.8900
 0.7440	43.1790
 0.7450	43.4370
 0.7460	43.6790
 0.7470	43.9040
 0.7480	44.1140
 0.7490	44.3080
 0.7500	44.4790
 0.7510	44.6390
 0.7520	44.7860
 0.7530	44.9170
 0.7540	45.0350
 0.7550	45.1430
 0.7560	45.2420
 0.7570	45.3330
 0.7580	45.4070
 0.7590	45.4790
 0.7600	45.5530
 0.7610	45.6160
 0.7620	45.6710
 0.7630	45.7230
 0.7640	45.7710
 0.7650	45.8100
 0.7660	45.8420
 0.7670	45.8730
 0.7680	45.9020
 0.7690	45.9280
 0.7700	45.9520
 0.7710	45.9740
 0.7720	45.9950
 0.7730	46.0160
 0.7740	46.0340
 0.7750	46.0490
 0.7760	46.0680
 0.7770	46.0850
 0.7780	46.1000
 0.7790	46.1140
 0.7800	46.1220
 0.7810	46.1360
 0.7820	46.1560
 0.7830	46.1680
 0.7840	46.1770
 0.7850	46.1870
 0.7860	46.1980
 0.7870	46.2140
 0.7880	46.2170
 0.7890	46.2200
 0.7900	46.2390
 0.7910	46.2490
 0.7920	46.2540
 0.7930	46.2600
 0.7940	46.2700
 0.7950	46.2790
 0.7960	46.2840
 0.7970	46.2830
 0.7980	46.2860
 0.7990	46.2930
 0.8000	46.2970
 0.8010	46.2950
 0.8020	46.2960
 0.8030	46.2970
 0.8040	46.2990
 0.8050	46.3030
 0.8060	46.2950
 0.8070	46.2860
 0.8080	46.2840
 0.8090	46.2900
 0.8100	46.2860
 0.8110	46.2800
 0.8120	46.2760
 0.8130	46.2700
 0.8140	46.2670
 0.8150	46.2620
 0.8160	46.2530
 0.8170	46.2410
 0.8180	46.2320
 0.8190	46.2280
 0.8200	46.2250
 0.8210	46.2160
 0.8220	46.2050
 0.8230	46.1990
 0.8240	46.2020
 0.8250	46.1940
 0.8260	46.1810
 0.8270	46.1700
 0.8280	46.1660
 0.8290	46.1600
 0.8300	46.1480
 0.8310	46.1340
 0.8320	46.1210
 0.8330	46.1170
 0.8340	46.1160
 0.8350	46.1080
 0.8360	46.1050
 0.8370	46.1000
 0.8380	46.0910
 0.8390	46.0840
 0.8400	46.0830
 0.8410	46.0790
 0.8420	46.0720
 0.8430	46.0770
 0.8440	46.0760
 0.8450	46.0730
 0.8460	46.0750
 0.8470	46.0690
 0.8480	46.0710
 0.8490	46.0760
 0.8500	46.0770
 0.8510	46.0740
 0.8520	46.0730
 0.8530	46.0760
 0.8540	46.0770
 0.8550	46.0760
 0.8560	46.0830
 0.8570	46.0910
 0.8580	46.0840
 0.8590	46.0830
 0.8600	46.0840
 0.8610	46.0830
 0.8620	46.0900
 0.8630	46.0990
 0.8640	46.1040
 0.8650	46.1030
 0.8660	46.1050
 0.8670	46.1090
 0.8680	46.1140
 0.8690	46.1160
 0.8700	46.1250
 0.8710	46.1250
 0.8720	46.1220
 0.8730	46.1300
 0.8740	46.1430
 0.8750	46.1480
 0.8760	46.1490
 0.8770	46.1560
 0.8780	46.1680
 0.8790	46.1700
 0.8800	46.1620
 0.8810	46.1690
 0.8820	46.1860
 0.8830	46.1970
 0.8840	46.1980
 0.8850	46.1980
 0.8860	46.2060
 0.8870	46.2180
 0.8880	46.2240
 0.8890	46.2230
 0.8900	46.2210
 0.8910	46.2250
 0.8920	46.2360
 0.8930	46.2390
 0.8940	46.2450
 0.8950	46.2530
 0.8960	46.2560
 0.8970	46.2590
 0.8980	46.2590
 0.8990	46.2580
 0.9000	46.2580
 0.9010	46.2650
 0.9020	46.2770
 0.9030	46.2870
 0.9040	46.2910
 0.9050	46.2940
 0.9060	46.2950
 0.9070	46.2970
 0.9080	46.2990
 0.9090	46.3030
 0.9100	46.3080
 0.9110	46.3130
 0.9120	46.3100
 0.9130	46.3080
 0.9140	46.3090
 0.9150	46.3150
 0.9160	46.3160
 0.9170	46.3240
 0.9180	46.3290
 0.9190	46.3220
 0.9200	46.3190
 0.9210	46.3160
 0.9220	46.3160
 0.9230	46.3210
 0.9240	46.3100
 0.9250	46.3000
 0.9260	46.2960
 0.9270	46.2910
 0.9280	46.2890
 0.9290	46.2740
 0.9300	46.2540
 0.9310	46.2510
 0.9320	46.2360
 0.9330	46.2230
 0.9340	46.2130
 0.9350	46.1950
 0.9360	46.1760
 0.9370	46.1590
 0.9380	46.1450
 0.9390	46.1320
 0.9400	46.1180
 0.9410	46.0970
 0.9420	46.0690
 0.9430	46.0460
 0.9440	46.0120
 0.9450	45.9760
 0.9460	45.9460
 0.9470	45.9180
 0.9480	45.8790
 0.9490	45.8360
 0.9500	45.7960
 0.9510	45.7460
 0.9520	45.6990
 0.9530	45.6450
 0.9540	45.5800
 0.9550	45.5300
 0.9560	45.4780
 0.9570	45.4250
 0.9580	45.3790
 0.9590	45.3300
 0.9600	45.2820
 0.9610	45.2370
 0.9620	45.1950
 0.9630	45.1490
 0.9640	45.1220
 0.9650	45.1020
 0.9660	45.0710
 0.9670	45.0480
 0.9680	45.0330
 0.9690	45.0210
 0.9700	45.0030
 0.9710	44.9780
 0.9720	44.9600
 0.9730	44.9530
 0.9740	44.9520
 0.9750	44.9350
 0.9760	44.9120
 0.9770	44.9000
 0.9780	44.9060
 0.9790	44.8820
 0.9800	44.8830
 0.9810	44.9000
 0.9820	44.8990
 0.9830	44.9020
 0.9840	44.9040
 0.9850	44.9070
 0.9860	44.9160
 0.9870	44.9260
 0.9880	44.9430
 0.9890	44.9610
 0.9900	44.9690
 0.9910	44.9700
 0.9920	44.9870
 0.9930	45.0030
 0.9940	45.0200
 0.9950	45.0360
 0.9960	45.0530
 0.9970	45.0700
 0.9980	45.0860
 0.9990	45.1030
 1.0000	45.1200
 1.0010	45.1360
 1.0020	45.1530
 1.0030	45.1700
 1.0040	45.1860
 1.0050	45.2030
 1.0060	45.2190
 1.0070	45.2360
 1.0080	45.2530
 1.0090	45.2690
 1.0100	45.2690
 1.0110	45.2820
 1.0120	45.2980
 1.0130	45.3130
 1.0140	45.3290
 1.0150	45.3460
 1.0160	45.3670
 1.0170	45.3840
 1.0180	45.3980
 1.0190	45.4090
 1.0200	45.4180
 1.0210	45.4300
 1.0220	45.4440
 1.0230	45.4580
 1.0240	45.4770
 1.0250	45.4910
 1.0260	45.5030
 1.0270	45.5160
 1.0280	45.5260
 1.0290	45.5380
 1.0300	45.5520
 1.0310	45.5660
 1.0320	45.5820
 1.0330	45.5920
 1.0340	45.6050
 1.0350	45.6160
 1.0360	45.6260
 1.0370	45.6350
 1.0380	45.6470
 1.0390	45.6570
 1.0400	45.6710
 1.0410	45.6910
 1.0420	45.7040
 1.0430	45.7170
 1.0440	45.7280
 1.0450	45.7350
 1.0460	45.7430
 1.0470	45.7540
 1.0480	45.7620
 1.0490	45.7660
 1.0500	45.7710
 1.0510	45.7760
 1.0520	45.7820
 1.0530	45.7880
 1.0540	45.7950
 1.0550	45.8010
 1.0560	45.8080
 1.0570	45.8150
 1.0580	45.8210
 1.0590	45.8270
 1.0600	45.8330
 1.0610	45.8380
 1.0620	45.8450
 1.0630	45.8470
 1.0640	45.8440
 1.0650	45.8430
 1.0660	45.8390
 1.0670	45.8370
 1.0680	45.8380
 1.0690	45.8430
 1.0700	45.8420
 1.0710	45.8420
 1.0720	45.8420
 1.0730	45.8400
 1.0740	45.8400
 1.0750	45.8430
 1.0760	45.8430
 1.0770	45.8390
 1.0780	45.8370
 1.0790	45.8330
 1.0800	45.8290
 1.0810	45.8280
 1.0820	45.8240
 1.0830	45.8170
 1.0840	45.8120
 1.0850	45.8050
 1.0860	45.8000
 1.0870	45.7950
 1.0880	45.7930
 1.0890	45.7880
 1.0900	45.7820
 1.0910	45.7760
 1.0920	45.7700
 1.0930	45.7640
 1.0940	45.7600
 1.0950	45.7520
 1.0960	45.7420
 1.0970	45.7340
 1.0980	45.7230
 1.0990	45.7140
 1.1000	45.7070
 1.1010	45.7000
 1.1020	45.6930
 1.1030	45.6850
 1.1040	45.6760
 1.1050	45.6660
 1.1060	45.6560
 1.1070	45.6450
 1.1080	45.6350
 1.1090	45.6250
 1.1100	45.6130
 1.1110	45.5970
 1.1120	45.5840
 1.1130	45.5710
 1.1140	45.5570
 1.1150	45.5440
 1.1160	45.5270
 1.1170	45.5050
 1.1180	45.4820
 1.1190	45.4580
 1.1200	45.4290
 1.1210	45.4020
 1.1220	45.3730
 1.1230	45.3380
 1.1240	45.3010
 1.1250	45.2590
 1.1260	45.2120
 1.1270	45.1620
 1.1280	45.1090
 1.1290	45.0500
 1.1300	44.9870
 1.1310	44.9180
 1.1320	44.8440
 1.1330	44.7640
 1.1340	44.6760
 1.1350	44.5850
 1.1360	44.4890
 1.1370	44.3880
 1.1380	44.2840
 1.1390	44.1740
 1.1400	44.0580
 1.1410	43.9400
 1.1420	43.8180
 1.1430	43.6970
 1.1440	43.5770
 1.1450	43.4570
 1.1460	43.3390
 1.1470	43.2210
 1.1480	43.1070
 1.1490	42.9930
 1.1500	42.8860
 1.1510	42.7840
 1.1520	42.6880
 1.1530	42.5970
 1.1540	42.5140
 1.1550	42.4340
 1.1560	42.3620
 1.1570	42.2970
 1.1580	42.2370
 1.1590	42.1850
 1.1600	42.1390
 1.1610	42.0980
 1.1620	42.0630
 1.1630	42.0320
 1.1640	42.0040
 1.1650	41.9780
 1.1660	41.9550
 1.1670	41.9330
 1.1680	41.9130
 1.1690	41.8930
 1.1700	41.8750
 1.1710	41.8570
 1.1720	41.8390
 1.1730	41.8230
 1.1740	41.8090
 1.1750	41.7940
 1.1760	41.7770
 1.1770	41.7590
 1.1780	41.7390
 1.1790	41.7170
 1.1800	41.6970
 1.1810	41.6770
 1.1820	41.6590
 1.1830	41.6410
 1.1840	41.6210
 1.1850	41.6010
 1.1860	41.5810
 1.1870	41.5620
 1.1880	41.5450
 1.1890	41.5300
 1.1900	41.5170
 1.1910	41.5060
 1.1920	41.4950
 1.1930	41.4860
 1.1940	41.4780
 1.1950	41.4700
 1.1960	41.4640
 1.1970	41.4610
 1.1980	41.4590
 1.1990	41.4580
 1.2000	41.4590
 1.2010	41.4640
 1.2020	41.4700
 1.2030	41.4790
 1.2040	41.4880
 1.2050	41.4960
 1.2060	41.5080
 1.2070	41.5220
 1.2080	41.5400
 1.2090	41.5610
 1.2100	41.5810
 1.2110	41.6040
 1.2120	41.6280
 1.2130	41.6540
 1.2140	41.6810
 1.2150	41.7100
 1.2160	41.7400
 1.2170	41.7690
 1.2180	41.8020
 1.2190	41.8360
 1.2200	41.8690
 1.2210	41.9030
 1.2220	41.9350
 1.2230	41.9660
 1.2240	41.9980
 1.2250	42.0280
 1.2260	42.0580
 1.2270	42.0870
 1.2280	42.1140
 1.2290	42.1420
 1.2300	42.1700
 1.2310	42.1950
 1.2320	42.2210
 1.2330	42.2440
 1.2340	42.2660
 1.2350	42.2860
 1.2360	42.3050
 1.2370	42.3240
 1.2380	42.3430
 1.2390	42.3600
 1.2400	42.3770
 1.2410	42.3980
 1.2420	42.4150
 1.2430	42.4310
 1.2440	42.4490
 1.2450	42.4630
 1.2460	42.4760
 1.2470	42.4880
 1.2480	42.4970
 1.2490	42.5070
 1.2500	42.5160
 1.2510	42.5250
 1.2520	42.5340
 1.2530	42.5430
 1.2540	42.5530
 1.2550	42.5620
 1.2560	42.5710
 1.2570	42.5770
 1.2580	42.5810
 1.2590	42.5850
 1.2600	42.5890
 1.2610	42.5910
 1.2620	42.5920
 1.2630	42.5940
 1.2640	42.5940
 1.2650	42.5950
 1.2660	42.5940
 1.2670	42.5910
 1.2680	42.5870
 1.2690	42.5820
 1.2700	42.5770
 1.2710	42.5720
 1.2720	42.5670
 1.2730	42.5610
 1.2740	42.5550
 1.2750	42.5500
 1.2760	42.5440
 1.2770	42.5360
 1.2780	42.5260
 1.2790	42.5150
 1.2800	42.5020
 1.2810	42.4880
 1.2820	42.4750
 1.2830	42.4590
 1.2840	42.4420
 1.2850	42.4260
 1.2860	42.4080
 1.2870	42.3880
 1.2880	42.3660
 1.2890	42.3420
 1.2900	42.3140
 1.2910	42.2820
 1.2920	42.2520
 1.2930	42.2210
 1.2940	42.1880
 1.2950	42.1560
 1.2960	42.1190
 1.2970	42.0790
 1.2980	42.0370
 1.2990	41.9910
 1.3000	41.9440
 1.3010	41.8930
 1.3020	41.8390
 1.3030	41.7860
 1.3040	41.7280
 1.3050	41.6680
 1.3060	41.6080
 1.3070	41.5450
 1.3080	41.4770
 1.3090	41.4080
 1.3100	41.3400
 1.3110	41.2660
 1.3120	41.1900
 1.3130	41.1150
 1.3140	41.0350
 1.3150	40.9490
 1.3160	40.8640
 1.3170	40.7800
 1.3180	40.6890
 1.3190	40.5960
 1.3200	40.5000
 1.3210	40.3980
 1.3220	40.2950
 1.3230	40.1900
 1.3240	40.0800
 1.3250	39.9700
 1.3260	39.8590
 1.3270	39.7470
 1.3280	39.6330
 1.3290	39.5140
 1.3300	39.3950
 1.3310	39.2730
 1.3320	39.1480
 1.3330	39.0230
 1.3340	38.8950
 1.3350	38.7660
 1.3360	38.6390
 1.3370	38.5100
 1.3380	38.3780
 1.3390	38.2470
 1.3400	38.1130
 1.3410	37.9810
 1.3420	37.8520
 1.3430	37.7240
 1.3440	37.5970
 1.3450	37.4690
 1.3460	37.3420
 1.3470	37.2150
 1.3480	37.0860
 1.3490	36.9600
 1.3500	36.8350
 1.3510	36.7100
 1.3520	36.5860
 1.3530	36.4640
 1.3540	36.3400
 1.3550	36.2150
 1.3560	36.0900
 1.3570	35.9620
 1.3580	35.8340
 1.3590	35.7040
 1.3600	35.5730
 1.3610	35.4390
 1.3620	35.3000
 1.3630	35.1570
 1.3640	35.0100
 1.3650	34.8550
 1.3660	34.6940
 1.3670	34.5270
 1.3680	34.3490
 1.3690	34.1620
 1.3700	33.9640
 1.3710	33.7550
 1.3720	33.5340
 1.3730	33.2980
 1.3740	33.0480
 1.3750	32.7830
 1.3760	32.4970
 1.3770	32.1930
 1.3780	31.8660
 1.3790	31.5200
 1.3800	31.1540
 1.3810	30.7660
 1.3820	30.3630
 1.3830	29.9410
 1.3840	29.5030
 1.3850	29.0460
 1.3860	28.5780
 1.3870	28.0900
 1.3880	27.5980
 1.3890	27.0950
 1.3900	26.5810
 1.3910	26.0670
 1.3920	25.5480
 1.3930	25.0220
 1.3940	24.4980
 1.3950	23.9730
 1.3960	23.4530
 1.3970	22.9420
 1.3980	22.4390
 1.3990	21.9540
 1.4000	21.4810
 1.4010	21.0210
 1.4020	20.5790
 1.4030	20.1520
 1.4040	19.7430
 1.4050	19.3550
 1.4060	18.9860
 1.4070	18.6390
 1.4080	18.3110
 1.4090	18.0020
 1.4100	17.7140
 1.4110	17.4450
 1.4120	17.1950
 1.4130	16.9640
 1.4140	16.7480
 1.4150	16.5530
 1.4160	16.3720
 1.4170	16.2060
 1.4180	16.0550
 1.4190	15.9150
 1.4200	15.7890
 1.4210	15.6740
 1.4220	15.5700
 1.4230	15.4770
 1.4240	15.3920
 1.4250	15.3160
 1.4260	15.2510
 1.4270	15.1910
 1.4280	15.1390
 1.4290	15.0940
 1.4300	15.0560
 1.4310	15.0230
 1.4320	14.9980
 1.4330	14.9770
 1.4340	14.9610
 1.4350	14.9490
 1.4360	14.9420
 1.4370	14.9370
 1.4380	14.9370
 1.4390	14.9420
 1.4400	14.9480
 1.4410	14.9570
 1.4420	14.9690
 1.4430	14.9820
 1.4440	14.9980
 1.4450	15.0160
 1.4460	15.0360
 1.4470	15.0570
 1.4480	15.0790
 1.4490	15.1020
 1.4500	15.1270
 1.4510	15.1510
 1.4520	15.1770
 1.4530	15.2040
 1.4540	15.2320
 1.4550	15.2620
 1.4560	15.2940
 1.4570	15.3270
 1.4580	15.3630
 1.4590	15.4010
 1.4600	15.4410
 1.4610	15.4850
 1.4620	15.5320
 1.4630	15.5830
 1.4640	15.6380
 1.4650	15.6960
 1.4660	15.7600
 1.4670	15.8260
 1.4680	15.8980
 1.4690	15.9750
