Name: Arctostaphylos glandulosa 3
Type: vegetation
Class: Shrub
Genus: Arctostaphylos
Species: glandulosa
Sample No.: VH225
Owner: UCSB
Wavelength Range: VSWIR
Origin: 34.5085; -119.7682; WGS84
Collection Date: 10/13/2013
Description: Samples were collected as part of the HyspIRI Airborne Campaign. 48 individual plants were sampled in three times in 2013 - spring  summer  and fall. The name of the sample includes a 1  2  or 3 which references a different individual of the species. Samples were taken to JPL and processed within 48 hours of collection. The same leaves were processed in the Nicolet and then measured using the ASD.
Measurement: Bidirectional reflectance
First Column: X
Second Column: Y
X Units: Wavelength (micrometers)
Y Units: Reflectance (percentage)
First X Value: 0.35
Last X Value: 2.5
Number of X Values: 2151
Additional Information: vegetation.shrub.arctostaphylos.glandulosa.vswir.vh225.ucsb.asd.ancillary.txt

 0.3500	 5.8720
 0.3510	 6.1460
 0.3520	 6.1440
 0.3530	 6.0090
 0.3540	 5.9390
 0.3550	 5.6320
 0.3560	 5.7950
 0.3570	 6.1190
 0.3580	 5.8800
 0.3590	 5.7140
 0.3600	 5.7150
 0.3610	 5.8010
 0.3620	 5.7300
 0.3630	 5.6170
 0.3640	 5.5920
 0.3650	 5.7210
 0.3660	 5.8810
 0.3670	 5.8200
 0.3680	 5.6350
 0.3690	 5.6450
 0.3700	 5.7610
 0.3710	 5.8180
 0.3720	 5.7890
 0.3730	 5.9330
 0.3740	 5.8600
 0.3750	 5.7640
 0.3760	 5.8730
 0.3770	 5.6190
 0.3780	 5.5230
 0.3790	 5.7110
 0.3800	 5.9160
 0.3810	 5.8200
 0.3820	 5.6790
 0.3830	 5.7020
 0.3840	 5.7790
 0.3850	 5.7810
 0.3860	 5.6650
 0.3870	 5.5060
 0.3880	 5.7780
 0.3890	 5.9190
 0.3900	 5.7890
 0.3910	 5.7400
 0.3920	 5.7120
 0.3930	 5.7370
 0.3940	 5.8080
 0.3950	 5.7850
 0.3960	 5.7550
 0.3970	 5.7430
 0.3980	 5.7380
 0.3990	 5.7090
 0.4000	 5.7300
 0.4010	 5.7870
 0.4020	 5.7390
 0.4030	 5.7170
 0.4040	 5.7220
 0.4050	 5.7310
 0.4060	 5.7660
 0.4070	 5.7260
 0.4080	 5.6550
 0.4090	 5.6780
 0.4100	 5.7080
 0.4110	 5.7420
 0.4120	 5.7750
 0.4130	 5.7790
 0.4140	 5.7570
 0.4150	 5.7460
 0.4160	 5.7770
 0.4170	 5.8060
 0.4180	 5.8270
 0.4190	 5.8280
 0.4200	 5.7930
 0.4210	 5.7840
 0.4220	 5.8320
 0.4230	 5.9210
 0.4240	 5.9390
 0.4250	 5.9270
 0.4260	 5.9470
 0.4270	 6.0460
 0.4280	 6.0770
 0.4290	 6.0980
 0.4300	 6.1470
 0.4310	 6.1980
 0.4320	 6.2650
 0.4330	 6.3300
 0.4340	 6.3820
 0.4350	 6.4510
 0.4360	 6.5220
 0.4370	 6.5820
 0.4380	 6.6310
 0.4390	 6.7220
 0.4400	 6.8100
 0.4410	 6.8640
 0.4420	 6.9100
 0.4430	 6.9940
 0.4440	 7.0860
 0.4450	 7.1420
 0.4460	 7.2180
 0.4470	 7.3010
 0.4480	 7.3840
 0.4490	 7.4830
 0.4500	 7.5390
 0.4510	 7.5800
 0.4520	 7.6380
 0.4530	 7.7030
 0.4540	 7.7490
 0.4550	 7.7900
 0.4560	 7.8570
 0.4570	 7.8850
 0.4580	 7.9120
 0.4590	 7.9550
 0.4600	 7.9710
 0.4610	 8.0090
 0.4620	 8.0640
 0.4630	 8.1130
 0.4640	 8.1370
 0.4650	 8.1330
 0.4660	 8.1270
 0.4670	 8.1690
 0.4680	 8.1900
 0.4690	 8.1990
 0.4700	 8.2180
 0.4710	 8.2500
 0.4720	 8.2670
 0.4730	 8.2780
 0.4740	 8.3100
 0.4750	 8.3160
 0.4760	 8.3240
 0.4770	 8.3510
 0.4780	 8.3790
 0.4790	 8.3950
 0.4800	 8.4050
 0.4810	 8.4210
 0.4820	 8.4370
 0.4830	 8.4560
 0.4840	 8.4810
 0.4850	 8.5080
 0.4860	 8.5240
 0.4870	 8.5410
 0.4880	 8.5730
 0.4890	 8.6230
 0.4900	 8.6710
 0.4910	 8.7140
 0.4920	 8.7520
 0.4930	 8.8070
 0.4940	 8.8610
 0.4950	 8.9110
 0.4960	 8.9780
 0.4970	 9.0490
 0.4980	 9.1220
 0.4990	 9.2030
 0.5000	 9.2890
 0.5010	 9.3790
 0.5020	 9.4790
 0.5030	 9.5950
 0.5040	 9.7150
 0.5050	 9.8390
 0.5060	 9.9680
 0.5070	10.1010
 0.5080	10.2410
 0.5090	10.3960
 0.5100	10.5750
 0.5110	10.7550
 0.5120	10.9480
 0.5130	11.1550
 0.5140	11.3500
 0.5150	11.5490
 0.5160	11.7660
 0.5170	12.0080
 0.5180	12.2430
 0.5190	12.4690
 0.5200	12.6970
 0.5210	12.9430
 0.5220	13.1850
 0.5230	13.4200
 0.5240	13.6490
 0.5250	13.8660
 0.5260	14.0840
 0.5270	14.3020
 0.5280	14.5160
 0.5290	14.7050
 0.5300	14.8840
 0.5310	15.0600
 0.5320	15.2190
 0.5330	15.3750
 0.5340	15.5240
 0.5350	15.6610
 0.5360	15.7920
 0.5370	15.9210
 0.5380	16.0450
 0.5390	16.1530
 0.5400	16.2610
 0.5410	16.3660
 0.5420	16.4650
 0.5430	16.5650
 0.5440	16.6640
 0.5450	16.7560
 0.5460	16.8360
 0.5470	16.8910
 0.5480	16.9370
 0.5490	16.9890
 0.5500	17.0500
 0.5510	17.0990
 0.5520	17.1360
 0.5530	17.1660
 0.5540	17.1910
 0.5550	17.2060
 0.5560	17.2080
 0.5570	17.1970
 0.5580	17.1680
 0.5590	17.1330
 0.5600	17.0930
 0.5610	17.0340
 0.5620	16.9740
 0.5630	16.9100
 0.5640	16.8270
 0.5650	16.7400
 0.5660	16.6570
 0.5670	16.5760
 0.5680	16.4830
 0.5690	16.3800
 0.5700	16.2740
 0.5710	16.1710
 0.5720	16.0700
 0.5730	15.9670
 0.5740	15.8630
 0.5750	15.7650
 0.5760	15.6790
 0.5770	15.5970
 0.5780	15.5100
 0.5790	15.4170
 0.5800	15.3190
 0.5810	15.2260
 0.5820	15.1540
 0.5830	15.1050
 0.5840	15.0600
 0.5850	15.0140
 0.5860	14.9770
 0.5870	14.9260
 0.5880	14.8690
 0.5890	14.8160
 0.5900	14.7730
 0.5910	14.7410
 0.5920	14.7170
 0.5930	14.6910
 0.5940	14.6600
 0.5950	14.6260
 0.5960	14.5940
 0.5970	14.5790
 0.5980	14.5550
 0.5990	14.5260
 0.6000	14.5020
 0.6010	14.4750
 0.6020	14.4380
 0.6030	14.3940
 0.6040	14.3530
 0.6050	14.3110
 0.6060	14.2570
 0.6070	14.1890
 0.6080	14.1260
 0.6090	14.0580
 0.6100	13.9930
 0.6110	13.9390
 0.6120	13.8680
 0.6130	13.7860
 0.6140	13.7040
 0.6150	13.6300
 0.6160	13.5570
 0.6170	13.4880
 0.6180	13.4270
 0.6190	13.3640
 0.6200	13.3150
 0.6210	13.2760
 0.6220	13.2260
 0.6230	13.1880
 0.6240	13.1650
 0.6250	13.1510
 0.6260	13.1260
 0.6270	13.1090
 0.6280	13.1010
 0.6290	13.0950
 0.6300	13.0900
 0.6310	13.0770
 0.6320	13.0560
 0.6330	13.0360
 0.6340	13.0010
 0.6350	12.9460
 0.6360	12.8720
 0.6370	12.7920
 0.6380	12.6980
 0.6390	12.5870
 0.6400	12.4590
 0.6410	12.3270
 0.6420	12.1890
 0.6430	12.0440
 0.6440	11.8950
 0.6450	11.7530
 0.6460	11.6170
 0.6470	11.4860
 0.6480	11.3790
 0.6490	11.2760
 0.6500	11.1790
 0.6510	11.1060
 0.6520	11.0500
 0.6530	10.9980
 0.6540	10.9390
 0.6550	10.8770
 0.6560	10.8160
 0.6570	10.7470
 0.6580	10.6610
 0.6590	10.5760
 0.6600	10.4810
 0.6610	10.3720
 0.6620	10.2620
 0.6630	10.1590
 0.6640	10.0600
 0.6650	 9.9620
 0.6660	 9.8730
 0.6670	 9.7920
 0.6680	 9.7220
 0.6690	 9.6640
 0.6700	 9.6260
 0.6710	 9.5980
 0.6720	 9.5740
 0.6730	 9.5570
 0.6740	 9.5540
 0.6750	 9.5670
 0.6760	 9.5910
 0.6770	 9.6180
 0.6780	 9.6500
 0.6790	 9.6940
 0.6800	 9.7590
 0.6810	 9.8500
 0.6820	 9.9640
 0.6830	10.1020
 0.6840	10.2760
 0.6850	10.5000
 0.6860	10.7730
 0.6870	11.0920
 0.6880	11.4760
 0.6890	11.9190
 0.6900	12.4230
 0.6910	13.0010
 0.6920	13.6380
 0.6930	14.3340
 0.6940	15.0910
 0.6950	15.9040
 0.6960	16.7640
 0.6970	17.6630
 0.6980	18.5940
 0.6990	19.5590
 0.7000	20.5360
 0.7010	21.5170
 0.7020	22.5070
 0.7030	23.4840
 0.7040	24.4430
 0.7050	25.3840
 0.7060	26.3140
 0.7070	27.2000
 0.7080	28.0500
 0.7090	28.8860
 0.7100	29.6950
 0.7110	30.4600
 0.7120	31.1850
 0.7130	31.8930
 0.7140	32.5610
 0.7150	33.2010
 0.7160	33.8180
 0.7170	34.3940
 0.7180	34.9390
 0.7190	35.4680
 0.7200	35.9910
 0.7210	36.4510
 0.7220	36.8820
 0.7230	37.3060
 0.7240	37.7180
 0.7250	38.0900
 0.7260	38.4410
 0.7270	38.7850
 0.7280	39.0840
 0.7290	39.3670
 0.7300	39.6450
 0.7310	39.9130
 0.7320	40.1530
 0.7330	40.3790
 0.7340	40.5880
 0.7350	40.7590
 0.7360	40.9460
 0.7370	41.1380
 0.7380	41.3140
 0.7390	41.4600
 0.7400	41.6060
 0.7410	41.7500
 0.7420	41.8800
 0.7430	42.0000
 0.7440	42.1050
 0.7450	42.1970
 0.7460	42.2900
 0.7470	42.3930
 0.7480	42.4840
 0.7490	42.5550
 0.7500	42.6340
 0.7510	42.7130
 0.7520	42.7800
 0.7530	42.8290
 0.7540	42.8900
 0.7550	42.9450
 0.7560	42.9880
 0.7570	43.0260
 0.7580	43.0820
 0.7590	43.1300
 0.7600	43.1610
 0.7610	43.1990
 0.7620	43.2300
 0.7630	43.2670
 0.7640	43.3120
 0.7650	43.3300
 0.7660	43.3500
 0.7670	43.3870
 0.7680	43.4390
 0.7690	43.4630
 0.7700	43.4860
 0.7710	43.5230
 0.7720	43.5530
 0.7730	43.5700
 0.7740	43.5860
 0.7750	43.6120
 0.7760	43.6430
 0.7770	43.6700
 0.7780	43.6900
 0.7790	43.7050
 0.7800	43.7190
 0.7810	43.7360
 0.7820	43.7590
 0.7830	43.7910
 0.7840	43.8200
 0.7850	43.8370
 0.7860	43.8440
 0.7870	43.8660
 0.7880	43.8690
 0.7890	43.8840
 0.7900	43.9360
 0.7910	43.9480
 0.7920	43.9550
 0.7930	43.9700
 0.7940	43.9880
 0.7950	43.9950
 0.7960	44.0170
 0.7970	44.0450
 0.7980	44.0220
 0.7990	44.0340
 0.8000	44.0570
 0.8010	44.0610
 0.8020	44.0820
 0.8030	44.0930
 0.8040	44.0930
 0.8050	44.0890
 0.8060	44.0690
 0.8070	44.0770
 0.8080	44.0990
 0.8090	44.0780
 0.8100	44.0930
 0.8110	44.1110
 0.8120	44.1070
 0.8130	44.0960
 0.8140	44.0880
 0.8150	44.0840
 0.8160	44.0820
 0.8170	44.0790
 0.8180	44.0820
 0.8190	44.0800
 0.8200	44.0610
 0.8210	44.0610
 0.8220	44.0590
 0.8230	44.0490
 0.8240	44.0370
 0.8250	44.0250
 0.8260	44.0270
 0.8270	44.0370
 0.8280	44.0140
 0.8290	43.9920
 0.8300	43.9750
 0.8310	43.9620
 0.8320	43.9550
 0.8330	43.9590
 0.8340	43.9600
 0.8350	43.9420
 0.8360	43.9290
 0.8370	43.9190
 0.8380	43.9110
 0.8390	43.9080
 0.8400	43.9170
 0.8410	43.9190
 0.8420	43.9140
 0.8430	43.9320
 0.8440	43.9280
 0.8450	43.9190
 0.8460	43.9170
 0.8470	43.8990
 0.8480	43.8980
 0.8490	43.9120
 0.8500	43.9260
 0.8510	43.9250
 0.8520	43.9320
 0.8530	43.9530
 0.8540	43.9730
 0.8550	43.9670
 0.8560	43.9520
 0.8570	43.9460
 0.8580	43.9550
 0.8590	43.9690
 0.8600	43.9820
 0.8610	43.9870
 0.8620	43.9740
 0.8630	43.9900
 0.8640	44.0150
 0.8650	44.0250
 0.8660	44.0250
 0.8670	44.0270
 0.8680	44.0430
 0.8690	44.0680
 0.8700	44.0550
 0.8710	44.0520
 0.8720	44.0760
 0.8730	44.1170
 0.8740	44.1350
 0.8750	44.1450
 0.8760	44.1490
 0.8770	44.1360
 0.8780	44.1510
 0.8790	44.1690
 0.8800	44.1740
 0.8810	44.1790
 0.8820	44.1840
 0.8830	44.1940
 0.8840	44.2100
 0.8850	44.2330
 0.8860	44.2290
 0.8870	44.2260
 0.8880	44.2480
 0.8890	44.2400
 0.8900	44.2540
 0.8910	44.2780
 0.8920	44.2780
 0.8930	44.2740
 0.8940	44.2780
 0.8950	44.2880
 0.8960	44.2930
 0.8970	44.3030
 0.8980	44.3070
 0.8990	44.3060
 0.9000	44.3200
 0.9010	44.3320
 0.9020	44.3250
 0.9030	44.3130
 0.9040	44.3410
 0.9050	44.3280
 0.9060	44.3140
 0.9070	44.3340
 0.9080	44.3770
 0.9090	44.3690
 0.9100	44.3320
 0.9110	44.3070
 0.9120	44.3140
 0.9130	44.3430
 0.9140	44.3630
 0.9150	44.3530
 0.9160	44.3560
 0.9170	44.3430
 0.9180	44.3280
 0.9190	44.3330
 0.9200	44.3220
 0.9210	44.3260
 0.9220	44.3350
 0.9230	44.3200
 0.9240	44.3060
 0.9250	44.2830
 0.9260	44.2580
 0.9270	44.2510
 0.9280	44.2330
 0.9290	44.2300
 0.9300	44.2360
 0.9310	44.2110
 0.9320	44.1730
 0.9330	44.1360
 0.9340	44.1120
 0.9350	44.1150
 0.9360	44.0740
 0.9370	44.0260
 0.9380	44.0040
 0.9390	43.9980
 0.9400	43.9220
 0.9410	43.8720
 0.9420	43.8920
 0.9430	43.8620
 0.9440	43.8020
 0.9450	43.7280
 0.9460	43.6610
 0.9470	43.6170
 0.9480	43.5660
 0.9490	43.4880
 0.9500	43.3890
 0.9510	43.3410
 0.9520	43.2750
 0.9530	43.1830
 0.9540	43.0790
 0.9550	42.9780
 0.9560	42.9210
 0.9570	42.8380
 0.9580	42.6790
 0.9590	42.5800
 0.9600	42.5160
 0.9610	42.4570
 0.9620	42.3870
 0.9630	42.3560
 0.9640	42.2880
 0.9650	42.2130
 0.9660	42.1900
 0.9670	42.2080
 0.9680	42.1620
 0.9690	42.0850
 0.9700	42.0590
 0.9710	42.0410
 0.9720	42.0210
 0.9730	42.0070
 0.9740	42.0050
 0.9750	41.9890
 0.9760	41.9770
 0.9770	41.9810
 0.9780	42.0000
 0.9790	41.9700
 0.9800	41.9580
 0.9810	41.9780
 0.9820	42.0070
 0.9830	42.0350
 0.9840	42.0420
 0.9850	42.0550
 0.9860	42.1030
 0.9870	42.1150
 0.9880	42.1040
 0.9890	42.1140
 0.9900	42.1750
 0.9910	42.2070
 0.9920	42.3410
 0.9930	42.4740
 0.9940	42.6070
 0.9950	42.7410
 0.9960	42.8740
 0.9970	43.0070
 0.9980	43.1400
 0.9990	43.2740
 1.0000	43.4070
 1.0010	43.5400
 1.0020	43.6740
 1.0030	43.8070
 1.0040	43.9400
 1.0050	44.0740
 1.0060	44.2070
 1.0070	44.3400
 1.0080	44.4730
 1.0090	44.6070
 1.0100	44.6070
 1.0110	44.6570
 1.0120	44.6980
 1.0130	44.7310
 1.0140	44.7780
 1.0150	44.8300
 1.0160	44.8700
 1.0170	44.9200
 1.0180	44.9730
 1.0190	44.9940
 1.0200	45.0080
 1.0210	45.0380
 1.0220	45.0690
 1.0230	45.1070
 1.0240	45.1630
 1.0250	45.2050
 1.0260	45.2450
 1.0270	45.2850
 1.0280	45.3200
 1.0290	45.3580
 1.0300	45.4030
 1.0310	45.4340
 1.0320	45.4580
 1.0330	45.4790
 1.0340	45.5080
 1.0350	45.5420
 1.0360	45.5920
 1.0370	45.6380
 1.0380	45.6730
 1.0390	45.6980
 1.0400	45.7250
 1.0410	45.7420
 1.0420	45.7670
 1.0430	45.7960
 1.0440	45.8210
 1.0450	45.8520
 1.0460	45.8760
 1.0470	45.8980
 1.0480	45.9160
 1.0490	45.9210
 1.0500	45.9370
 1.0510	45.9590
 1.0520	45.9750
 1.0530	45.9970
 1.0540	46.0290
 1.0550	46.0530
 1.0560	46.0780
 1.0570	46.0940
 1.0580	46.1020
 1.0590	46.1140
 1.0600	46.1200
 1.0610	46.1290
 1.0620	46.1440
 1.0630	46.1540
 1.0640	46.1580
 1.0650	46.1650
 1.0660	46.1710
 1.0670	46.1810
 1.0680	46.1940
 1.0690	46.2120
 1.0700	46.2240
 1.0710	46.2410
 1.0720	46.2470
 1.0730	46.2470
 1.0740	46.2470
 1.0750	46.2390
 1.0760	46.2370
 1.0770	46.2350
 1.0780	46.2340
 1.0790	46.2370
 1.0800	46.2350
 1.0810	46.2230
 1.0820	46.2220
 1.0830	46.2300
 1.0840	46.2290
 1.0850	46.2240
 1.0860	46.2300
 1.0870	46.2270
 1.0880	46.2150
 1.0890	46.2090
 1.0900	46.2090
 1.0910	46.2000
 1.0920	46.1850
 1.0930	46.1750
 1.0940	46.1630
 1.0950	46.1530
 1.0960	46.1510
 1.0970	46.1360
 1.0980	46.1100
 1.0990	46.0930
 1.1000	46.0770
 1.1010	46.0570
 1.1020	46.0440
 1.1030	46.0230
 1.1040	45.9980
 1.1050	45.9760
 1.1060	45.9530
 1.1070	45.9340
 1.1080	45.9110
 1.1090	45.8860
 1.1100	45.8580
 1.1110	45.8280
 1.1120	45.7950
 1.1130	45.7570
 1.1140	45.7170
 1.1150	45.6780
 1.1160	45.6340
 1.1170	45.5900
 1.1180	45.5380
 1.1190	45.4830
 1.1200	45.4200
 1.1210	45.3510
 1.1220	45.2840
 1.1230	45.2070
 1.1240	45.1270
 1.1250	45.0420
 1.1260	44.9520
 1.1270	44.8560
 1.1280	44.7570
 1.1290	44.6470
 1.1300	44.5290
 1.1310	44.4030
 1.1320	44.2700
 1.1330	44.1290
 1.1340	43.9790
 1.1350	43.8220
 1.1360	43.6610
 1.1370	43.4870
 1.1380	43.3000
 1.1390	43.1030
 1.1400	42.8880
 1.1410	42.6690
 1.1420	42.4470
 1.1430	42.2210
 1.1440	41.9980
 1.1450	41.7750
 1.1460	41.5540
 1.1470	41.3300
 1.1480	41.1170
 1.1490	40.9050
 1.1500	40.7010
 1.1510	40.4990
 1.1520	40.3130
 1.1530	40.1300
 1.1540	39.9670
 1.1550	39.8210
 1.1560	39.6900
 1.1570	39.5750
 1.1580	39.4750
 1.1590	39.3840
 1.1600	39.3050
 1.1610	39.2280
 1.1620	39.1570
 1.1630	39.1020
 1.1640	39.0510
 1.1650	39.0090
 1.1660	38.9820
 1.1670	38.9490
 1.1680	38.9180
 1.1690	38.8900
 1.1700	38.8660
 1.1710	38.8400
 1.1720	38.8190
 1.1730	38.7970
 1.1740	38.7740
 1.1750	38.7530
 1.1760	38.7340
 1.1770	38.7150
 1.1780	38.6900
 1.1790	38.6620
 1.1800	38.6310
 1.1810	38.6020
 1.1820	38.5720
 1.1830	38.5400
 1.1840	38.5090
 1.1850	38.4730
 1.1860	38.4370
 1.1870	38.4060
 1.1880	38.3780
 1.1890	38.3540
 1.1900	38.3280
 1.1910	38.3050
 1.1920	38.2830
 1.1930	38.2560
 1.1940	38.2340
 1.1950	38.2130
 1.1960	38.1990
 1.1970	38.1820
 1.1980	38.1710
 1.1990	38.1630
 1.2000	38.1540
 1.2010	38.1530
 1.2020	38.1610
 1.2030	38.1720
 1.2040	38.1870
 1.2050	38.2050
 1.2060	38.2230
 1.2070	38.2510
 1.2080	38.2820
 1.2090	38.3110
 1.2100	38.3540
 1.2110	38.3980
 1.2120	38.4460
 1.2130	38.4950
 1.2140	38.5460
 1.2150	38.6030
 1.2160	38.6640
 1.2170	38.7320
 1.2180	38.8040
 1.2190	38.8830
 1.2200	38.9590
 1.2210	39.0330
 1.2220	39.1140
 1.2230	39.1940
 1.2240	39.2770
 1.2250	39.3600
 1.2260	39.4390
 1.2270	39.5150
 1.2280	39.5860
 1.2290	39.6530
 1.2300	39.7220
 1.2310	39.7940
 1.2320	39.8580
 1.2330	39.9150
 1.2340	39.9690
 1.2350	40.0100
 1.2360	40.0580
 1.2370	40.1070
 1.2380	40.1580
 1.2390	40.2040
 1.2400	40.2490
 1.2410	40.2870
 1.2420	40.3220
 1.2430	40.3620
 1.2440	40.4020
 1.2450	40.4460
 1.2460	40.4870
 1.2470	40.5200
 1.2480	40.5510
 1.2490	40.5750
 1.2500	40.5950
 1.2510	40.6190
 1.2520	40.6460
 1.2530	40.6720
 1.2540	40.6990
 1.2550	40.7220
 1.2560	40.7380
 1.2570	40.7550
 1.2580	40.7740
 1.2590	40.7880
 1.2600	40.7980
 1.2610	40.8120
 1.2620	40.8260
 1.2630	40.8340
 1.2640	40.8470
 1.2650	40.8610
 1.2660	40.8620
 1.2670	40.8640
 1.2680	40.8670
 1.2690	40.8660
 1.2700	40.8710
 1.2710	40.8720
 1.2720	40.8610
 1.2730	40.8510
 1.2740	40.8490
 1.2750	40.8440
 1.2760	40.8390
 1.2770	40.8340
 1.2780	40.8190
 1.2790	40.7980
 1.2800	40.7810
 1.2810	40.7580
 1.2820	40.7370
 1.2830	40.7120
 1.2840	40.6800
 1.2850	40.6530
 1.2860	40.6120
 1.2870	40.5700
 1.2880	40.5250
 1.2890	40.4820
 1.2900	40.4310
 1.2910	40.3900
 1.2920	40.3390
 1.2930	40.2790
 1.2940	40.2220
 1.2950	40.1550
 1.2960	40.0820
 1.2970	40.0100
 1.2980	39.9360
 1.2990	39.8610
 1.3000	39.7890
 1.3010	39.7190
 1.3020	39.6370
 1.3030	39.5480
 1.3040	39.4550
 1.3050	39.3560
 1.3060	39.2580
 1.3070	39.1590
 1.3080	39.0560
 1.3090	38.9430
 1.3100	38.8270
 1.3110	38.7070
 1.3120	38.5810
 1.3130	38.4590
 1.3140	38.3290
 1.3150	38.1950
 1.3160	38.0560
 1.3170	37.9120
 1.3180	37.7660
 1.3190	37.6150
 1.3200	37.4550
 1.3210	37.2940
 1.3220	37.1260
 1.3230	36.9540
 1.3240	36.7840
 1.3250	36.6060
 1.3260	36.4260
 1.3270	36.2400
 1.3280	36.0500
 1.3290	35.8610
 1.3300	35.6760
 1.3310	35.4860
 1.3320	35.2940
 1.3330	35.1040
 1.3340	34.9060
 1.3350	34.7060
 1.3360	34.5050
 1.3370	34.3020
 1.3380	34.1030
 1.3390	33.9020
 1.3400	33.7020
 1.3410	33.5080
 1.3420	33.3110
 1.3430	33.1150
 1.3440	32.9290
 1.3450	32.7430
 1.3460	32.5580
 1.3470	32.3790
 1.3480	32.2010
 1.3490	32.0250
 1.3500	31.8530
 1.3510	31.6760
 1.3520	31.4990
 1.3530	31.3260
 1.3540	31.1500
 1.3550	30.9800
 1.3560	30.8060
 1.3570	30.6290
 1.3580	30.4550
 1.3590	30.2760
 1.3600	30.1010
 1.3610	29.9280
 1.3620	29.7460
 1.3630	29.5650
 1.3640	29.3770
 1.3650	29.1780
 1.3660	28.9750
 1.3670	28.7660
 1.3680	28.5500
 1.3690	28.3230
 1.3700	28.0830
 1.3710	27.8340
 1.3720	27.5690
 1.3730	27.2930
 1.3740	27.0070
 1.3750	26.6990
 1.3760	26.3760
 1.3770	26.0370
 1.3780	25.6760
 1.3790	25.3040
 1.3800	24.9150
 1.3810	24.5050
 1.3820	24.0850
 1.3830	23.6510
 1.3840	23.2060
 1.3850	22.7490
 1.3860	22.2860
 1.3870	21.8070
 1.3880	21.3340
 1.3890	20.8550
 1.3900	20.3750
 1.3910	19.9060
 1.3920	19.4380
 1.3930	18.9740
 1.3940	18.5210
 1.3950	18.0720
 1.3960	17.6320
 1.3970	17.2050
 1.3980	16.7940
 1.3990	16.4010
 1.4000	16.0220
 1.4010	15.6550
 1.4020	15.3030
 1.4030	14.9650
 1.4040	14.6460
 1.4050	14.3500
 1.4060	14.0720
 1.4070	13.8110
 1.4080	13.5690
 1.4090	13.3400
 1.4100	13.1280
 1.4110	12.9330
 1.4120	12.7530
 1.4130	12.5870
 1.4140	12.4370
 1.4150	12.3000
 1.4160	12.1770
 1.4170	12.0660
 1.4180	11.9650
 1.4190	11.8730
 1.4200	11.7930
 1.4210	11.7240
 1.4220	11.6610
 1.4230	11.6040
 1.4240	11.5530
 1.4250	11.5070
 1.4260	11.4650
 1.4270	11.4300
 1.4280	11.4040
 1.4290	11.3810
 1.4300	11.3640
 1.4310	11.3490
 1.4320	11.3400
 1.4330	11.3290
 1.4340	11.3180
 1.4350	11.3120
 1.4360	11.3090
 1.4370	11.3080
 1.4380	11.3130
 1.4390	11.3200
 1.4400	11.3240
 1.4410	11.3330
 1.4420	11.3470
 1.4430	11.3610
 1.4440	11.3790
 1.4450	11.3930
 1.4460	11.4060
 1.4470	11.4200
 1.4480	11.4370
 1.4490	11.4560
 1.4500	11.4710
 1.4510	11.4840
 1.4520	11.4990
 1.4530	11.5140
 1.4540	11.5360
 1.4550	11.5600
 1.4560	11.5810
 1.4570	11.6040
 1.4580	11.6280
 1.4590	11.6520
 1.4600	11.6810
 1.4610	11.7100
 1.4620	11.7400
 1.4630	11.7760
 1.4640	11.8120
 1.4650	11.8490
 1.4660	11.8910
 1.4670	11.9340
 1.4680	11.9760
