Name: Cedrus deodara
Type: vegetation
Class: Tree
Genus: Cedrus
Species: deodara
Sample No.: JPL104
Owner: JPL
Wavelength Range: VSWIR
Origin: 34.12812; - 118.11567; WGS84
Collection Date: 2/2/2016
Description: Samples were collected at the Huntington Garden in San Marino California as part of a JPL Subcontract studying HyTES imagery. Samples were taken to JPL and processed within 48 hours of collection. The same leaves were processed in the Nicolet and then measured using the ASD.
Measurement: Bidirectional reflectance
First Column: X
Second Column: Y
X Units: Wavelength (micrometer)
Y Units: Reflectance (percentage)
First X Value: 0.35
Last X Value: 2.5
Number of X Values: 2151
Additional Information: 

 0.3500	 6.7010
 0.3510	 4.8160
 0.3520	 4.0110
 0.3530	 4.1700
 0.3540	 4.3650
 0.3550	 4.1210
 0.3560	 4.3880
 0.3570	 4.5440
 0.3580	 3.5590
 0.3590	 4.4300
 0.3600	 4.5200
 0.3610	 3.3250
 0.3620	 3.9990
 0.3630	 4.4660
 0.3640	 4.1740
 0.3650	 3.3180
 0.3660	 3.4360
 0.3670	 3.7570
 0.3680	 4.1690
 0.3690	 4.9300
 0.3700	 4.3570
 0.3710	 4.0160
 0.3720	 4.6330
 0.3730	 4.6540
 0.3740	 3.9750
 0.3750	 3.6870
 0.3760	 4.6030
 0.3770	 4.2550
 0.3780	 3.4770
 0.3790	 3.0250
 0.3800	 3.3450
 0.3810	 3.8260
 0.3820	 4.3160
 0.3830	 4.6380
 0.3840	 4.2980
 0.3850	 4.0360
 0.3860	 4.2670
 0.3870	 4.9470
 0.3880	 4.2700
 0.3890	 3.7210
 0.3900	 3.8270
 0.3910	 3.8990
 0.3920	 3.9990
 0.3930	 4.2030
 0.3940	 4.4500
 0.3950	 4.2850
 0.3960	 3.9560
 0.3970	 3.8510
 0.3980	 4.2390
 0.3990	 4.0490
 0.4000	 3.9890
 0.4010	 4.2150
 0.4020	 3.9560
 0.4030	 3.9430
 0.4040	 4.0150
 0.4050	 3.9460
 0.4060	 4.0750
 0.4070	 4.0700
 0.4080	 3.9270
 0.4090	 3.8620
 0.4100	 3.9510
 0.4110	 4.1410
 0.4120	 4.3070
 0.4130	 4.2140
 0.4140	 4.2860
 0.4150	 4.2330
 0.4160	 3.7980
 0.4170	 4.0220
 0.4180	 4.2320
 0.4190	 4.2180
 0.4200	 4.2730
 0.4210	 4.3340
 0.4220	 4.2970
 0.4230	 4.1450
 0.4240	 4.0630
 0.4250	 4.2180
 0.4260	 4.3880
 0.4270	 4.2500
 0.4280	 4.2550
 0.4290	 4.3800
 0.4300	 4.5180
 0.4310	 4.5140
 0.4320	 4.4210
 0.4330	 4.3800
 0.4340	 4.4700
 0.4350	 4.4590
 0.4360	 4.5020
 0.4370	 4.5840
 0.4380	 4.5650
 0.4390	 4.5020
 0.4400	 4.4350
 0.4410	 4.4060
 0.4420	 4.4730
 0.4430	 4.5420
 0.4440	 4.5400
 0.4450	 4.4450
 0.4460	 4.4660
 0.4470	 4.4880
 0.4480	 4.4600
 0.4490	 4.4400
 0.4500	 4.5010
 0.4510	 4.5470
 0.4520	 4.5090
 0.4530	 4.5730
 0.4540	 4.5560
 0.4550	 4.4870
 0.4560	 4.5180
 0.4570	 4.4940
 0.4580	 4.4700
 0.4590	 4.4780
 0.4600	 4.4410
 0.4610	 4.5030
 0.4620	 4.5740
 0.4630	 4.5250
 0.4640	 4.4410
 0.4650	 4.4760
 0.4660	 4.5820
 0.4670	 4.5130
 0.4680	 4.5260
 0.4690	 4.5150
 0.4700	 4.4100
 0.4710	 4.4710
 0.4720	 4.4890
 0.4730	 4.4450
 0.4740	 4.4290
 0.4750	 4.5020
 0.4760	 4.5350
 0.4770	 4.4820
 0.4780	 4.4670
 0.4790	 4.4280
 0.4800	 4.4030
 0.4810	 4.4370
 0.4820	 4.4890
 0.4830	 4.4890
 0.4840	 4.4450
 0.4850	 4.4320
 0.4860	 4.4460
 0.4870	 4.4410
 0.4880	 4.4100
 0.4890	 4.4870
 0.4900	 4.4930
 0.4910	 4.4430
 0.4920	 4.4420
 0.4930	 4.5290
 0.4940	 4.5460
 0.4950	 4.4650
 0.4960	 4.4660
 0.4970	 4.4740
 0.4980	 4.4940
 0.4990	 4.5400
 0.5000	 4.5690
 0.5010	 4.5350
 0.5020	 4.4670
 0.5030	 4.4560
 0.5040	 4.5320
 0.5050	 4.5930
 0.5060	 4.5910
 0.5070	 4.6540
 0.5080	 4.6870
 0.5090	 4.6980
 0.5100	 4.7340
 0.5110	 4.7910
 0.5120	 4.8320
 0.5130	 4.8650
 0.5140	 4.9670
 0.5150	 5.0460
 0.5160	 5.0880
 0.5170	 5.1220
 0.5180	 5.2360
 0.5190	 5.3070
 0.5200	 5.3520
 0.5210	 5.4890
 0.5220	 5.5540
 0.5230	 5.6170
 0.5240	 5.7250
 0.5250	 5.7880
 0.5260	 5.8540
 0.5270	 5.9290
 0.5280	 5.9990
 0.5290	 6.0590
 0.5300	 6.1480
 0.5310	 6.2420
 0.5320	 6.2360
 0.5330	 6.2600
 0.5340	 6.3140
 0.5350	 6.3630
 0.5360	 6.3940
 0.5370	 6.4150
 0.5380	 6.4440
 0.5390	 6.5010
 0.5400	 6.5370
 0.5410	 6.5690
 0.5420	 6.6120
 0.5430	 6.6620
 0.5440	 6.7100
 0.5450	 6.7290
 0.5460	 6.6990
 0.5470	 6.6660
 0.5480	 6.6450
 0.5490	 6.6400
 0.5500	 6.6450
 0.5510	 6.6300
 0.5520	 6.6190
 0.5530	 6.6320
 0.5540	 6.6250
 0.5550	 6.6020
 0.5560	 6.5710
 0.5570	 6.5470
 0.5580	 6.5060
 0.5590	 6.4440
 0.5600	 6.3750
 0.5610	 6.3590
 0.5620	 6.3350
 0.5630	 6.2880
 0.5640	 6.2250
 0.5650	 6.1670
 0.5660	 6.1310
 0.5670	 6.0960
 0.5680	 5.9970
 0.5690	 5.9400
 0.5700	 5.9030
 0.5710	 5.8450
 0.5720	 5.7530
 0.5730	 5.6790
 0.5740	 5.6420
 0.5750	 5.6290
 0.5760	 5.5950
 0.5770	 5.5550
 0.5780	 5.5180
 0.5790	 5.4680
 0.5800	 5.4390
 0.5810	 5.4130
 0.5820	 5.3660
 0.5830	 5.3550
 0.5840	 5.3470
 0.5850	 5.3260
 0.5860	 5.2960
 0.5870	 5.2790
 0.5880	 5.2620
 0.5890	 5.2320
 0.5900	 5.2070
 0.5910	 5.1780
 0.5920	 5.1630
 0.5930	 5.1870
 0.5940	 5.1700
 0.5950	 5.1410
 0.5960	 5.1230
 0.5970	 5.0980
 0.5980	 5.1010
 0.5990	 5.1080
 0.6000	 5.0900
 0.6010	 5.0680
 0.6020	 5.0650
 0.6030	 5.0670
 0.6040	 5.0240
 0.6050	 4.9880
 0.6060	 4.9630
 0.6070	 4.9490
 0.6080	 4.9500
 0.6090	 4.9400
 0.6100	 4.9300
 0.6110	 4.9400
 0.6120	 4.9100
 0.6130	 4.8590
 0.6140	 4.8100
 0.6150	 4.7880
 0.6160	 4.7490
 0.6170	 4.7020
 0.6180	 4.6710
 0.6190	 4.6790
 0.6200	 4.6690
 0.6210	 4.6400
 0.6220	 4.6370
 0.6230	 4.6130
 0.6240	 4.5930
 0.6250	 4.5990
 0.6260	 4.6160
 0.6270	 4.5970
 0.6280	 4.5650
 0.6290	 4.5620
 0.6300	 4.5580
 0.6310	 4.5670
 0.6320	 4.5810
 0.6330	 4.5640
 0.6340	 4.5480
 0.6350	 4.5320
 0.6360	 4.5120
 0.6370	 4.4920
 0.6380	 4.4880
 0.6390	 4.4800
 0.6400	 4.4380
 0.6410	 4.4220
 0.6420	 4.4060
 0.6430	 4.3800
 0.6440	 4.3700
 0.6450	 4.3640
 0.6460	 4.3510
 0.6470	 4.3220
 0.6480	 4.2850
 0.6490	 4.2520
 0.6500	 4.2380
 0.6510	 4.2580
 0.6520	 4.2300
 0.6530	 4.2110
 0.6540	 4.2290
 0.6550	 4.1950
 0.6560	 4.1880
 0.6570	 4.1890
 0.6580	 4.1580
 0.6590	 4.1440
 0.6600	 4.1350
 0.6610	 4.1240
 0.6620	 4.1130
 0.6630	 4.0760
 0.6640	 4.0520
 0.6650	 4.0700
 0.6660	 4.1010
 0.6670	 4.0880
 0.6680	 4.0510
 0.6690	 4.0420
 0.6700	 4.0380
 0.6710	 4.0400
 0.6720	 4.0470
 0.6730	 4.0500
 0.6740	 4.0580
 0.6750	 4.0610
 0.6760	 4.0560
 0.6770	 4.0700
 0.6780	 4.1080
 0.6790	 4.1390
 0.6800	 4.1220
 0.6810	 4.1470
 0.6820	 4.1780
 0.6830	 4.1900
 0.6840	 4.2030
 0.6850	 4.2360
 0.6860	 4.2770
 0.6870	 4.3150
 0.6880	 4.3830
 0.6890	 4.4430
 0.6900	 4.5020
 0.6910	 4.6050
 0.6920	 4.7080
 0.6930	 4.8420
 0.6940	 5.0200
 0.6950	 5.1890
 0.6960	 5.4050
 0.6970	 5.6640
 0.6980	 5.9430
 0.6990	 6.2550
 0.7000	 6.5930
 0.7010	 6.9520
 0.7020	 7.3300
 0.7030	 7.7330
 0.7040	 8.1560
 0.7050	 8.5980
 0.7060	 9.0660
 0.7070	 9.5490
 0.7080	10.0430
 0.7090	10.5490
 0.7100	11.0530
 0.7110	11.5940
 0.7120	12.1780
 0.7130	12.7790
 0.7140	13.3700
 0.7150	13.9800
 0.7160	14.6250
 0.7170	15.2800
 0.7180	15.9460
 0.7190	16.6230
 0.7200	17.3130
 0.7210	18.0310
 0.7220	18.7600
 0.7230	19.4990
 0.7240	20.2660
 0.7250	21.0100
 0.7260	21.7420
 0.7270	22.4770
 0.7280	23.2060
 0.7290	23.9490
 0.7300	24.6840
 0.7310	25.3800
 0.7320	26.0660
 0.7330	26.7480
 0.7340	27.4150
 0.7350	28.0450
 0.7360	28.6580
 0.7370	29.2600
 0.7380	29.8470
 0.7390	30.3910
 0.7400	30.9060
 0.7410	31.4010
 0.7420	31.8820
 0.7430	32.3330
 0.7440	32.7500
 0.7450	33.1430
 0.7460	33.5330
 0.7470	33.8790
 0.7480	34.1980
 0.7490	34.5050
 0.7500	34.7840
 0.7510	35.0420
 0.7520	35.2810
 0.7530	35.5020
 0.7540	35.7040
 0.7550	35.8780
 0.7560	36.0410
 0.7570	36.2170
 0.7580	36.3570
 0.7590	36.4840
 0.7600	36.6120
 0.7610	36.7170
 0.7620	36.8050
 0.7630	36.8880
 0.7640	36.9760
 0.7650	37.0490
 0.7660	37.1170
 0.7670	37.1800
 0.7680	37.2360
 0.7690	37.2800
 0.7700	37.3310
 0.7710	37.3820
 0.7720	37.3840
 0.7730	37.4230
 0.7740	37.4740
 0.7750	37.5040
 0.7760	37.5300
 0.7770	37.5610
 0.7780	37.5880
 0.7790	37.5990
 0.7800	37.6260
 0.7810	37.6620
 0.7820	37.6930
 0.7830	37.7010
 0.7840	37.7240
 0.7850	37.7500
 0.7860	37.7680
 0.7870	37.7830
 0.7880	37.7880
 0.7890	37.7940
 0.7900	37.8150
 0.7910	37.8480
 0.7920	37.8610
 0.7930	37.8520
 0.7940	37.8450
 0.7950	37.8680
 0.7960	37.8940
 0.7970	37.9040
 0.7980	37.9030
 0.7990	37.9150
 0.8000	37.9360
 0.8010	37.9530
 0.8020	37.9550
 0.8030	37.9580
 0.8040	37.9630
 0.8050	37.9670
 0.8060	37.9750
 0.8070	37.9760
 0.8080	37.9770
 0.8090	37.9950
 0.8100	38.0130
 0.8110	38.0260
 0.8120	38.0360
 0.8130	38.0410
 0.8140	38.0390
 0.8150	38.0410
 0.8160	38.0570
 0.8170	38.0730
 0.8180	38.0840
 0.8190	38.0920
 0.8200	38.1040
 0.8210	38.1170
 0.8220	38.1240
 0.8230	38.1290
 0.8240	38.1410
 0.8250	38.1410
 0.8260	38.1380
 0.8270	38.1440
 0.8280	38.1700
 0.8290	38.1650
 0.8300	38.1600
 0.8310	38.1830
 0.8320	38.1980
 0.8330	38.1970
 0.8340	38.1910
 0.8350	38.2010
 0.8360	38.2370
 0.8370	38.2620
 0.8380	38.2650
 0.8390	38.2590
 0.8400	38.2810
 0.8410	38.3100
 0.8420	38.3300
 0.8430	38.3410
 0.8440	38.3640
 0.8450	38.3750
 0.8460	38.3660
 0.8470	38.3940
 0.8480	38.4360
 0.8490	38.4760
 0.8500	38.4980
 0.8510	38.4880
 0.8520	38.4920
 0.8530	38.5130
 0.8540	38.5320
 0.8550	38.5620
 0.8560	38.5820
 0.8570	38.5930
 0.8580	38.6140
 0.8590	38.6380
 0.8600	38.6450
 0.8610	38.6350
 0.8620	38.6380
 0.8630	38.6400
 0.8640	38.6540
 0.8650	38.6900
 0.8660	38.7420
 0.8670	38.7640
 0.8680	38.7630
 0.8690	38.7650
 0.8700	38.7600
 0.8710	38.7710
 0.8720	38.7960
 0.8730	38.8180
 0.8740	38.8320
 0.8750	38.8390
 0.8760	38.8520
 0.8770	38.8880
 0.8780	38.8750
 0.8790	38.8740
 0.8800	38.9080
 0.8810	38.9140
 0.8820	38.8900
 0.8830	38.8920
 0.8840	38.9380
 0.8850	38.9370
 0.8860	38.9530
 0.8870	38.9720
 0.8880	38.9690
 0.8890	38.9690
 0.8900	38.9660
 0.8910	38.9660
 0.8920	38.9750
 0.8930	38.9850
 0.8940	39.0090
 0.8950	39.0190
 0.8960	38.9800
 0.8970	38.9620
 0.8980	38.9840
 0.8990	39.0210
 0.9000	39.0210
 0.9010	39.0070
 0.9020	39.0070
 0.9030	39.0200
 0.9040	39.0170
 0.9050	39.0560
 0.9060	39.0590
 0.9070	39.0020
 0.9080	39.0090
 0.9090	39.0100
 0.9100	38.9940
 0.9110	38.9740
 0.9120	38.9960
 0.9130	39.0240
 0.9140	39.0430
 0.9150	39.0440
 0.9160	38.9940
 0.9170	38.9600
 0.9180	38.9790
 0.9190	39.0410
 0.9200	39.0030
 0.9210	38.9530
 0.9220	38.9350
 0.9230	38.9540
 0.9240	38.9450
 0.9250	38.9280
 0.9260	38.9240
 0.9270	38.9370
 0.9280	38.8760
 0.9290	38.8230
 0.9300	38.8020
 0.9310	38.7750
 0.9320	38.7600
 0.9330	38.7360
 0.9340	38.7060
 0.9350	38.7010
 0.9360	38.6330
 0.9370	38.5520
 0.9380	38.5180
 0.9390	38.5490
 0.9400	38.4970
 0.9410	38.4360
 0.9420	38.4080
 0.9430	38.3200
 0.9440	38.2480
 0.9450	38.2320
 0.9460	38.2470
 0.9470	38.1710
 0.9480	38.0760
 0.9490	37.9900
 0.9500	37.9110
 0.9510	37.7790
 0.9520	37.6910
 0.9530	37.6220
 0.9540	37.5290
 0.9550	37.4230
 0.9560	37.3100
 0.9570	37.2210
 0.9580	37.1690
 0.9590	37.1000
 0.9600	36.9950
 0.9610	36.9110
 0.9620	36.8990
 0.9630	36.8830
 0.9640	36.8130
 0.9650	36.7210
 0.9660	36.6730
 0.9670	36.7210
 0.9680	36.6930
 0.9690	36.6020
 0.9700	36.5440
 0.9710	36.5500
 0.9720	36.5830
 0.9730	36.5820
 0.9740	36.5090
 0.9750	36.4380
 0.9760	36.4530
 0.9770	36.4860
 0.9780	36.4440
 0.9790	36.5050
 0.9800	36.5510
 0.9810	36.5670
 0.9820	36.5790
 0.9830	36.4730
 0.9840	36.4490
 0.9850	36.4970
 0.9860	36.5090
 0.9870	36.4780
 0.9880	36.5310
 0.9890	36.6470
 0.9900	36.7280
 0.9910	36.7370
 0.9920	36.6590
 0.9930	36.6460
 0.9940	36.8220
 0.9950	36.8410
 0.9960	36.7510
 0.9970	36.7040
 0.9980	36.8110
 0.9990	36.8310
 1.0000	36.9660
 1.0010	37.4150
 1.0020	37.4490
 1.0030	37.4890
 1.0040	37.5190
 1.0050	37.5260
 1.0060	37.5430
 1.0070	37.5790
 1.0080	37.6100
 1.0090	37.6320
 1.0100	37.6770
 1.0110	37.7300
 1.0120	37.7850
 1.0130	37.8650
 1.0140	37.9250
 1.0150	37.9730
 1.0160	38.0420
 1.0170	38.0880
 1.0180	38.1060
 1.0190	38.1360
 1.0200	38.1650
 1.0210	38.1880
 1.0220	38.2420
 1.0230	38.2940
 1.0240	38.3700
 1.0250	38.4060
 1.0260	38.4200
 1.0270	38.4560
 1.0280	38.4790
 1.0290	38.5180
 1.0300	38.5870
 1.0310	38.6430
 1.0320	38.7070
 1.0330	38.7340
 1.0340	38.7850
 1.0350	38.8160
 1.0360	38.8150
 1.0370	38.8440
 1.0380	38.8730
 1.0390	38.9040
 1.0400	38.9330
 1.0410	38.9670
 1.0420	39.0020
 1.0430	39.0370
 1.0440	39.0660
 1.0450	39.1030
 1.0460	39.1380
 1.0470	39.1580
 1.0480	39.1890
 1.0490	39.2350
 1.0500	39.2740
 1.0510	39.3180
 1.0520	39.3540
 1.0530	39.3880
 1.0540	39.4180
 1.0550	39.4470
 1.0560	39.4830
 1.0570	39.4910
 1.0580	39.4690
 1.0590	39.4750
 1.0600	39.4600
 1.0610	39.4760
 1.0620	39.5470
 1.0630	39.5750
 1.0640	39.5940
 1.0650	39.6070
 1.0660	39.5840
 1.0670	39.5860
 1.0680	39.5970
 1.0690	39.6260
 1.0700	39.6260
 1.0710	39.6300
 1.0720	39.6230
 1.0730	39.5800
 1.0740	39.5780
 1.0750	39.5940
 1.0760	39.6080
 1.0770	39.6440
 1.0780	39.6640
 1.0790	39.6770
 1.0800	39.6920
 1.0810	39.7170
 1.0820	39.7190
 1.0830	39.7020
 1.0840	39.6950
 1.0850	39.6770
 1.0860	39.6650
 1.0870	39.6470
 1.0880	39.6400
 1.0890	39.6210
 1.0900	39.5820
 1.0910	39.5690
 1.0920	39.5710
 1.0930	39.5630
 1.0940	39.5720
 1.0950	39.5580
 1.0960	39.5240
 1.0970	39.4990
 1.0980	39.4580
 1.0990	39.4340
 1.1000	39.4240
 1.1010	39.4100
 1.1020	39.3910
 1.1030	39.3960
 1.1040	39.3900
 1.1050	39.3720
 1.1060	39.3560
 1.1070	39.3410
 1.1080	39.3120
 1.1090	39.2720
 1.1100	39.2360
 1.1110	39.1850
 1.1120	39.1520
 1.1130	39.1330
 1.1140	39.1060
 1.1150	39.0850
 1.1160	39.0600
 1.1170	39.0410
 1.1180	39.0030
 1.1190	38.9590
 1.1200	38.8980
 1.1210	38.8480
 1.1220	38.7800
 1.1230	38.7090
 1.1240	38.6420
 1.1250	38.5600
 1.1260	38.4620
 1.1270	38.3600
 1.1280	38.2560
 1.1290	38.1410
 1.1300	38.0160
 1.1310	37.8810
 1.1320	37.7440
 1.1330	37.5900
 1.1340	37.4140
 1.1350	37.2420
 1.1360	37.0650
 1.1370	36.8830
 1.1380	36.7010
 1.1390	36.5050
 1.1400	36.2890
 1.1410	36.0750
 1.1420	35.8610
 1.1430	35.6390
 1.1440	35.4200
 1.1450	35.2020
 1.1460	34.9840
 1.1470	34.7550
 1.1480	34.5530
 1.1490	34.3580
 1.1500	34.1770
 1.1510	34.0200
 1.1520	33.8570
 1.1530	33.6940
 1.1540	33.5450
 1.1550	33.4050
 1.1560	33.2580
 1.1570	33.1360
 1.1580	33.0410
 1.1590	32.9470
 1.1600	32.8730
 1.1610	32.7960
 1.1620	32.7090
 1.1630	32.6350
 1.1640	32.5660
 1.1650	32.5090
 1.1660	32.4700
 1.1670	32.4260
 1.1680	32.3900
 1.1690	32.3470
 1.1700	32.2970
 1.1710	32.2570
 1.1720	32.2180
 1.1730	32.1860
 1.1740	32.1650
 1.1750	32.1410
 1.1760	32.1170
 1.1770	32.0960
 1.1780	32.0610
 1.1790	32.0270
 1.1800	31.9910
 1.1810	31.9450
 1.1820	31.9080
 1.1830	31.8710
 1.1840	31.8340
 1.1850	31.8090
 1.1860	31.7740
 1.1870	31.7370
 1.1880	31.7050
 1.1890	31.6670
 1.1900	31.6390
 1.1910	31.6200
 1.1920	31.6020
 1.1930	31.5890
 1.1940	31.5790
 1.1950	31.5700
 1.1960	31.5700
 1.1970	31.5680
 1.1980	31.5570
 1.1990	31.5530
 1.2000	31.5460
 1.2010	31.5380
 1.2020	31.5440
 1.2030	31.5390
 1.2040	31.5370
 1.2050	31.5450
 1.2060	31.5610
 1.2070	31.5940
 1.2080	31.6280
 1.2090	31.6650
 1.2100	31.7060
 1.2110	31.7390
 1.2120	31.7650
 1.2130	31.7990
 1.2140	31.8280
 1.2150	31.8670
 1.2160	31.9200
 1.2170	31.9660
 1.2180	32.0110
 1.2190	32.0630
 1.2200	32.1080
 1.2210	32.1540
 1.2220	32.1940
 1.2230	32.2410
 1.2240	32.2890
 1.2250	32.3300
 1.2260	32.3910
 1.2270	32.4430
 1.2280	32.4870
 1.2290	32.5440
 1.2300	32.5910
 1.2310	32.6300
 1.2320	32.6660
 1.2330	32.7020
 1.2340	32.7420
 1.2350	32.7870
 1.2360	32.8330
 1.2370	32.8830
 1.2380	32.9250
 1.2390	32.9690
 1.2400	33.0040
 1.2410	33.0380
 1.2420	33.0730
 1.2430	33.0950
 1.2440	33.1230
 1.2450	33.1500
 1.2460	33.1750
 1.2470	33.2120
 1.2480	33.2440
 1.2490	33.2770
 1.2500	33.3050
 1.2510	33.3290
 1.2520	33.3460
 1.2530	33.3570
 1.2540	33.3750
 1.2550	33.3940
 1.2560	33.4140
 1.2570	33.4280
 1.2580	33.4380
 1.2590	33.4540
 1.2600	33.4730
 1.2610	33.4860
 1.2620	33.5020
 1.2630	33.5150
 1.2640	33.5130
 1.2650	33.5160
 1.2660	33.5220
 1.2670	33.5320
 1.2680	33.5440
 1.2690	33.5470
 1.2700	33.5480
 1.2710	33.5350
 1.2720	33.5240
 1.2730	33.5190
 1.2740	33.5060
 1.2750	33.5070
 1.2760	33.5040
 1.2770	33.4880
 1.2780	33.4770
 1.2790	33.4570
 1.2800	33.4410
 1.2810	33.4290
 1.2820	33.4190
 1.2830	33.4140
 1.2840	33.3930
 1.2850	33.3690
 1.2860	33.3240
 1.2870	33.2790
 1.2880	33.2210
 1.2890	33.1800
 1.2900	33.1400
 1.2910	33.1110
 1.2920	33.0790
 1.2930	33.0320
 1.2940	32.9780
 1.2950	32.9110
 1.2960	32.8450
 1.2970	32.7840
 1.2980	32.7130
 1.2990	32.6480
 1.3000	32.5820
 1.3010	32.5080
 1.3020	32.4340
 1.3030	32.3410
 1.3040	32.2460
 1.3050	32.1550
 1.3060	32.0560
 1.3070	31.9710
 1.3080	31.8860
 1.3090	31.7880
 1.3100	31.6870
 1.3110	31.5770
 1.3120	31.4700
 1.3130	31.3590
 1.3140	31.2400
 1.3150	31.1220
 1.3160	30.9900
 1.3170	30.8450
 1.3180	30.7000
 1.3190	30.5530
 1.3200	30.4040
 1.3210	30.2680
 1.3220	30.1240
 1.3230	29.9740
 1.3240	29.8290
 1.3250	29.6740
 1.3260	29.5150
 1.3270	29.3630
 1.3280	29.2000
 1.3290	29.0290
 1.3300	28.8590
 1.3310	28.6840
 1.3320	28.5140
 1.3330	28.3470
 1.3340	28.1780
 1.3350	28.0110
 1.3360	27.8460
 1.3370	27.6790
 1.3380	27.5150
 1.3390	27.3520
 1.3400	27.1830
 1.3410	27.0170
 1.3420	26.8560
 1.3430	26.7050
 1.3440	26.5570
 1.3450	26.4080
 1.3460	26.2590
 1.3470	26.1150
 1.3480	25.9670
 1.3490	25.8290
 1.3500	25.6990
 1.3510	25.5730
 1.3520	25.4410
 1.3530	25.3040
 1.3540	25.1660
 1.3550	25.0250
 1.3560	24.8940
 1.3570	24.7770
 1.3580	24.6560
 1.3590	24.5280
 1.3600	24.3890
 1.3610	24.2360
 1.3620	24.0830
 1.3630	23.9320
 1.3640	23.7760
 1.3650	23.6220
 1.3660	23.4600
 1.3670	23.2910
 1.3680	23.1200
 1.3690	22.9380
 1.3700	22.7400
 1.3710	22.5350
 1.3720	22.3170
 1.3730	22.0860
 1.3740	21.8500
 1.3750	21.6010
 1.3760	21.3350
 1.3770	21.0500
 1.3780	20.7420
 1.3790	20.4140
 1.3800	20.0700
 1.3810	19.7140
 1.3820	19.3520
 1.3830	18.9820
 1.3840	18.6010
 1.3850	18.2090
 1.3860	17.8080
 1.3870	17.3910
 1.3880	16.9800
 1.3890	16.5610
 1.3900	16.1480
 1.3910	15.7430
 1.3920	15.3400
 1.3930	14.9420
 1.3940	14.5460
 1.3950	14.1520
 1.3960	13.7670
 1.3970	13.3950
 1.3980	13.0380
 1.3990	12.7000
 1.4000	12.3760
 1.4010	12.0620
 1.4020	11.7570
 1.4030	11.4650
 1.4040	11.1900
 1.4050	10.9310
 1.4060	10.6910
 1.4070	10.4730
 1.4080	10.2630
 1.4090	10.0620
 1.4100	 9.8740
 1.4110	 9.6890
 1.4120	 9.5210
 1.4130	 9.3660
 1.4140	 9.2220
 1.4150	 9.0960
 1.4160	 8.9770
 1.4170	 8.8670
 1.4180	 8.7640
 1.4190	 8.6610
 1.4200	 8.5630
 1.4210	 8.4700
 1.4220	 8.3830
 1.4230	 8.3010
 1.4240	 8.2260
 1.4250	 8.1580
 1.4260	 8.0980
 1.4270	 8.0410
 1.4280	 7.9930
 1.4290	 7.9460
 1.4300	 7.9020
 1.4310	 7.8640
 1.4320	 7.8320
 1.4330	 7.8010
 1.4340	 7.7770
 1.4350	 7.7480
 1.4360	 7.7180
 1.4370	 7.6900
 1.4380	 7.6630
 1.4390	 7.6390
 1.4400	 7.6250
 1.4410	 7.6190
 1.4420	 7.6090
 1.4430	 7.6020
 1.4440	 7.5950
 1.4450	 7.5840
 1.4460	 7.5800
 1.4470	 7.5800
 1.4480	 7.5780
 1.4490	 7.5770
 1.4500	 7.5780
 1.4510	 7.5760
 1.4520	 7.5780
 1.4530	 7.5840
 1.4540	 7.5840
 1.4550	 7.5890
 1.4560	 7.5910
 1.4570	 7.5960
 1.4580	 7.6120
 1.4590	 7.6230
 1.4600	 7.6390
 1.4610	 7.6520
 1.4620	 7.6610
 1.4630	 7.6790
 1.4640	 7.6970
 1.4650	 7.7200
 1.4660	 7.7500
 1.4670	 7.7730
 1.4680	 7.7990
 1.4690	 7.8330
 1.4700	 7.8670
 1.4710	 7.9070
 1.4720	 7.9540
 1.4730	 7.9980
 1.4740	 8.0410
 1.4750	 8.0860
 1.4760	 8.1310
 1.4770	 8.1780
 1.4780	 8.2300
 1.4790	 8.2810
 1.4800	 8.3310
 1.4810	 8.3780
 1.4820	 8.4300
