Name: Peltophorum dubium
Type: vegetation
Class: Tree
Genus: Peltophorum
Species: dubium
Sample No.: JPL169
Owner: JPL
Wavelength Range: VSWIR
Origin: 34.12584; -118.11246; WGS84
Collection Date: 9/14/2016
Description: Samples were collected at the Huntington Garden in San Marino California as part of a JPL Subcontract studying HyTES imagery. Samples were taken to JPL and processed within 48 hours of collection. The same leaves were processed in the Nicolet and then measured using the ASD.
Measurement: Bidirectional reflectance
First Column: X
Second Column: Y
X Units: Wavelength (micrometer)
Y Units: Reflectance (percentage)
First X Value: 0.35
Last X Value: 2.5
Number of X Values: 2151
Additional Information: vegetation.tree.peltophorum.dubium.vswir.jpl169.jpl.asd.ancillary.txt

 0.3500	 2.7840
 0.3510	 2.8700
 0.3520	 2.9580
 0.3530	 2.9390
 0.3540	 2.8040
 0.3550	 2.8380
 0.3560	 2.9040
 0.3570	 2.9140
 0.3580	 2.8280
 0.3590	 2.7300
 0.3600	 2.6830
 0.3610	 2.7090
 0.3620	 2.7880
 0.3630	 2.8260
 0.3640	 2.8160
 0.3650	 2.7920
 0.3660	 2.8500
 0.3670	 2.8400
 0.3680	 2.7690
 0.3690	 2.7520
 0.3700	 2.7500
 0.3710	 2.7430
 0.3720	 2.7350
 0.3730	 2.7670
 0.3740	 2.7380
 0.3750	 2.6850
 0.3760	 2.6810
 0.3770	 2.7420
 0.3780	 2.7440
 0.3790	 2.6940
 0.3800	 2.7100
 0.3810	 2.7280
 0.3820	 2.7260
 0.3830	 2.7090
 0.3840	 2.7270
 0.3850	 2.6710
 0.3860	 2.6200
 0.3870	 2.6870
 0.3880	 2.7330
 0.3890	 2.7360
 0.3900	 2.7050
 0.3910	 2.6760
 0.3920	 2.7090
 0.3930	 2.7400
 0.3940	 2.7160
 0.3950	 2.6760
 0.3960	 2.6960
 0.3970	 2.7230
 0.3980	 2.6700
 0.3990	 2.6750
 0.4000	 2.6860
 0.4010	 2.6770
 0.4020	 2.6850
 0.4030	 2.6920
 0.4040	 2.7050
 0.4050	 2.7240
 0.4060	 2.7050
 0.4070	 2.6830
 0.4080	 2.6820
 0.4090	 2.7070
 0.4100	 2.7100
 0.4110	 2.7030
 0.4120	 2.6940
 0.4130	 2.6720
 0.4140	 2.6800
 0.4150	 2.6960
 0.4160	 2.6940
 0.4170	 2.7060
 0.4180	 2.7200
 0.4190	 2.7280
 0.4200	 2.7240
 0.4210	 2.7080
 0.4220	 2.7040
 0.4230	 2.7210
 0.4240	 2.7240
 0.4250	 2.7290
 0.4260	 2.7320
 0.4270	 2.7270
 0.4280	 2.7260
 0.4290	 2.7250
 0.4300	 2.7250
 0.4310	 2.7350
 0.4320	 2.7310
 0.4330	 2.7190
 0.4340	 2.7100
 0.4350	 2.7150
 0.4360	 2.7240
 0.4370	 2.7310
 0.4380	 2.7330
 0.4390	 2.7320
 0.4400	 2.7350
 0.4410	 2.7450
 0.4420	 2.7540
 0.4430	 2.7580
 0.4440	 2.7600
 0.4450	 2.7680
 0.4460	 2.7710
 0.4470	 2.7760
 0.4480	 2.7840
 0.4490	 2.7850
 0.4500	 2.7870
 0.4510	 2.7920
 0.4520	 2.8000
 0.4530	 2.8100
 0.4540	 2.8130
 0.4550	 2.8100
 0.4560	 2.8120
 0.4570	 2.8180
 0.4580	 2.8250
 0.4590	 2.8300
 0.4600	 2.8310
 0.4610	 2.8370
 0.4620	 2.8400
 0.4630	 2.8310
 0.4640	 2.8230
 0.4650	 2.8260
 0.4660	 2.8350
 0.4670	 2.8340
 0.4680	 2.8330
 0.4690	 2.8360
 0.4700	 2.8440
 0.4710	 2.8410
 0.4720	 2.8450
 0.4730	 2.8510
 0.4740	 2.8440
 0.4750	 2.8500
 0.4760	 2.8590
 0.4770	 2.8620
 0.4780	 2.8590
 0.4790	 2.8570
 0.4800	 2.8590
 0.4810	 2.8660
 0.4820	 2.8740
 0.4830	 2.8780
 0.4840	 2.8780
 0.4850	 2.8810
 0.4860	 2.8820
 0.4870	 2.8870
 0.4880	 2.8980
 0.4890	 2.9060
 0.4900	 2.9120
 0.4910	 2.9190
 0.4920	 2.9350
 0.4930	 2.9560
 0.4940	 2.9740
 0.4950	 2.9890
 0.4960	 3.0080
 0.4970	 3.0310
 0.4980	 3.0580
 0.4990	 3.0910
 0.5000	 3.1220
 0.5010	 3.1580
 0.5020	 3.2010
 0.5030	 3.2470
 0.5040	 3.3030
 0.5050	 3.3660
 0.5060	 3.4330
 0.5070	 3.5100
 0.5080	 3.5920
 0.5090	 3.6800
 0.5100	 3.7780
 0.5110	 3.8860
 0.5120	 4.0060
 0.5130	 4.1370
 0.5140	 4.2710
 0.5150	 4.4110
 0.5160	 4.5630
 0.5170	 4.7270
 0.5180	 4.8950
 0.5190	 5.0710
 0.5200	 5.2530
 0.5210	 5.4390
 0.5220	 5.6200
 0.5230	 5.8000
 0.5240	 5.9820
 0.5250	 6.1630
 0.5260	 6.3300
 0.5270	 6.4890
 0.5280	 6.6490
 0.5290	 6.7910
 0.5300	 6.9180
 0.5310	 7.0370
 0.5320	 7.1530
 0.5330	 7.2530
 0.5340	 7.3440
 0.5350	 7.4290
 0.5360	 7.5060
 0.5370	 7.5710
 0.5380	 7.6300
 0.5390	 7.6900
 0.5400	 7.7580
 0.5410	 7.8310
 0.5420	 7.9040
 0.5430	 7.9620
 0.5440	 8.0010
 0.5450	 8.0220
 0.5460	 8.0300
 0.5470	 8.0290
 0.5480	 8.0290
 0.5490	 8.0350
 0.5500	 8.0460
 0.5510	 8.0540
 0.5520	 8.0520
 0.5530	 8.0390
 0.5540	 8.0150
 0.5550	 7.9830
 0.5560	 7.9420
 0.5570	 7.8880
 0.5580	 7.8240
 0.5590	 7.7520
 0.5600	 7.6750
 0.5610	 7.5950
 0.5620	 7.5110
 0.5630	 7.4190
 0.5640	 7.3200
 0.5650	 7.2240
 0.5660	 7.1270
 0.5670	 7.0240
 0.5680	 6.9170
 0.5690	 6.8100
 0.5700	 6.7030
 0.5710	 6.5940
 0.5720	 6.4860
 0.5730	 6.3840
 0.5740	 6.2880
 0.5750	 6.1940
 0.5760	 6.1080
 0.5770	 6.0270
 0.5780	 5.9500
 0.5790	 5.8810
 0.5800	 5.8180
 0.5810	 5.7580
 0.5820	 5.6990
 0.5830	 5.6440
 0.5840	 5.5900
 0.5850	 5.5370
 0.5860	 5.4900
 0.5870	 5.4500
 0.5880	 5.4130
 0.5890	 5.3750
 0.5900	 5.3420
 0.5910	 5.3090
 0.5920	 5.2780
 0.5930	 5.2520
 0.5940	 5.2270
 0.5950	 5.2050
 0.5960	 5.1880
 0.5970	 5.1740
 0.5980	 5.1590
 0.5990	 5.1410
 0.6000	 5.1190
 0.6010	 5.0940
 0.6020	 5.0670
 0.6030	 5.0390
 0.6040	 5.0060
 0.6050	 4.9650
 0.6060	 4.9220
 0.6070	 4.8800
 0.6080	 4.8320
 0.6090	 4.7870
 0.6100	 4.7450
 0.6110	 4.7050
 0.6120	 4.6530
 0.6130	 4.5920
 0.6140	 4.5280
 0.6150	 4.4740
 0.6160	 4.4240
 0.6170	 4.3770
 0.6180	 4.3340
 0.6190	 4.2980
 0.6200	 4.2680
 0.6210	 4.2400
 0.6220	 4.2130
 0.6230	 4.1880
 0.6240	 4.1690
 0.6250	 4.1570
 0.6260	 4.1440
 0.6270	 4.1350
 0.6280	 4.1290
 0.6290	 4.1240
 0.6300	 4.1200
 0.6310	 4.1140
 0.6320	 4.1050
 0.6330	 4.0960
 0.6340	 4.0820
 0.6350	 4.0630
 0.6360	 4.0380
 0.6370	 4.0070
 0.6380	 3.9690
 0.6390	 3.9270
 0.6400	 3.8820
 0.6410	 3.8360
 0.6420	 3.7870
 0.6430	 3.7360
 0.6440	 3.6830
 0.6450	 3.6350
 0.6460	 3.5880
 0.6470	 3.5410
 0.6480	 3.5030
 0.6490	 3.4700
 0.6500	 3.4430
 0.6510	 3.4200
 0.6520	 3.3990
 0.6530	 3.3790
 0.6540	 3.3600
 0.6550	 3.3400
 0.6560	 3.3190
 0.6570	 3.2930
 0.6580	 3.2630
 0.6590	 3.2350
 0.6600	 3.2070
 0.6610	 3.1780
 0.6620	 3.1490
 0.6630	 3.1220
 0.6640	 3.0990
 0.6650	 3.0810
 0.6660	 3.0660
 0.6670	 3.0540
 0.6680	 3.0460
 0.6690	 3.0420
 0.6700	 3.0430
 0.6710	 3.0470
 0.6720	 3.0520
 0.6730	 3.0590
 0.6740	 3.0700
 0.6750	 3.0840
 0.6760	 3.1020
 0.6770	 3.1210
 0.6780	 3.1420
 0.6790	 3.1650
 0.6800	 3.1910
 0.6810	 3.2220
 0.6820	 3.2540
 0.6830	 3.2890
 0.6840	 3.3330
 0.6850	 3.3850
 0.6860	 3.4490
 0.6870	 3.5270
 0.6880	 3.6240
 0.6890	 3.7500
 0.6900	 3.9110
 0.6910	 4.1120
 0.6920	 4.3550
 0.6930	 4.6430
 0.6940	 4.9810
 0.6950	 5.3650
 0.6960	 5.7970
 0.6970	 6.2680
 0.6980	 6.7710
 0.6990	 7.3090
 0.7000	 7.8760
 0.7010	 8.4630
 0.7020	 9.0670
 0.7030	 9.6800
 0.7040	10.3010
 0.7050	10.9260
 0.7060	11.5560
 0.7070	12.1870
 0.7080	12.8180
 0.7090	13.4460
 0.7100	14.0700
 0.7110	14.6970
 0.7120	15.3240
 0.7130	15.9460
 0.7140	16.5650
 0.7150	17.1810
 0.7160	17.7950
 0.7170	18.4050
 0.7180	19.0050
 0.7190	19.5970
 0.7200	20.1800
 0.7210	20.7540
 0.7220	21.3130
 0.7230	21.8560
 0.7240	22.3870
 0.7250	22.8990
 0.7260	23.3910
 0.7270	23.8650
 0.7280	24.3180
 0.7290	24.7510
 0.7300	25.1660
 0.7310	25.5580
 0.7320	25.9330
 0.7330	26.2860
 0.7340	26.6180
 0.7350	26.9280
 0.7360	27.2200
 0.7370	27.4950
 0.7380	27.7530
 0.7390	27.9930
 0.7400	28.2150
 0.7410	28.4210
 0.7420	28.6110
 0.7430	28.7880
 0.7440	28.9500
 0.7450	29.0960
 0.7460	29.2290
 0.7470	29.3520
 0.7480	29.4630
 0.7490	29.5620
 0.7500	29.6500
 0.7510	29.7300
 0.7520	29.8060
 0.7530	29.8770
 0.7540	29.9350
 0.7550	29.9890
 0.7560	30.0390
 0.7570	30.0820
 0.7580	30.1230
 0.7590	30.1610
 0.7600	30.1950
 0.7610	30.2250
 0.7620	30.2510
 0.7630	30.2730
 0.7640	30.2940
 0.7650	30.3130
 0.7660	30.3300
 0.7670	30.3440
 0.7680	30.3560
 0.7690	30.3670
 0.7700	30.3780
 0.7710	30.3890
 0.7720	30.3980
 0.7730	30.4040
 0.7740	30.4110
 0.7750	30.4200
 0.7760	30.4270
 0.7770	30.4320
 0.7780	30.4360
 0.7790	30.4410
 0.7800	30.4490
 0.7810	30.4570
 0.7820	30.4630
 0.7830	30.4660
 0.7840	30.4700
 0.7850	30.4740
 0.7860	30.4790
 0.7870	30.4830
 0.7880	30.4860
 0.7890	30.4890
 0.7900	30.4890
 0.7910	30.4850
 0.7920	30.4850
 0.7930	30.4880
 0.7940	30.4920
 0.7950	30.4950
 0.7960	30.4940
 0.7970	30.4890
 0.7980	30.4860
 0.7990	30.4830
 0.8000	30.4820
 0.8010	30.4820
 0.8020	30.4780
 0.8030	30.4750
 0.8040	30.4710
 0.8050	30.4660
 0.8060	30.4640
 0.8070	30.4590
 0.8080	30.4530
 0.8090	30.4470
 0.8100	30.4430
 0.8110	30.4390
 0.8120	30.4330
 0.8130	30.4270
 0.8140	30.4180
 0.8150	30.4090
 0.8160	30.4020
 0.8170	30.3960
 0.8180	30.3900
 0.8190	30.3830
 0.8200	30.3740
 0.8210	30.3670
 0.8220	30.3580
 0.8230	30.3480
 0.8240	30.3390
 0.8250	30.3340
 0.8260	30.3300
 0.8270	30.3250
 0.8280	30.3150
 0.8290	30.3080
 0.8300	30.3010
 0.8310	30.2910
 0.8320	30.2840
 0.8330	30.2770
 0.8340	30.2680
 0.8350	30.2600
 0.8360	30.2570
 0.8370	30.2540
 0.8380	30.2510
 0.8390	30.2450
 0.8400	30.2390
 0.8410	30.2370
 0.8420	30.2370
 0.8430	30.2330
 0.8440	30.2300
 0.8450	30.2270
 0.8460	30.2240
 0.8470	30.2190
 0.8480	30.2200
 0.8490	30.2220
 0.8500	30.2190
 0.8510	30.2180
 0.8520	30.2180
 0.8530	30.2200
 0.8540	30.2230
 0.8550	30.2200
 0.8560	30.2170
 0.8570	30.2190
 0.8580	30.2240
 0.8590	30.2310
 0.8600	30.2340
 0.8610	30.2340
 0.8620	30.2360
 0.8630	30.2410
 0.8640	30.2460
 0.8650	30.2520
 0.8660	30.2550
 0.8670	30.2600
 0.8680	30.2660
 0.8690	30.2730
 0.8700	30.2770
 0.8710	30.2810
 0.8720	30.2880
 0.8730	30.2990
 0.8740	30.3060
 0.8750	30.3150
 0.8760	30.3270
 0.8770	30.3350
 0.8780	30.3350
 0.8790	30.3380
 0.8800	30.3470
 0.8810	30.3530
 0.8820	30.3590
 0.8830	30.3660
 0.8840	30.3750
 0.8850	30.3820
 0.8860	30.3940
 0.8870	30.4050
 0.8880	30.4110
 0.8890	30.4160
 0.8900	30.4220
 0.8910	30.4280
 0.8920	30.4360
 0.8930	30.4480
 0.8940	30.4570
 0.8950	30.4590
 0.8960	30.4580
 0.8970	30.4610
 0.8980	30.4700
 0.8990	30.4810
 0.9000	30.4890
 0.9010	30.4950
 0.9020	30.5040
 0.9030	30.5130
 0.9040	30.5190
 0.9050	30.5230
 0.9060	30.5260
 0.9070	30.5270
 0.9080	30.5350
 0.9090	30.5400
 0.9100	30.5400
 0.9110	30.5370
 0.9120	30.5470
 0.9130	30.5540
 0.9140	30.5560
 0.9150	30.5580
 0.9160	30.5620
 0.9170	30.5610
 0.9180	30.5580
 0.9190	30.5580
 0.9200	30.5620
 0.9210	30.5630
 0.9220	30.5600
 0.9230	30.5510
 0.9240	30.5500
 0.9250	30.5520
 0.9260	30.5510
 0.9270	30.5410
 0.9280	30.5350
 0.9290	30.5310
 0.9300	30.5280
 0.9310	30.5210
 0.9320	30.5110
 0.9330	30.5000
 0.9340	30.4910
 0.9350	30.4830
 0.9360	30.4700
 0.9370	30.4620
 0.9380	30.4600
 0.9390	30.4500
 0.9400	30.4320
 0.9410	30.4180
 0.9420	30.4120
 0.9430	30.4070
 0.9440	30.3910
 0.9450	30.3740
 0.9460	30.3600
 0.9470	30.3320
 0.9480	30.3120
 0.9490	30.2920
 0.9500	30.2640
 0.9510	30.2360
 0.9520	30.2110
 0.9530	30.1860
 0.9540	30.1610
 0.9550	30.1360
 0.9560	30.1080
 0.9570	30.0820
 0.9580	30.0620
 0.9590	30.0350
 0.9600	30.0120
 0.9610	29.9960
 0.9620	29.9800
 0.9630	29.9540
 0.9640	29.9360
 0.9650	29.9230
 0.9660	29.9020
 0.9670	29.8900
 0.9680	29.8800
 0.9690	29.8760
 0.9700	29.8740
 0.9710	29.8600
 0.9720	29.8430
 0.9730	29.8340
 0.9740	29.8330
 0.9750	29.8140
 0.9760	29.8100
 0.9770	29.8180
 0.9780	29.8220
 0.9790	29.8190
 0.9800	29.8140
 0.9810	29.8100
 0.9820	29.8120
 0.9830	29.8130
 0.9840	29.8060
 0.9850	29.7980
 0.9860	29.8020
 0.9870	29.8040
 0.9880	29.8040
 0.9890	29.8080
 0.9900	29.8210
 0.9910	29.8190
 0.9920	29.8130
 0.9930	29.8150
 0.9940	29.8290
 0.9950	29.8080
 0.9960	29.8120
 0.9970	29.8310
 0.9980	29.8260
 0.9990	29.8150
 1.0000	29.8140
 1.0010	30.5020
 1.0020	30.5030
 1.0030	30.5070
 1.0040	30.5080
 1.0050	30.5130
 1.0060	30.5200
 1.0070	30.5260
 1.0080	30.5330
 1.0090	30.5440
 1.0100	30.5490
 1.0110	30.5520
 1.0120	30.5580
 1.0130	30.5600
 1.0140	30.5670
 1.0150	30.5780
 1.0160	30.5860
 1.0170	30.5920
 1.0180	30.5960
 1.0190	30.6000
 1.0200	30.6060
 1.0210	30.6120
 1.0220	30.6210
 1.0230	30.6290
 1.0240	30.6370
 1.0250	30.6440
 1.0260	30.6520
 1.0270	30.6580
 1.0280	30.6630
 1.0290	30.6670
 1.0300	30.6700
 1.0310	30.6740
 1.0320	30.6790
 1.0330	30.6860
 1.0340	30.6970
 1.0350	30.7050
 1.0360	30.7120
 1.0370	30.7220
 1.0380	30.7290
 1.0390	30.7350
 1.0400	30.7400
 1.0410	30.7430
 1.0420	30.7480
 1.0430	30.7490
 1.0440	30.7540
 1.0450	30.7600
 1.0460	30.7660
 1.0470	30.7730
 1.0480	30.7770
 1.0490	30.7820
 1.0500	30.7850
 1.0510	30.7870
 1.0520	30.7880
 1.0530	30.7910
 1.0540	30.7940
 1.0550	30.7980
 1.0560	30.8030
 1.0570	30.8080
 1.0580	30.8140
 1.0590	30.8170
 1.0600	30.8200
 1.0610	30.8230
 1.0620	30.8260
 1.0630	30.8280
 1.0640	30.8320
 1.0650	30.8340
 1.0660	30.8340
 1.0670	30.8350
 1.0680	30.8360
 1.0690	30.8370
 1.0700	30.8390
 1.0710	30.8420
 1.0720	30.8440
 1.0730	30.8450
 1.0740	30.8460
 1.0750	30.8470
 1.0760	30.8460
 1.0770	30.8440
 1.0780	30.8430
 1.0790	30.8400
 1.0800	30.8400
 1.0810	30.8430
 1.0820	30.8440
 1.0830	30.8450
 1.0840	30.8440
 1.0850	30.8430
 1.0860	30.8400
 1.0870	30.8380
 1.0880	30.8350
 1.0890	30.8340
 1.0900	30.8330
 1.0910	30.8310
 1.0920	30.8280
 1.0930	30.8260
 1.0940	30.8230
 1.0950	30.8210
 1.0960	30.8200
 1.0970	30.8180
 1.0980	30.8150
 1.0990	30.8120
 1.1000	30.8070
 1.1010	30.8020
 1.1020	30.7960
 1.1030	30.7910
 1.1040	30.7860
 1.1050	30.7820
 1.1060	30.7770
 1.1070	30.7720
 1.1080	30.7670
 1.1090	30.7620
 1.1100	30.7550
 1.1110	30.7500
 1.1120	30.7410
 1.1130	30.7290
 1.1140	30.7190
 1.1150	30.7090
 1.1160	30.6990
 1.1170	30.6910
 1.1180	30.6800
 1.1190	30.6660
 1.1200	30.6530
 1.1210	30.6390
 1.1220	30.6220
 1.1230	30.6070
 1.1240	30.5890
 1.1250	30.5690
 1.1260	30.5480
 1.1270	30.5230
 1.1280	30.4940
 1.1290	30.4660
 1.1300	30.4350
 1.1310	30.4020
 1.1320	30.3690
 1.1330	30.3310
 1.1340	30.2880
 1.1350	30.2430
 1.1360	30.1940
 1.1370	30.1430
 1.1380	30.0920
 1.1390	30.0390
 1.1400	29.9840
 1.1410	29.9280
 1.1420	29.8680
 1.1430	29.8080
 1.1440	29.7480
 1.1450	29.6850
 1.1460	29.6230
 1.1470	29.5610
 1.1480	29.5010
 1.1490	29.4420
 1.1500	29.3870
 1.1510	29.3350
 1.1520	29.2840
 1.1530	29.2360
 1.1540	29.1910
 1.1550	29.1470
 1.1560	29.1060
 1.1570	29.0690
 1.1580	29.0350
 1.1590	29.0040
 1.1600	28.9780
 1.1610	28.9530
 1.1620	28.9320
 1.1630	28.9130
 1.1640	28.8950
 1.1650	28.8770
 1.1660	28.8620
 1.1670	28.8470
 1.1680	28.8330
 1.1690	28.8210
 1.1700	28.8100
 1.1710	28.8000
 1.1720	28.7910
 1.1730	28.7820
 1.1740	28.7710
 1.1750	28.7620
 1.1760	28.7520
 1.1770	28.7430
 1.1780	28.7340
 1.1790	28.7230
 1.1800	28.7120
 1.1810	28.6990
 1.1820	28.6870
 1.1830	28.6780
 1.1840	28.6670
 1.1850	28.6560
 1.1860	28.6460
 1.1870	28.6340
 1.1880	28.6230
 1.1890	28.6140
 1.1900	28.6050
 1.1910	28.5960
 1.1920	28.5890
 1.1930	28.5820
 1.1940	28.5760
 1.1950	28.5700
 1.1960	28.5660
 1.1970	28.5610
 1.1980	28.5570
 1.1990	28.5560
 1.2000	28.5550
 1.2010	28.5540
 1.2020	28.5540
 1.2030	28.5540
 1.2040	28.5570
 1.2050	28.5590
 1.2060	28.5610
 1.2070	28.5660
 1.2080	28.5710
 1.2090	28.5770
 1.2100	28.5840
 1.2110	28.5920
 1.2120	28.6010
 1.2130	28.6110
 1.2140	28.6230
 1.2150	28.6350
 1.2160	28.6470
 1.2170	28.6590
 1.2180	28.6710
 1.2190	28.6820
 1.2200	28.6950
 1.2210	28.7080
 1.2220	28.7230
 1.2230	28.7370
 1.2240	28.7510
 1.2250	28.7650
 1.2260	28.7760
 1.2270	28.7880
 1.2280	28.8020
 1.2290	28.8150
 1.2300	28.8270
 1.2310	28.8400
 1.2320	28.8500
 1.2330	28.8580
 1.2340	28.8660
 1.2350	28.8740
 1.2360	28.8820
 1.2370	28.8890
 1.2380	28.8970
 1.2390	28.9060
 1.2400	28.9140
 1.2410	28.9210
 1.2420	28.9280
 1.2430	28.9360
 1.2440	28.9420
 1.2450	28.9480
 1.2460	28.9550
 1.2470	28.9600
 1.2480	28.9640
 1.2490	28.9690
 1.2500	28.9720
 1.2510	28.9750
 1.2520	28.9770
 1.2530	28.9820
 1.2540	28.9860
 1.2550	28.9880
 1.2560	28.9900
 1.2570	28.9920
 1.2580	28.9930
 1.2590	28.9940
 1.2600	28.9940
 1.2610	28.9940
 1.2620	28.9930
 1.2630	28.9920
 1.2640	28.9900
 1.2650	28.9880
 1.2660	28.9850
 1.2670	28.9820
 1.2680	28.9790
 1.2690	28.9750
 1.2700	28.9710
 1.2710	28.9660
 1.2720	28.9600
 1.2730	28.9550
 1.2740	28.9500
 1.2750	28.9450
 1.2760	28.9400
 1.2770	28.9350
 1.2780	28.9280
 1.2790	28.9190
 1.2800	28.9110
 1.2810	28.9020
 1.2820	28.8930
 1.2830	28.8820
 1.2840	28.8700
 1.2850	28.8570
 1.2860	28.8450
 1.2870	28.8310
 1.2880	28.8170
 1.2890	28.8030
 1.2900	28.7870
 1.2910	28.7690
 1.2920	28.7510
 1.2930	28.7330
 1.2940	28.7130
 1.2950	28.6920
 1.2960	28.6710
 1.2970	28.6480
 1.2980	28.6250
 1.2990	28.6020
 1.3000	28.5770
 1.3010	28.5500
 1.3020	28.5210
 1.3030	28.4920
 1.3040	28.4610
 1.3050	28.4300
 1.3060	28.3990
 1.3070	28.3680
 1.3080	28.3350
 1.3090	28.2990
 1.3100	28.2620
 1.3110	28.2260
 1.3120	28.1870
 1.3130	28.1490
 1.3140	28.1090
 1.3150	28.0670
 1.3160	28.0240
 1.3170	27.9810
 1.3180	27.9370
 1.3190	27.8910
 1.3200	27.8430
 1.3210	27.7920
 1.3220	27.7410
 1.3230	27.6880
 1.3240	27.6340
 1.3250	27.5790
 1.3260	27.5230
 1.3270	27.4650
 1.3280	27.4060
 1.3290	27.3460
 1.3300	27.2860
 1.3310	27.2250
 1.3320	27.1620
 1.3330	27.0980
 1.3340	27.0320
 1.3350	26.9670
 1.3360	26.9010
 1.3370	26.8340
 1.3380	26.7680
 1.3390	26.7010
 1.3400	26.6350
 1.3410	26.5690
 1.3420	26.5020
 1.3430	26.4350
 1.3440	26.3680
 1.3450	26.3020
 1.3460	26.2360
 1.3470	26.1710
 1.3480	26.1060
 1.3490	26.0420
 1.3500	25.9790
 1.3510	25.9160
 1.3520	25.8540
 1.3530	25.7920
 1.3540	25.7290
 1.3550	25.6650
 1.3560	25.6020
 1.3570	25.5380
 1.3580	25.4740
 1.3590	25.4090
 1.3600	25.3430
 1.3610	25.2740
 1.3620	25.2020
 1.3630	25.1290
 1.3640	25.0530
 1.3650	24.9760
 1.3660	24.8950
 1.3670	24.8090
 1.3680	24.7170
 1.3690	24.6190
 1.3700	24.5150
 1.3710	24.4050
 1.3720	24.2860
 1.3730	24.1570
 1.3740	24.0200
 1.3750	23.8730
 1.3760	23.7150
 1.3770	23.5450
 1.3780	23.3600
 1.3790	23.1640
 1.3800	22.9550
 1.3810	22.7290
 1.3820	22.4930
 1.3830	22.2450
 1.3840	21.9830
 1.3850	21.7100
 1.3860	21.4260
 1.3870	21.1270
 1.3880	20.8240
 1.3890	20.5100
 1.3900	20.1890
 1.3910	19.8650
 1.3920	19.5340
 1.3930	19.1970
 1.3940	18.8590
 1.3950	18.5160
 1.3960	18.1760
 1.3970	17.8390
 1.3980	17.5050
 1.3990	17.1800
 1.4000	16.8600
 1.4010	16.5460
 1.4020	16.2420
 1.4030	15.9460
 1.4040	15.6610
 1.4050	15.3880
 1.4060	15.1240
 1.4070	14.8750
 1.4080	14.6390
 1.4090	14.4140
 1.4100	14.2030
 1.4110	14.0020
 1.4120	13.8120
 1.4130	13.6340
 1.4140	13.4690
 1.4150	13.3170
 1.4160	13.1760
 1.4170	13.0440
 1.4180	12.9220
 1.4190	12.8070
 1.4200	12.7010
 1.4210	12.6040
 1.4220	12.5140
 1.4230	12.4310
 1.4240	12.3560
 1.4250	12.2860
 1.4260	12.2230
 1.4270	12.1640
 1.4280	12.1120
 1.4290	12.0620
 1.4300	12.0170
 1.4310	11.9770
 1.4320	11.9420
 1.4330	11.9090
 1.4340	11.8810
 1.4350	11.8560
 1.4360	11.8330
 1.4370	11.8130
 1.4380	11.7950
 1.4390	11.7800
 1.4400	11.7680
 1.4410	11.7580
 1.4420	11.7500
 1.4430	11.7440
 1.4440	11.7390
 1.4450	11.7360
 1.4460	11.7350
 1.4470	11.7360
 1.4480	11.7380
 1.4490	11.7400
 1.4500	11.7440
 1.4510	11.7490
 1.4520	11.7540
 1.4530	11.7620
 1.4540	11.7710
 1.4550	11.7810
 1.4560	11.7930
 1.4570	11.8070
 1.4580	11.8230
 1.4590	11.8410
 1.4600	11.8610
 1.4610	11.8830
 1.4620	11.9080
 1.4630	11.9360
 1.4640	11.9670
 1.4650	12.0020
 1.4660	12.0400
 1.4670	12.0800
 1.4680	12.1240
 1.4690	12.1700
 1.4700	12.2200
 1.4710	12.2740
 1.4720	12.3290
 1.4730	12.3870
 1.4740	12.4470
 1.4750	12.5090
 1.4760	12.5740
 1.4770	12.6400
