Name: Adenostoma fasciculatum 3
Type: vegetation
Class: Shrub
Genus: Adenostoma
Species: fasciculatum
Sample No.: VH222
Owner: UCSB
Wavelength Range: TIR
Origin: 34.5084; -119.7686; WGS84
Collection Date: 10/13/2013
Description: Samples were collected as part of the HyspIRI Airborne Campaign. 48 individual plants were sampled in three times in 2013 - spring  summer  and fall. The name of the sample includes a 1  2  or 3 which references a different individual of the species. Samples were taken to JPL and processed within 48 hours of collection. The same leaves were processed in the Nicolet and then measured using the ASD.
Measurement: Hemispherical reflectance
First Column: X
Second Column: Y
X Units: Wavelength (micrometers)
Y Units: Reflectance (percentage)
First X Value: 2.501
Last X Value: 15.387
Number of X Values: 1737
Additional Information: vegetation.shrub.adenostoma.fasciculatum.tir.vh222.ucsb.nicolet.ancillary.txt

 2.5010	 6.2400
 2.5030	 5.9030
 2.5040	 6.0120
 2.5050	 6.2890
 2.5060	 6.2000
 2.5070	 6.1660
 2.5090	 6.2330
 2.5100	 6.2660
 2.5110	 6.1840
 2.5120	 6.1440
 2.5140	 6.3710
 2.5150	 6.3310
 2.5160	 6.2780
 2.5170	 6.2330
 2.5180	 6.1770
 2.5200	 6.0120
 2.5210	 6.2260
 2.5220	 6.3100
 2.5230	 6.4170
 2.5250	 6.2430
 2.5260	 6.0160
 2.5270	 6.2210
 2.5280	 6.4380
 2.5290	 6.2140
 2.5310	 6.2180
 2.5320	 6.1760
 2.5330	 6.1380
 2.5340	 6.2520
 2.5360	 6.3220
 2.5370	 6.1930
 2.5380	 6.2440
 2.5390	 6.3180
 2.5410	 6.3960
 2.5420	 6.3210
 2.5430	 6.2580
 2.5440	 6.3220
 2.5460	 6.3730
 2.5470	 6.3610
 2.5480	 6.2310
 2.5490	 6.1990
 2.5510	 6.2240
 2.5520	 6.2140
 2.5530	 6.3120
 2.5540	 6.2380
 2.5560	 6.3060
 2.5570	 6.3800
 2.5580	 6.3840
 2.5590	 6.4090
 2.5610	 6.3590
 2.5620	 6.2060
 2.5630	 6.2150
 2.5640	 6.4700
 2.5660	 6.5840
 2.5670	 6.5960
 2.5680	 6.4320
 2.5700	 6.3730
 2.5710	 6.4120
 2.5720	 6.3110
 2.5730	 6.4080
 2.5750	 6.4370
 2.5760	 6.4380
 2.5770	 6.3300
 2.5790	 6.3110
 2.5800	 6.1350
 2.5810	 6.1490
 2.5820	 6.4040
 2.5840	 6.6860
 2.5850	 6.8900
 2.5860	 6.8390
 2.5880	 6.7060
 2.5890	 6.5940
 2.5900	 6.3400
 2.5910	 6.3890
 2.5930	 6.4910
 2.5940	 6.5820
 2.5950	 6.5440
 2.5970	 6.4450
 2.5980	 6.3850
 2.5990	 6.5580
 2.6000	 6.4260
 2.6020	 6.5210
 2.6030	 6.5330
 2.6040	 6.3570
 2.6060	 6.3050
 2.6070	 6.2830
 2.6080	 6.1390
 2.6100	 6.1870
 2.6110	 6.2230
 2.6120	 6.2290
 2.6140	 6.2360
 2.6150	 6.1250
 2.6160	 6.0460
 2.6180	 6.0990
 2.6190	 6.1700
 2.6200	 6.1640
 2.6220	 6.1040
 2.6230	 6.0040
 2.6240	 5.9910
 2.6260	 5.9690
 2.6270	 5.8750
 2.6280	 5.8670
 2.6300	 6.0250
 2.6310	 6.1500
 2.6320	 5.9700
 2.6340	 5.6770
 2.6350	 5.5930
 2.6360	 5.7970
 2.6380	 5.8560
 2.6390	 5.8700
 2.6400	 5.7580
 2.6420	 5.5950
 2.6430	 5.5760
 2.6440	 5.6420
 2.6460	 5.6500
 2.6470	 5.6860
 2.6480	 5.6520
 2.6500	 5.5300
 2.6510	 5.3980
 2.6520	 5.3950
 2.6540	 5.2560
 2.6550	 5.2260
 2.6560	 5.3190
 2.6580	 5.4110
 2.6590	 5.2500
 2.6610	 5.3280
 2.6620	 5.3850
 2.6630	 5.3840
 2.6650	 5.3340
 2.6660	 5.4710
 2.6670	 5.3170
 2.6690	 5.1390
 2.6700	 5.0340
 2.6720	 4.9400
 2.6730	 4.9760
 2.6740	 5.0540
 2.6760	 4.8610
 2.6770	 4.8040
 2.6780	 4.7500
 2.6800	 4.7640
 2.6810	 4.8560
 2.6830	 4.8830
 2.6840	 4.6290
 2.6850	 4.5680
 2.6870	 4.6450
 2.6880	 4.6750
 2.6900	 4.6850
 2.6910	 4.5700
 2.6920	 4.3310
 2.6940	 4.4160
 2.6950	 4.4840
 2.6970	 4.3630
 2.6980	 4.1780
 2.6990	 4.1050
 2.7010	 4.1120
 2.7020	 4.1900
 2.7040	 4.0080
 2.7050	 3.9810
 2.7060	 4.0530
 2.7080	 4.0320
 2.7090	 3.9180
 2.7110	 3.8620
 2.7120	 3.6510
 2.7130	 3.5860
 2.7150	 3.8390
 2.7160	 3.7700
 2.7180	 3.5060
 2.7190	 3.4610
 2.7210	 3.3880
 2.7220	 3.3970
 2.7230	 3.5270
 2.7250	 3.5770
 2.7260	 3.2240
 2.7280	 3.1840
 2.7290	 3.3550
 2.7310	 3.4990
 2.7320	 3.6800
 2.7330	 3.4710
 2.7350	 3.2540
 2.7360	 3.3340
 2.7380	 3.4310
 2.7390	 3.5650
 2.7410	 3.2420
 2.7420	 3.2100
 2.7440	 3.0600
 2.7450	 2.7870
 2.7470	 3.0350
 2.7480	 3.3420
 2.7490	 2.9890
 2.7510	 3.0930
 2.7520	 3.4690
 2.7540	 3.1000
 2.7550	 2.6290
 2.7570	 3.1490
 2.7580	 3.4540
 2.7600	 3.3510
 2.7610	 2.9540
 2.7630	 3.1140
 2.7640	 3.5260
 2.7660	 3.2470
 2.7670	 3.0850
 2.7680	 3.5170
 2.7700	 3.5860
 2.7710	 3.5120
 2.7730	 3.2920
 2.7740	 3.2300
 2.7760	 3.0130
 2.7770	 3.1500
 2.7790	 3.3960
 2.7800	 3.5780
 2.7820	 3.3670
 2.7830	 3.1730
 2.7850	 3.1080
 2.7860	 2.9740
 2.7880	 3.0270
 2.7890	 3.0030
 2.7910	 2.8870
 2.7920	 2.7490
 2.7940	 2.4640
 2.7950	 2.6890
 2.7970	 2.9860
 2.7980	 2.9800
 2.8000	 2.6790
 2.8010	 2.6560
 2.8030	 2.8730
 2.8040	 3.1510
 2.8060	 3.1700
 2.8070	 3.1400
 2.8090	 3.1230
 2.8110	 2.9890
 2.8120	 2.8610
 2.8140	 2.8830
 2.8150	 3.0030
 2.8170	 3.1410
 2.8180	 3.0420
 2.8200	 2.8890
 2.8210	 2.9430
 2.8230	 3.1960
 2.8240	 3.0230
 2.8260	 2.9400
 2.8270	 2.8600
 2.8290	 2.8230
 2.8300	 2.6490
 2.8320	 2.8720
 2.8340	 3.1450
 2.8350	 3.0000
 2.8370	 2.8930
 2.8380	 3.1030
 2.8400	 3.0570
 2.8410	 2.9590
 2.8430	 2.8270
 2.8440	 2.7030
 2.8460	 2.6090
 2.8480	 2.7990
 2.8490	 2.8690
 2.8510	 2.9180
 2.8520	 2.9650
 2.8540	 3.1000
 2.8550	 3.1470
 2.8570	 3.1680
 2.8590	 3.1450
 2.8600	 3.1120
 2.8620	 3.1110
 2.8630	 3.0860
 2.8650	 3.1380
 2.8660	 3.0530
 2.8680	 3.1000
 2.8700	 3.0350
 2.8710	 2.7570
 2.8730	 2.8750
 2.8740	 2.5730
 2.8760	 2.5180
 2.8780	 2.6130
 2.8790	 2.8750
 2.8810	 3.1170
 2.8820	 3.0150
 2.8840	 2.6760
 2.8860	 2.6060
 2.8870	 2.5660
 2.8890	 2.8680
 2.8900	 3.1680
 2.8920	 3.4280
 2.8940	 3.2830
 2.8950	 2.6900
 2.8970	 2.5820
 2.8980	 2.6630
 2.9000	 2.6080
 2.9020	 2.5940
 2.9030	 2.7990
 2.9050	 3.3010
 2.9070	 3.4840
 2.9080	 3.0840
 2.9100	 2.6590
 2.9120	 2.7160
 2.9130	 2.8510
 2.9150	 2.8870
 2.9160	 2.8450
 2.9180	 2.8570
 2.9200	 2.8350
 2.9210	 2.9060
 2.9230	 3.0140
 2.9250	 3.0220
 2.9260	 2.8330
 2.9280	 2.7470
 2.9300	 2.8960
 2.9310	 3.1100
 2.9330	 3.1080
 2.9350	 3.0470
 2.9360	 2.9160
 2.9380	 2.9410
 2.9400	 2.8700
 2.9410	 2.6520
 2.9430	 2.4270
 2.9450	 2.4070
 2.9460	 2.6650
 2.9480	 2.8080
 2.9500	 3.1930
 2.9510	 4.4850
 2.9530	 4.2260
 2.9550	 4.0020
 2.9560	 3.3840
 2.9580	 2.3400
 2.9600	 3.1980
 2.9610	 3.8620
 2.9630	 3.1400
 2.9650	 2.6720
 2.9660	 2.8530
 2.9680	 3.3020
 2.9700	 3.8030
 2.9720	 2.6470
 2.9730	 1.6780
 2.9750	 3.8430
 2.9770	 4.1890
 2.9780	 2.8280
 2.9800	 2.9600
 2.9820	 3.8750
 2.9840	 2.9930
 2.9850	 1.7070
 2.9870	 2.5960
 2.9890	 3.3540
 2.9900	 3.7160
 2.9920	 4.2890
 2.9940	 3.6340
 2.9960	 4.1280
 2.9970	 3.1810
 2.9990	 1.3070
 3.0010	 2.0980
 3.0030	 3.4960
 3.0040	 2.6480
 3.0060	 2.7640
 3.0080	 3.4860
 3.0100	 3.2070
 3.0110	 3.6750
 3.0130	 3.1480
 3.0150	 1.6660
 3.0170	 1.5650
 3.0180	 2.4310
 3.0200	 3.2530
 3.0220	 3.3660
 3.0240	 3.2150
 3.0250	 3.3490
 3.0270	 3.1490
 3.0290	 2.3640
 3.0310	 2.1370
 3.0320	 2.6080
 3.0340	 2.9270
 3.0360	 3.4500
 3.0380	 3.0920
 3.0400	 4.0500
 3.0410	 4.5720
 3.0430	 3.1830
 3.0450	 2.0450
 3.0470	 1.3070
 3.0480	 1.1240
 3.0500	 4.4000
 3.0520	 6.8300
 3.0540	 5.8060
 3.0560	 4.8940
 3.0570	 4.2990
 3.0590	 4.8150
 3.0610	 4.9830
 3.0630	 4.5530
 3.0650	 5.4400
 3.0660	 5.3270
 3.0680	 3.5580
 3.0700	 3.1560
 3.0720	 3.6680
 3.0740	 3.3640
 3.0760	 2.7010
 3.0770	 2.7450
 3.0790	 3.0110
 3.0810	 3.1630
 3.0830	 3.2270
 3.0850	 3.0460
 3.0870	 2.7890
 3.0880	 2.7520
 3.0900	 2.7400
 3.0920	 2.9460
 3.0940	 3.3600
 3.0960	 3.2490
 3.0980	 2.8960
 3.0990	 2.8060
 3.1010	 2.8150
 3.1030	 2.9720
 3.1050	 3.1250
 3.1070	 3.3150
 3.1090	 3.3730
 3.1110	 2.9930
 3.1120	 2.6570
 3.1140	 2.9790
 3.1160	 2.8800
 3.1180	 2.8860
 3.1200	 2.9230
 3.1220	 2.9760
 3.1240	 3.2870
 3.1260	 3.4440
 3.1270	 3.2210
 3.1290	 2.9300
 3.1310	 2.5860
 3.1330	 2.7900
 3.1350	 3.5500
 3.1370	 3.9630
 3.1390	 3.7700
 3.1410	 3.3910
 3.1430	 2.7230
 3.1450	 3.1100
 3.1460	 2.8540
 3.1480	 2.6810
 3.1500	 2.8970
 3.1520	 2.7000
 3.1540	 3.0430
 3.1560	 3.1000
 3.1580	 3.0670
 3.1600	 4.0660
 3.1620	 4.5110
 3.1640	 1.8930
 3.1660	 1.0530
 3.1680	 3.2170
 3.1700	 4.7940
 3.1710	 3.7700
 3.1730	 4.6460
 3.1750	 5.7480
 3.1770	 3.7990
 3.1790	 1.3190
 3.1810	 1.3890
 3.1830	 2.7170
 3.1850	 3.2480
 3.1870	 3.8320
 3.1890	 2.9610
 3.1910	 3.3510
 3.1930	 3.5020
 3.1950	 3.1230
 3.1970	 2.9050
 3.1990	 2.8060
 3.2010	 2.7390
 3.2030	 2.7730
 3.2050	 2.8390
 3.2070	 2.8100
 3.2090	 2.9890
 3.2110	 3.2020
 3.2130	 2.9530
 3.2150	 3.0940
 3.2170	 3.2680
 3.2190	 3.2280
 3.2210	 2.9520
 3.2230	 3.0960
 3.2250	 3.0380
 3.2270	 3.1280
 3.2290	 2.8450
 3.2310	 2.9980
 3.2330	 3.1070
 3.2350	 3.3120
 3.2370	 3.4560
 3.2390	 3.4980
 3.2410	 3.1840
 3.2430	 2.9770
 3.2450	 3.1990
 3.2470	 3.1640
 3.2490	 3.0250
 3.2510	 3.1710
 3.2530	 3.1910
 3.2550	 2.8120
 3.2570	 2.2780
 3.2590	 2.3320
 3.2610	 2.9670
 3.2630	 3.1920
 3.2650	 2.8650
 3.2670	 2.8830
 3.2690	 3.2110
 3.2720	 3.4800
 3.2740	 3.1510
 3.2760	 2.7890
 3.2780	 2.8710
 3.2800	 2.9950
 3.2820	 2.9600
 3.2840	 2.9380
 3.2860	 2.9570
 3.2880	 2.9870
 3.2900	 3.1450
 3.2920	 3.3680
 3.2940	 2.9410
 3.2960	 2.5100
 3.2990	 2.5210
 3.3010	 3.0580
 3.3030	 3.2210
 3.3050	 3.0620
 3.3070	 3.0560
 3.3090	 3.2500
 3.3110	 2.8910
 3.3130	 2.7690
 3.3150	 3.0690
 3.3180	 3.0870
 3.3200	 2.8620
 3.3220	 2.8780
 3.3240	 2.9360
 3.3260	 2.9060
 3.3280	 2.8750
 3.3300	 2.8310
 3.3330	 3.0820
 3.3350	 3.2760
 3.3370	 3.0580
 3.3390	 3.0550
 3.3410	 2.9430
 3.3430	 2.7500
 3.3450	 2.7640
 3.3480	 2.8580
 3.3500	 2.8510
 3.3520	 2.8760
 3.3540	 2.8680
 3.3560	 2.9320
 3.3580	 2.9310
 3.3610	 2.9650
 3.3630	 2.8270
 3.3650	 2.6950
 3.3670	 2.7340
 3.3690	 2.8380
 3.3720	 2.8240
 3.3740	 2.8440
 3.3760	 2.8450
 3.3780	 2.8270
 3.3800	 2.7280
 3.3830	 2.7740
 3.3850	 2.9220
 3.3870	 2.8700
 3.3890	 2.6910
 3.3910	 2.6210
 3.3940	 2.5350
 3.3960	 2.5670
 3.3980	 2.7460
 3.4000	 2.8740
 3.4020	 2.7100
 3.4050	 2.9150
 3.4070	 3.0500
 3.4090	 3.0060
 3.4110	 3.0880
 3.4140	 3.2620
 3.4160	 3.2770
 3.4180	 3.3570
 3.4200	 3.3770
 3.4230	 3.5040
 3.4250	 3.7140
 3.4270	 3.9490
 3.4290	 4.0330
 3.4320	 4.0710
 3.4340	 3.9210
 3.4360	 3.6360
 3.4390	 3.4490
 3.4410	 3.6410
 3.4430	 3.4340
 3.4450	 3.1010
 3.4480	 3.1890
 3.4500	 3.1930
 3.4520	 2.7130
 3.4550	 2.4370
 3.4570	 2.4970
 3.4590	 3.1840
 3.4620	 3.6280
 3.4640	 3.3670
 3.4660	 3.3700
 3.4680	 3.4380
 3.4710	 3.3210
 3.4730	 3.2620
 3.4750	 3.2310
 3.4780	 3.1170
 3.4800	 3.1100
 3.4820	 3.2600
 3.4850	 3.2990
 3.4870	 3.2980
 3.4890	 3.2140
 3.4920	 3.2600
 3.4940	 3.2460
 3.4970	 3.2660
 3.4990	 3.2130
 3.5010	 3.2090
 3.5040	 3.2600
 3.5060	 3.4790
 3.5080	 3.8270
 3.5110	 4.1390
 3.5130	 4.0980
 3.5160	 3.9360
 3.5180	 3.7990
 3.5200	 3.6370
 3.5230	 3.4250
 3.5250	 3.4030
 3.5270	 3.4240
 3.5300	 3.4480
 3.5320	 3.4230
 3.5350	 3.3230
 3.5370	 3.2940
 3.5400	 3.3980
 3.5420	 3.4450
 3.5440	 3.3950
 3.5470	 3.3520
 3.5490	 3.4480
 3.5520	 3.3340
 3.5540	 3.2340
 3.5570	 3.3190
 3.5590	 3.4330
 3.5610	 3.3780
 3.5640	 3.3080
 3.5660	 3.3070
 3.5690	 3.3320
 3.5710	 3.2250
 3.5740	 3.3300
 3.5760	 3.2840
 3.5790	 3.2620
 3.5810	 3.4960
 3.5840	 3.7400
 3.5860	 3.6440
 3.5890	 3.1950
 3.5910	 2.8260
 3.5930	 3.0080
 3.5960	 3.2790
 3.5980	 3.3430
 3.6010	 3.4530
 3.6030	 3.3630
 3.6060	 3.2530
 3.6080	 3.4430
 3.6110	 3.3780
 3.6140	 3.3780
 3.6160	 3.4680
 3.6190	 3.4450
 3.6210	 3.4080
 3.6240	 3.4600
 3.6260	 3.4860
 3.6290	 3.5650
 3.6310	 3.5410
 3.6340	 3.4830
 3.6360	 3.3900
 3.6390	 3.3480
 3.6410	 3.3360
 3.6440	 3.3320
 3.6470	 3.3800
 3.6490	 3.4740
 3.6520	 3.4660
 3.6540	 3.4880
 3.6570	 3.3890
 3.6590	 3.3480
 3.6620	 3.4750
 3.6650	 3.5970
 3.6670	 3.6270
 3.6700	 3.5280
 3.6720	 3.2880
 3.6750	 3.2820
 3.6780	 3.3570
 3.6800	 3.4810
 3.6830	 3.5040
 3.6850	 3.5420
 3.6880	 3.4220
 3.6910	 3.3710
 3.6930	 3.3750
 3.6960	 3.4310
 3.6990	 3.4480
 3.7010	 3.4510
 3.7040	 3.4280
 3.7060	 3.4040
 3.7090	 3.4230
 3.7120	 3.5340
 3.7140	 3.5300
 3.7170	 3.5080
 3.7200	 3.5720
 3.7220	 3.5170
 3.7250	 3.3320
 3.7280	 3.4060
 3.7300	 3.4590
 3.7330	 3.4660
 3.7360	 3.5640
 3.7390	 3.6680
 3.7410	 3.6510
 3.7440	 3.5480
 3.7470	 3.4520
 3.7490	 3.5340
 3.7520	 3.4610
 3.7550	 3.4130
 3.7580	 3.4560
 3.7600	 3.4890
 3.7630	 3.6260
 3.7660	 3.7420
 3.7680	 3.5190
 3.7710	 3.2920
 3.7740	 3.2410
 3.7770	 3.4170
 3.7790	 3.6460
 3.7820	 3.6780
 3.7850	 3.6940
 3.7880	 3.6420
 3.7900	 3.5100
 3.7930	 3.3720
 3.7960	 3.4320
 3.7990	 3.5120
 3.8020	 3.4830
 3.8040	 3.5690
 3.8070	 3.7280
 3.8100	 3.6520
 3.8130	 3.5580
 3.8160	 3.6210
 3.8180	 3.4910
 3.8210	 3.4570
 3.8240	 3.6240
 3.8270	 3.8580
 3.8300	 3.7980
 3.8330	 3.6400
 3.8350	 3.5830
 3.8380	 3.6940
 3.8410	 3.8720
 3.8440	 3.8890
 3.8470	 3.7260
 3.8500	 3.5980
 3.8520	 3.6400
 3.8550	 3.7810
 3.8580	 3.7730
 3.8610	 3.7110
 3.8640	 3.6460
 3.8670	 3.6610
 3.8700	 3.6780
 3.8730	 3.6930
 3.8750	 3.7370
 3.8780	 3.7620
 3.8810	 3.6980
 3.8840	 3.6730
 3.8870	 3.7750
 3.8900	 3.8330
 3.8930	 3.8420
 3.8960	 3.8420
 3.8990	 3.8370
 3.9020	 3.8320
 3.9050	 3.8650
 3.9080	 3.8460
 3.9110	 3.6620
 3.9140	 3.6040
 3.9160	 3.6920
 3.9190	 3.7670
 3.9220	 3.7600
 3.9250	 3.7890
 3.9280	 3.7370
 3.9310	 3.7030
 3.9340	 3.7180
 3.9370	 3.7850
 3.9400	 3.8020
 3.9430	 3.7940
 3.9460	 3.8240
 3.9490	 3.8610
 3.9520	 3.8700
 3.9550	 3.8890
 3.9580	 3.7390
 3.9610	 3.7500
 3.9640	 3.9120
 3.9670	 3.8760
 3.9700	 3.7460
 3.9730	 3.7990
 3.9770	 3.8410
 3.9800	 3.8160
 3.9830	 3.8170
 3.9860	 3.7690
 3.9890	 3.7210
 3.9920	 3.7690
 3.9950	 3.8450
 3.9980	 3.9000
 4.0010	 3.9520
 4.0040	 3.9510
 4.0070	 3.9330
 4.0100	 3.8920
 4.0130	 3.8910
 4.0170	 3.8860
 4.0200	 3.8390
 4.0230	 3.7850
 4.0260	 3.7190
 4.0290	 3.7850
 4.0320	 3.8700
 4.0350	 3.8980
 4.0380	 3.9100
 4.0420	 3.9500
 4.0450	 3.9330
 4.0480	 3.9740
 4.0510	 4.0690
 4.0540	 4.0170
 4.0570	 3.9330
 4.0610	 3.9800
 4.0640	 3.9620
 4.0670	 3.9060
 4.0700	 4.0120
 4.0730	 4.0500
 4.0770	 3.9780
 4.0800	 4.0010
 4.0830	 4.0120
 4.0860	 4.0010
 4.0890	 3.8920
 4.0930	 3.9400
 4.0960	 4.0490
 4.0990	 3.9860
 4.1020	 4.0440
 4.1060	 3.9670
 4.1090	 3.7090
 4.1120	 3.7860
 4.1150	 3.9400
 4.1190	 3.9540
 4.1220	 3.8210
 4.1250	 3.9420
 4.1280	 3.9930
 4.1320	 4.0140
 4.1350	 4.0920
 4.1380	 4.0960
 4.1420	 4.1340
 4.1450	 4.1510
 4.1480	 3.9950
 4.1520	 3.9300
 4.1550	 3.8950
 4.1580	 3.8980
 4.1620	 4.0260
 4.1650	 4.0830
 4.1680	 4.0020
 4.1720	 3.9950
 4.1750	 4.0060
 4.1780	 4.0550
 4.1820	 4.0710
 4.1850	 4.1270
 4.1890	 4.0770
 4.1920	 4.1020
 4.1950	 4.1750
 4.1990	 4.1770
 4.2020	 4.2070
 4.2060	 4.2620
 4.2090	 4.3540
 4.2120	 4.5470
 4.2160	 4.4280
 4.2190	 4.1060
 4.2230	 4.0260
 4.2260	 4.2670
 4.2300	 4.0960
 4.2330	 4.2200
 4.2360	 4.2890
 4.2400	 4.2040
 4.2430	 4.4790
 4.2470	 4.6190
 4.2500	 4.3390
 4.2540	 4.1920
 4.2570	 4.0980
 4.2610	 4.2570
 4.2640	 4.5740
 4.2680	 4.4500
 4.2710	 4.3200
 4.2750	 4.2910
 4.2780	 4.3150
 4.2820	 4.4970
 4.2850	 4.8410
 4.2890	 4.6430
 4.2930	 4.4640
 4.2960	 4.4980
 4.3000	 4.3310
 4.3030	 4.3330
 4.3070	 4.3010
 4.3100	 4.1060
 4.3140	 4.0960
 4.3180	 4.2930
 4.3210	 4.3570
 4.3250	 4.3420
 4.3280	 4.2460
 4.3320	 4.0890
 4.3360	 4.0640
 4.3390	 4.0840
 4.3430	 4.0150
 4.3470	 4.0850
 4.3500	 4.1680
 4.3540	 4.0950
 4.3570	 3.9350
 4.3610	 3.9190
 4.3650	 4.0090
 4.3680	 4.0370
 4.3720	 4.0860
 4.3760	 4.0700
 4.3800	 3.9250
 4.3830	 3.7980
 4.3870	 3.8290
 4.3910	 3.8600
 4.3940	 3.8720
 4.3980	 4.0150
 4.4020	 4.0220
 4.4060	 3.9620
 4.4090	 3.9560
 4.4130	 3.9240
 4.4170	 3.8900
 4.4210	 3.8650
 4.4240	 3.9490
 4.4280	 3.9800
 4.4320	 3.9850
 4.4360	 3.9440
 4.4400	 3.9130
 4.4430	 3.9270
 4.4470	 3.9380
 4.4510	 3.9510
 4.4550	 3.9840
 4.4590	 3.9540
 4.4620	 3.9250
 4.4660	 3.9150
 4.4700	 3.8800
 4.4740	 3.9140
 4.4780	 3.9550
 4.4820	 3.9280
 4.4860	 3.7970
 4.4900	 3.8230
 4.4930	 3.9520
 4.4970	 3.8930
 4.5010	 3.7990
 4.5050	 3.7700
 4.5090	 3.7920
 4.5130	 3.7920
 4.5170	 3.8430
 4.5210	 3.8630
 4.5250	 3.8460
 4.5290	 3.8580
 4.5330	 3.8560
 4.5370	 3.8610
 4.5410	 3.8700
 4.5450	 3.8280
 4.5490	 3.7940
 4.5530	 3.8590
 4.5570	 3.8180
 4.5610	 3.7440
 4.5650	 3.8510
 4.5690	 3.9500
 4.5730	 3.9810
 4.5770	 3.8930
 4.5810	 3.9300
 4.5850	 3.9180
 4.5890	 3.8940
 4.5930	 3.8820
 4.5970	 3.8520
 4.6010	 3.8450
 4.6050	 3.7950
 4.6090	 3.7550
 4.6130	 3.8460
 4.6170	 3.9160
 4.6220	 3.9520
 4.6260	 3.8690
 4.6300	 3.8850
 4.6340	 3.8580
 4.6380	 3.7360
 4.6420	 3.7190
 4.6460	 3.7630
 4.6510	 3.7140
 4.6550	 3.7900
 4.6590	 3.8350
 4.6630	 3.8360
 4.6670	 3.7840
 4.6720	 3.7210
 4.6760	 3.7490
 4.6800	 3.7890
 4.6840	 3.7690
 4.6880	 3.8160
 4.6930	 3.8550
 4.6970	 3.7880
 4.7010	 3.6930
 4.7050	 3.6460
 4.7100	 3.7010
 4.7140	 3.8540
 4.7180	 3.8380
 4.7230	 3.7880
 4.7270	 3.7240
 4.7310	 3.7730
 4.7360	 3.7800
 4.7400	 3.7230
 4.7440	 3.7810
 4.7490	 3.7660
 4.7530	 3.7170
 4.7570	 3.7300
 4.7620	 3.7160
 4.7660	 3.7630
 4.7700	 3.7920
 4.7750	 3.7510
 4.7790	 3.8300
 4.7840	 3.9100
 4.7880	 3.6970
 4.7920	 3.5050
 4.7970	 3.5960
 4.8010	 3.9070
 4.8060	 3.9130
 4.8100	 3.7530
 4.8150	 3.6570
 4.8190	 3.7280
 4.8240	 3.7000
 4.8280	 3.7670
 4.8330	 3.8040
 4.8370	 3.7780
 4.8420	 3.7350
 4.8460	 3.8030
 4.8510	 3.8440
 4.8550	 3.8640
 4.8600	 3.8320
 4.8640	 3.8480
 4.8690	 3.8520
 4.8730	 3.8620
 4.8780	 3.7920
 4.8830	 3.7680
 4.8870	 3.8050
 4.8920	 3.8340
 4.8960	 3.8250
 4.9010	 3.8260
 4.9060	 3.7640
 4.9100	 3.8120
 4.9150	 3.8320
 4.9200	 3.8310
 4.9240	 3.7950
 4.9290	 3.7930
 4.9340	 3.7500
 4.9380	 3.8420
 4.9430	 3.8180
 4.9480	 3.7410
 4.9530	 3.7040
 4.9570	 3.7970
 4.9620	 3.7560
 4.9670	 3.7570
 4.9720	 3.8450
 4.9760	 3.8700
 4.9810	 3.8480
 4.9860	 3.9300
 4.9910	 3.8990
 4.9960	 3.9780
 5.0000	 3.9760
 5.0050	 3.8480
 5.0100	 3.7970
 5.0150	 3.8270
 5.0200	 3.8020
 5.0250	 3.8410
 5.0290	 3.8450
 5.0340	 3.8430
 5.0390	 3.8240
 5.0440	 3.9260
 5.0490	 3.9190
 5.0540	 3.9070
 5.0590	 3.8420
 5.0640	 3.7590
 5.0690	 3.7400
 5.0740	 3.7540
 5.0790	 3.7660
 5.0840	 3.8050
 5.0890	 3.8080
 5.0940	 3.8320
 5.0990	 3.7860
 5.1040	 3.8190
 5.1090	 3.8770
 5.1140	 3.9580
 5.1190	 3.9430
 5.1240	 3.8890
 5.1290	 3.9610
 5.1340	 4.0440
 5.1390	 3.9680
 5.1440	 4.0170
 5.1490	 3.9960
 5.1540	 4.0240
 5.1600	 3.9500
 5.1650	 3.8120
 5.1700	 3.7630
 5.1750	 3.8720
 5.1800	 3.8780
 5.1850	 3.9070
 5.1910	 3.9900
 5.1960	 3.9770
 5.2010	 3.8670
 5.2060	 3.8320
 5.2110	 3.7850
 5.2170	 3.7490
 5.2220	 3.7690
 5.2270	 3.8610
 5.2320	 3.8430
 5.2380	 3.8440
 5.2430	 3.8610
 5.2480	 3.8150
 5.2540	 3.8000
 5.2590	 3.9170
 5.2640	 3.9000
 5.2700	 3.9630
 5.2750	 4.0450
 5.2800	 4.0490
 5.2860	 3.9430
 5.2910	 3.9260
 5.2970	 3.9370
 5.3020	 3.8680
 5.3070	 3.9020
 5.3130	 3.9780
 5.3180	 3.8580
 5.3240	 3.7720
 5.3290	 3.8150
 5.3350	 3.8790
 5.3400	 3.7770
 5.3460	 3.7830
 5.3510	 3.7500
 5.3570	 3.7720
 5.3620	 3.7490
 5.3680	 3.7090
 5.3730	 3.7160
 5.3790	 3.8110
 5.3850	 3.7780
 5.3900	 3.7570
 5.3960	 3.7440
 5.4010	 3.7520
 5.4070	 3.6750
 5.4130	 3.7180
 5.4180	 3.6930
 5.4240	 3.7160
 5.4300	 3.7600
