Name: Adenostoma fasciculatum 2
Type: vegetation
Class: Shrub
Genus: Adenostoma
Species: fasciculatum
Sample No.: VH113
Owner: UCSB
Wavelength Range: VSWIR
Origin: 34.5084; -119.7687; WGS84
Collection Date: 6/3/2013
Description: Samples were collected as part of the HyspIRI Airborne Campaign. 48 individual plants were sampled in three times in 2013 - spring  summer  and fall. The name of the sample includes a 1  2  or 3 which references a different individual of the species. Samples were taken to JPL and processed within 48 hours of collection. The same leaves were processed in the Nicolet and then measured using the ASD.
Measurement: Bidirectional reflectance
First Column: X
Second Column: Y
X Units: Wavelength (micrometers)
Y Units: Reflectance (percentage)
First X Value: 0.35
Last X Value: 2.5
Number of X Values: 2151
Additional Information: vegetation.shrub.adenostoma.fasciculatum.vswir.vh113.ucsb.asd.ancillary.txt

 0.3500	 1.2010
 0.3510	 1.2650
 0.3520	 1.2320
 0.3530	 1.1620
 0.3540	 1.1230
 0.3550	 1.1140
 0.3560	 1.2430
 0.3570	 1.3630
 0.3580	 1.2510
 0.3590	 1.2070
 0.3600	 1.1850
 0.3610	 1.1530
 0.3620	 1.1580
 0.3630	 1.1200
 0.3640	 1.0890
 0.3650	 1.1220
 0.3660	 1.1760
 0.3670	 1.1980
 0.3680	 1.1890
 0.3690	 1.1840
 0.3700	 1.1710
 0.3710	 1.1700
 0.3720	 1.1880
 0.3730	 1.2070
 0.3740	 1.1880
 0.3750	 1.1800
 0.3760	 1.2250
 0.3770	 1.1870
 0.3780	 1.1520
 0.3790	 1.1440
 0.3800	 1.1290
 0.3810	 1.2040
 0.3820	 1.2390
 0.3830	 1.1780
 0.3840	 1.2200
 0.3850	 1.2750
 0.3860	 1.3060
 0.3870	 1.3010
 0.3880	 1.2930
 0.3890	 1.2800
 0.3900	 1.2740
 0.3910	 1.3030
 0.3920	 1.2810
 0.3930	 1.2800
 0.3940	 1.3370
 0.3950	 1.3090
 0.3960	 1.3040
 0.3970	 1.3320
 0.3980	 1.3570
 0.3990	 1.3700
 0.4000	 1.3560
 0.4010	 1.3330
 0.4020	 1.3510
 0.4030	 1.3720
 0.4040	 1.3780
 0.4050	 1.3770
 0.4060	 1.4360
 0.4070	 1.4750
 0.4080	 1.4870
 0.4090	 1.5120
 0.4100	 1.5240
 0.4110	 1.5310
 0.4120	 1.5440
 0.4130	 1.5690
 0.4140	 1.5890
 0.4150	 1.6080
 0.4160	 1.6330
 0.4170	 1.6460
 0.4180	 1.6720
 0.4190	 1.7020
 0.4200	 1.6970
 0.4210	 1.7070
 0.4220	 1.7300
 0.4230	 1.7550
 0.4240	 1.7780
 0.4250	 1.7890
 0.4260	 1.8000
 0.4270	 1.8290
 0.4280	 1.8550
 0.4290	 1.8750
 0.4300	 1.8870
 0.4310	 1.8860
 0.4320	 1.8950
 0.4330	 1.9150
 0.4340	 1.9400
 0.4350	 1.9460
 0.4360	 1.9500
 0.4370	 1.9640
 0.4380	 1.9960
 0.4390	 2.0170
 0.4400	 2.0230
 0.4410	 2.0170
 0.4420	 2.0170
 0.4430	 2.0250
 0.4440	 2.0410
 0.4450	 2.0590
 0.4460	 2.0610
 0.4470	 2.0740
 0.4480	 2.1000
 0.4490	 2.1070
 0.4500	 2.1230
 0.4510	 2.1360
 0.4520	 2.1400
 0.4530	 2.1610
 0.4540	 2.1800
 0.4550	 2.1920
 0.4560	 2.1960
 0.4570	 2.2030
 0.4580	 2.2050
 0.4590	 2.2040
 0.4600	 2.2140
 0.4610	 2.2260
 0.4620	 2.2390
 0.4630	 2.2530
 0.4640	 2.2600
 0.4650	 2.2580
 0.4660	 2.2550
 0.4670	 2.2720
 0.4680	 2.2810
 0.4690	 2.2860
 0.4700	 2.2950
 0.4710	 2.3000
 0.4720	 2.3020
 0.4730	 2.3020
 0.4740	 2.3020
 0.4750	 2.3090
 0.4760	 2.3160
 0.4770	 2.3220
 0.4780	 2.3310
 0.4790	 2.3320
 0.4800	 2.3290
 0.4810	 2.3360
 0.4820	 2.3530
 0.4830	 2.3650
 0.4840	 2.3700
 0.4850	 2.3730
 0.4860	 2.3740
 0.4870	 2.3810
 0.4880	 2.3950
 0.4890	 2.3920
 0.4900	 2.3990
 0.4910	 2.4200
 0.4920	 2.4460
 0.4930	 2.4570
 0.4940	 2.4710
 0.4950	 2.4970
 0.4960	 2.5310
 0.4970	 2.5500
 0.4980	 2.5640
 0.4990	 2.5890
 0.5000	 2.6240
 0.5010	 2.6570
 0.5020	 2.6860
 0.5030	 2.7230
 0.5040	 2.7710
 0.5050	 2.8190
 0.5060	 2.8600
 0.5070	 2.9120
 0.5080	 2.9710
 0.5090	 3.0340
 0.5100	 3.1010
 0.5110	 3.1650
 0.5120	 3.2380
 0.5130	 3.3200
 0.5140	 3.4010
 0.5150	 3.4860
 0.5160	 3.5800
 0.5170	 3.6800
 0.5180	 3.7780
 0.5190	 3.8830
 0.5200	 3.9930
 0.5210	 4.0970
 0.5220	 4.2050
 0.5230	 4.3170
 0.5240	 4.4300
 0.5250	 4.5370
 0.5260	 4.6390
 0.5270	 4.7380
 0.5280	 4.8350
 0.5290	 4.9160
 0.5300	 4.9960
 0.5310	 5.0790
 0.5320	 5.1490
 0.5330	 5.2170
 0.5340	 5.2800
 0.5350	 5.3340
 0.5360	 5.3860
 0.5370	 5.4310
 0.5380	 5.4720
 0.5390	 5.5140
 0.5400	 5.5550
 0.5410	 5.5980
 0.5420	 5.6440
 0.5430	 5.6800
 0.5440	 5.7110
 0.5450	 5.7410
 0.5460	 5.7720
 0.5470	 5.7900
 0.5480	 5.8040
 0.5490	 5.8210
 0.5500	 5.8360
 0.5510	 5.8520
 0.5520	 5.8650
 0.5530	 5.8700
 0.5540	 5.8630
 0.5550	 5.8530
 0.5560	 5.8400
 0.5570	 5.8210
 0.5580	 5.7930
 0.5590	 5.7590
 0.5600	 5.7220
 0.5610	 5.6820
 0.5620	 5.6390
 0.5630	 5.5950
 0.5640	 5.5470
 0.5650	 5.4910
 0.5660	 5.4340
 0.5670	 5.3780
 0.5680	 5.3210
 0.5690	 5.2610
 0.5700	 5.1970
 0.5710	 5.1280
 0.5720	 5.0660
 0.5730	 5.0050
 0.5740	 4.9450
 0.5750	 4.8890
 0.5760	 4.8350
 0.5770	 4.7850
 0.5780	 4.7380
 0.5790	 4.6950
 0.5800	 4.6530
 0.5810	 4.6120
 0.5820	 4.5750
 0.5830	 4.5470
 0.5840	 4.5180
 0.5850	 4.4870
 0.5860	 4.4590
 0.5870	 4.4350
 0.5880	 4.4160
 0.5890	 4.3960
 0.5900	 4.3720
 0.5910	 4.3500
 0.5920	 4.3330
 0.5930	 4.3250
 0.5940	 4.3130
 0.5950	 4.3030
 0.5960	 4.2960
 0.5970	 4.2860
 0.5980	 4.2760
 0.5990	 4.2660
 0.6000	 4.2560
 0.6010	 4.2460
 0.6020	 4.2330
 0.6030	 4.2170
 0.6040	 4.1980
 0.6050	 4.1780
 0.6060	 4.1530
 0.6070	 4.1230
 0.6080	 4.0990
 0.6090	 4.0750
 0.6100	 4.0500
 0.6110	 4.0270
 0.6120	 3.9910
 0.6130	 3.9520
 0.6140	 3.9150
 0.6150	 3.8760
 0.6160	 3.8410
 0.6170	 3.8120
 0.6180	 3.7860
 0.6190	 3.7670
 0.6200	 3.7480
 0.6210	 3.7280
 0.6220	 3.7110
 0.6230	 3.6990
 0.6240	 3.6890
 0.6250	 3.6790
 0.6260	 3.6700
 0.6270	 3.6650
 0.6280	 3.6630
 0.6290	 3.6620
 0.6300	 3.6580
 0.6310	 3.6540
 0.6320	 3.6510
 0.6330	 3.6470
 0.6340	 3.6380
 0.6350	 3.6230
 0.6360	 3.6040
 0.6370	 3.5820
 0.6380	 3.5530
 0.6390	 3.5220
 0.6400	 3.4950
 0.6410	 3.4620
 0.6420	 3.4260
 0.6430	 3.3890
 0.6440	 3.3540
 0.6450	 3.3150
 0.6460	 3.2760
 0.6470	 3.2440
 0.6480	 3.2130
 0.6490	 3.1870
 0.6500	 3.1620
 0.6510	 3.1360
 0.6520	 3.1180
 0.6530	 3.1030
 0.6540	 3.0830
 0.6550	 3.0660
 0.6560	 3.0440
 0.6570	 3.0200
 0.6580	 2.9960
 0.6590	 2.9670
 0.6600	 2.9370
 0.6610	 2.9090
 0.6620	 2.8750
 0.6630	 2.8460
 0.6640	 2.8190
 0.6650	 2.7910
 0.6660	 2.7700
 0.6670	 2.7510
 0.6680	 2.7350
 0.6690	 2.7250
 0.6700	 2.7190
 0.6710	 2.7150
 0.6720	 2.7140
 0.6730	 2.7150
 0.6740	 2.7190
 0.6750	 2.7270
 0.6760	 2.7390
 0.6770	 2.7510
 0.6780	 2.7690
 0.6790	 2.7920
 0.6800	 2.8150
 0.6810	 2.8470
 0.6820	 2.8850
 0.6830	 2.9260
 0.6840	 2.9730
 0.6850	 3.0310
 0.6860	 3.1010
 0.6870	 3.1850
 0.6880	 3.2850
 0.6890	 3.4020
 0.6900	 3.5400
 0.6910	 3.7030
 0.6920	 3.8970
 0.6930	 4.1230
 0.6940	 4.3800
 0.6950	 4.6690
 0.6960	 4.9910
 0.6970	 5.3450
 0.6980	 5.7280
 0.6990	 6.1390
 0.7000	 6.5770
 0.7010	 7.0400
 0.7020	 7.5210
 0.7030	 8.0180
 0.7040	 8.5310
 0.7050	 9.0570
 0.7060	 9.5950
 0.7070	10.1430
 0.7080	10.7030
 0.7090	11.2760
 0.7100	11.8610
 0.7110	12.4580
 0.7120	13.0680
 0.7130	13.6920
 0.7140	14.3290
 0.7150	14.9770
 0.7160	15.6350
 0.7170	16.3080
 0.7180	16.9870
 0.7190	17.6700
 0.7200	18.3630
 0.7210	19.0610
 0.7220	19.7600
 0.7230	20.4580
 0.7240	21.1540
 0.7250	21.8420
 0.7260	22.5190
 0.7270	23.1840
 0.7280	23.8390
 0.7290	24.4720
 0.7300	25.0870
 0.7310	25.6880
 0.7320	26.2660
 0.7330	26.8220
 0.7340	27.3550
 0.7350	27.8660
 0.7360	28.3550
 0.7370	28.8180
 0.7380	29.2570
 0.7390	29.6720
 0.7400	30.0660
 0.7410	30.4370
 0.7420	30.7830
 0.7430	31.1030
 0.7440	31.4070
 0.7450	31.6930
 0.7460	31.9510
 0.7470	32.1940
 0.7480	32.4210
 0.7490	32.6270
 0.7500	32.8150
 0.7510	32.9930
 0.7520	33.1590
 0.7530	33.3110
 0.7540	33.4430
 0.7550	33.5680
 0.7560	33.6870
 0.7570	33.7950
 0.7580	33.8970
 0.7590	33.9890
 0.7600	34.0710
 0.7610	34.1500
 0.7620	34.2220
 0.7630	34.2910
 0.7640	34.3550
 0.7650	34.4100
 0.7660	34.4620
 0.7670	34.5140
 0.7680	34.5660
 0.7690	34.6130
 0.7700	34.6530
 0.7710	34.6890
 0.7720	34.7320
 0.7730	34.7740
 0.7740	34.8100
 0.7750	34.8390
 0.7760	34.8710
 0.7770	34.9060
 0.7780	34.9450
 0.7790	34.9830
 0.7800	35.0110
 0.7810	35.0400
 0.7820	35.0740
 0.7830	35.1080
 0.7840	35.1340
 0.7850	35.1620
 0.7860	35.1980
 0.7870	35.2270
 0.7880	35.2540
 0.7890	35.2810
 0.7900	35.3100
 0.7910	35.3320
 0.7920	35.3580
 0.7930	35.3890
 0.7940	35.4150
 0.7950	35.4380
 0.7960	35.4570
 0.7970	35.4770
 0.7980	35.5140
 0.7990	35.5390
 0.8000	35.5570
 0.8010	35.5790
 0.8020	35.5940
 0.8030	35.6120
 0.8040	35.6350
 0.8050	35.6620
 0.8060	35.6810
 0.8070	35.6950
 0.8080	35.7110
 0.8090	35.7350
 0.8100	35.7560
 0.8110	35.7710
 0.8120	35.7820
 0.8130	35.7960
 0.8140	35.8110
 0.8150	35.8280
 0.8160	35.8480
 0.8170	35.8560
 0.8180	35.8720
 0.8190	35.8910
 0.8200	35.9020
 0.8210	35.9150
 0.8220	35.9300
 0.8230	35.9460
 0.8240	35.9600
 0.8250	35.9670
 0.8260	35.9760
 0.8270	35.9890
 0.8280	36.0010
 0.8290	36.0080
 0.8300	36.0150
 0.8310	36.0260
 0.8320	36.0320
 0.8330	36.0410
 0.8340	36.0560
 0.8350	36.0710
 0.8360	36.0860
 0.8370	36.0970
 0.8380	36.1060
 0.8390	36.1170
 0.8400	36.1330
 0.8410	36.1500
 0.8420	36.1650
 0.8430	36.1790
 0.8440	36.1920
 0.8450	36.2070
 0.8460	36.2240
 0.8470	36.2430
 0.8480	36.2520
 0.8490	36.2630
 0.8500	36.2890
 0.8510	36.3060
 0.8520	36.3200
 0.8530	36.3360
 0.8540	36.3580
 0.8550	36.3650
 0.8560	36.3780
 0.8570	36.3990
 0.8580	36.4080
 0.8590	36.4200
 0.8600	36.4370
 0.8610	36.4570
 0.8620	36.4700
 0.8630	36.4830
 0.8640	36.4960
 0.8650	36.5080
 0.8660	36.5240
 0.8670	36.5400
 0.8680	36.5550
 0.8690	36.5720
 0.8700	36.5850
 0.8710	36.5990
 0.8720	36.6150
 0.8730	36.6340
 0.8740	36.6450
 0.8750	36.6600
 0.8760	36.6780
 0.8770	36.6840
 0.8780	36.6970
 0.8790	36.7080
 0.8800	36.7150
 0.8810	36.7320
 0.8820	36.7500
 0.8830	36.7630
 0.8840	36.7720
 0.8850	36.7860
 0.8860	36.7970
 0.8870	36.8020
 0.8880	36.8020
 0.8890	36.8120
 0.8900	36.8210
 0.8910	36.8280
 0.8920	36.8350
 0.8930	36.8390
 0.8940	36.8490
 0.8950	36.8620
 0.8960	36.8670
 0.8970	36.8700
 0.8980	36.8710
 0.8990	36.8740
 0.9000	36.8800
 0.9010	36.8890
 0.9020	36.8980
 0.9030	36.9040
 0.9040	36.9080
 0.9050	36.9090
 0.9060	36.9120
 0.9070	36.9160
 0.9080	36.9190
 0.9090	36.9250
 0.9100	36.9320
 0.9110	36.9360
 0.9120	36.9420
 0.9130	36.9430
 0.9140	36.9440
 0.9150	36.9520
 0.9160	36.9560
 0.9170	36.9560
 0.9180	36.9560
 0.9190	36.9580
 0.9200	36.9590
 0.9210	36.9630
 0.9220	36.9620
 0.9230	36.9460
 0.9240	36.9390
 0.9250	36.9310
 0.9260	36.9240
 0.9270	36.9270
 0.9280	36.9180
 0.9290	36.9030
 0.9300	36.8870
 0.9310	36.8730
 0.9320	36.8620
 0.9330	36.8510
 0.9340	36.8310
 0.9350	36.7950
 0.9360	36.7640
 0.9370	36.7330
 0.9380	36.7010
 0.9390	36.6800
 0.9400	36.6620
 0.9410	36.6270
 0.9420	36.5740
 0.9430	36.5360
 0.9440	36.5010
 0.9450	36.4540
 0.9460	36.3900
 0.9470	36.3260
 0.9480	36.2590
 0.9490	36.1910
 0.9500	36.1210
 0.9510	36.0420
 0.9520	35.9460
 0.9530	35.8490
 0.9540	35.7660
 0.9550	35.6880
 0.9560	35.5940
 0.9570	35.4960
 0.9580	35.4120
 0.9590	35.3320
 0.9600	35.2610
 0.9610	35.1980
 0.9620	35.1380
 0.9630	35.0750
 0.9640	35.0260
 0.9650	34.9900
 0.9660	34.9560
 0.9670	34.9100
 0.9680	34.8690
 0.9690	34.8370
 0.9700	34.8110
 0.9710	34.7900
 0.9720	34.7810
 0.9730	34.7650
 0.9740	34.7290
 0.9750	34.7220
 0.9760	34.7100
 0.9770	34.6980
 0.9780	34.7020
 0.9790	34.7160
 0.9800	34.7230
 0.9810	34.7210
 0.9820	34.7190
 0.9830	34.7180
 0.9840	34.7180
 0.9850	34.7330
 0.9860	34.7740
 0.9870	34.8010
 0.9880	34.8100
 0.9890	34.8160
 0.9900	34.8410
 0.9910	34.8890
 0.9920	34.9540
 0.9930	35.0190
 0.9940	35.0840
 0.9950	35.1480
 0.9960	35.2130
 0.9970	35.2780
 0.9980	35.3430
 0.9990	35.4070
 1.0000	35.4720
 1.0010	35.5370
 1.0020	35.6020
 1.0030	35.6660
 1.0040	35.7310
 1.0050	35.7960
 1.0060	35.8610
 1.0070	35.9250
 1.0080	35.9900
 1.0090	36.0550
 1.0100	36.0550
 1.0110	36.1020
 1.0120	36.1490
 1.0130	36.1940
 1.0140	36.2410
 1.0150	36.2900
 1.0160	36.3390
 1.0170	36.3850
 1.0180	36.4320
 1.0190	36.4820
 1.0200	36.5280
 1.0210	36.5750
 1.0220	36.6230
 1.0230	36.6700
 1.0240	36.7130
 1.0250	36.7600
 1.0260	36.8090
 1.0270	36.8550
 1.0280	36.9000
 1.0290	36.9430
 1.0300	36.9840
 1.0310	37.0260
 1.0320	37.0690
 1.0330	37.1100
 1.0340	37.1520
 1.0350	37.1920
 1.0360	37.2320
 1.0370	37.2760
 1.0380	37.3170
 1.0390	37.3570
 1.0400	37.3940
 1.0410	37.4290
 1.0420	37.4650
 1.0430	37.5010
 1.0440	37.5360
 1.0450	37.5690
 1.0460	37.6030
 1.0470	37.6370
 1.0480	37.6700
 1.0490	37.7060
 1.0500	37.7370
 1.0510	37.7660
 1.0520	37.7910
 1.0530	37.8170
 1.0540	37.8410
 1.0550	37.8650
 1.0560	37.8870
 1.0570	37.9100
 1.0580	37.9360
 1.0590	37.9560
 1.0600	37.9720
 1.0610	37.9910
 1.0620	38.0070
 1.0630	38.0240
 1.0640	38.0480
 1.0650	38.0660
 1.0660	38.0810
 1.0670	38.0950
 1.0680	38.1070
 1.0690	38.1150
 1.0700	38.1270
 1.0710	38.1360
 1.0720	38.1480
 1.0730	38.1620
 1.0740	38.1710
 1.0750	38.1800
 1.0760	38.1850
 1.0770	38.1850
 1.0780	38.1880
 1.0790	38.1890
 1.0800	38.1920
 1.0810	38.2000
 1.0820	38.2020
 1.0830	38.2010
 1.0840	38.1990
 1.0850	38.1970
 1.0860	38.1890
 1.0870	38.1850
 1.0880	38.1830
 1.0890	38.1780
 1.0900	38.1700
 1.0910	38.1630
 1.0920	38.1560
 1.0930	38.1470
 1.0940	38.1390
 1.0950	38.1290
 1.0960	38.1170
 1.0970	38.1040
 1.0980	38.0900
 1.0990	38.0760
 1.1000	38.0610
 1.1010	38.0450
 1.1020	38.0300
 1.1030	38.0140
 1.1040	37.9990
 1.1050	37.9810
 1.1060	37.9610
 1.1070	37.9400
 1.1080	37.9180
 1.1090	37.8930
 1.1100	37.8690
 1.1110	37.8470
 1.1120	37.8200
 1.1130	37.7900
 1.1140	37.7570
 1.1150	37.7220
 1.1160	37.6820
 1.1170	37.6410
 1.1180	37.5960
 1.1190	37.5490
 1.1200	37.4970
 1.1210	37.4420
 1.1220	37.3790
 1.1230	37.3060
 1.1240	37.2290
 1.1250	37.1450
 1.1260	37.0570
 1.1270	36.9560
 1.1280	36.8490
 1.1290	36.7310
 1.1300	36.6030
 1.1310	36.4650
 1.1320	36.3170
 1.1330	36.1610
 1.1340	35.9940
 1.1350	35.8190
 1.1360	35.6360
 1.1370	35.4420
 1.1380	35.2420
 1.1390	35.0340
 1.1400	34.8200
 1.1410	34.6010
 1.1420	34.3810
 1.1430	34.1580
 1.1440	33.9350
 1.1450	33.7070
 1.1460	33.4880
 1.1470	33.2660
 1.1480	33.0540
 1.1490	32.8460
 1.1500	32.6500
 1.1510	32.4590
 1.1520	32.2790
 1.1530	32.1080
 1.1540	31.9490
 1.1550	31.8000
 1.1560	31.6610
 1.1570	31.5330
 1.1580	31.4190
 1.1590	31.3120
 1.1600	31.2120
 1.1610	31.1200
 1.1620	31.0340
 1.1630	30.9570
 1.1640	30.8870
 1.1650	30.8220
 1.1660	30.7660
 1.1670	30.7100
 1.1680	30.6580
 1.1690	30.6080
 1.1700	30.5610
 1.1710	30.5160
 1.1720	30.4740
 1.1730	30.4320
 1.1740	30.3930
 1.1750	30.3520
 1.1760	30.3110
 1.1770	30.2710
 1.1780	30.2270
 1.1790	30.1850
 1.1800	30.1430
 1.1810	30.0980
 1.1820	30.0540
 1.1830	30.0110
 1.1840	29.9700
 1.1850	29.9320
 1.1860	29.8960
 1.1870	29.8620
 1.1880	29.8300
 1.1890	29.7980
 1.1900	29.7700
 1.1910	29.7440
 1.1920	29.7230
 1.1930	29.7060
 1.1940	29.6890
 1.1950	29.6740
 1.1960	29.6610
 1.1970	29.6490
 1.1980	29.6410
 1.1990	29.6390
 1.2000	29.6400
 1.2010	29.6450
 1.2020	29.6540
 1.2030	29.6670
 1.2040	29.6850
 1.2050	29.7090
 1.2060	29.7370
 1.2070	29.7680
 1.2080	29.8030
 1.2090	29.8400
 1.2100	29.8800
 1.2110	29.9260
 1.2120	29.9770
 1.2130	30.0300
 1.2140	30.0860
 1.2150	30.1440
 1.2160	30.2040
 1.2170	30.2650
 1.2180	30.3270
 1.2190	30.3930
 1.2200	30.4600
 1.2210	30.5270
 1.2220	30.5950
 1.2230	30.6640
 1.2240	30.7320
 1.2250	30.7970
 1.2260	30.8600
 1.2270	30.9200
 1.2280	30.9790
 1.2290	31.0370
 1.2300	31.0920
 1.2310	31.1460
 1.2320	31.1990
 1.2330	31.2500
 1.2340	31.3010
 1.2350	31.3520
 1.2360	31.4010
 1.2370	31.4480
 1.2380	31.4940
 1.2390	31.5380
 1.2400	31.5810
 1.2410	31.6240
 1.2420	31.6660
 1.2430	31.7050
 1.2440	31.7430
 1.2450	31.7800
 1.2460	31.8180
 1.2470	31.8540
 1.2480	31.8880
 1.2490	31.9210
 1.2500	31.9510
 1.2510	31.9820
 1.2520	32.0110
 1.2530	32.0390
 1.2540	32.0660
 1.2550	32.0910
 1.2560	32.1150
 1.2570	32.1390
 1.2580	32.1590
 1.2590	32.1780
 1.2600	32.1950
 1.2610	32.2120
 1.2620	32.2260
 1.2630	32.2400
 1.2640	32.2540
 1.2650	32.2660
 1.2660	32.2760
 1.2670	32.2830
 1.2680	32.2900
 1.2690	32.2960
 1.2700	32.3020
 1.2710	32.3070
 1.2720	32.3090
 1.2730	32.3070
 1.2740	32.3030
 1.2750	32.2990
 1.2760	32.2940
 1.2770	32.2890
 1.2780	32.2830
 1.2790	32.2750
 1.2800	32.2650
 1.2810	32.2520
 1.2820	32.2360
 1.2830	32.2180
 1.2840	32.1950
 1.2850	32.1690
 1.2860	32.1410
 1.2870	32.1110
 1.2880	32.0770
 1.2890	32.0420
 1.2900	32.0040
 1.2910	31.9630
 1.2920	31.9180
 1.2930	31.8700
 1.2940	31.8190
 1.2950	31.7630
 1.2960	31.7030
 1.2970	31.6420
 1.2980	31.5770
 1.2990	31.5060
 1.3000	31.4340
 1.3010	31.3580
 1.3020	31.2770
 1.3030	31.1940
 1.3040	31.1090
 1.3050	31.0190
 1.3060	30.9270
 1.3070	30.8310
 1.3080	30.7300
 1.3090	30.6240
 1.3100	30.5140
 1.3110	30.4020
 1.3120	30.2850
 1.3130	30.1660
 1.3140	30.0420
 1.3150	29.9140
 1.3160	29.7830
 1.3170	29.6480
 1.3180	29.5090
 1.3190	29.3670
 1.3200	29.2230
 1.3210	29.0740
 1.3220	28.9210
 1.3230	28.7660
 1.3240	28.6060
 1.3250	28.4460
 1.3260	28.2830
 1.3270	28.1180
 1.3280	27.9500
 1.3290	27.7790
 1.3300	27.6070
 1.3310	27.4350
 1.3320	27.2600
 1.3330	27.0850
 1.3340	26.9110
 1.3350	26.7350
 1.3360	26.5600
 1.3370	26.3860
 1.3380	26.2110
 1.3390	26.0390
 1.3400	25.8660
 1.3410	25.6960
 1.3420	25.5280
 1.3430	25.3630
 1.3440	25.2000
 1.3450	25.0410
 1.3460	24.8830
 1.3470	24.7290
 1.3480	24.5760
 1.3490	24.4270
 1.3500	24.2800
 1.3510	24.1360
 1.3520	23.9930
 1.3530	23.8520
 1.3540	23.7110
 1.3550	23.5720
 1.3560	23.4330
 1.3570	23.2940
 1.3580	23.1570
 1.3590	23.0180
 1.3600	22.8770
 1.3610	22.7340
 1.3620	22.5870
 1.3630	22.4380
 1.3640	22.2860
 1.3650	22.1270
 1.3660	21.9650
 1.3670	21.7950
 1.3680	21.6170
 1.3690	21.4310
 1.3700	21.2350
 1.3710	21.0310
 1.3720	20.8160
 1.3730	20.5880
 1.3740	20.3500
 1.3750	20.0980
 1.3760	19.8290
 1.3770	19.5470
 1.3780	19.2470
 1.3790	18.9330
 1.3800	18.6050
 1.3810	18.2600
 1.3820	17.9060
 1.3830	17.5390
 1.3840	17.1650
 1.3850	16.7790
 1.3860	16.3900
 1.3870	15.9900
 1.3880	15.5940
 1.3890	15.1940
 1.3900	14.7940
 1.3910	14.4000
 1.3920	14.0060
 1.3930	13.6150
 1.3940	13.2330
 1.3950	12.8520
 1.3960	12.4820
 1.3970	12.1230
 1.3980	11.7740
 1.3990	11.4420
 1.4000	11.1220
 1.4010	10.8130
 1.4020	10.5200
 1.4030	10.2390
 1.4040	 9.9720
 1.4050	 9.7200
 1.4060	 9.4800
 1.4070	 9.2560
 1.4080	 9.0450
 1.4090	 8.8470
 1.4100	 8.6630
 1.4110	 8.4890
 1.4120	 8.3260
 1.4130	 8.1740
 1.4140	 8.0320
 1.4150	 7.9020
 1.4160	 7.7810
 1.4170	 7.6680
 1.4180	 7.5640
 1.4190	 7.4660
 1.4200	 7.3760
 1.4210	 7.2930
 1.4220	 7.2150
 1.4230	 7.1440
 1.4240	 7.0780
 1.4250	 7.0170
 1.4260	 6.9610
 1.4270	 6.9090
 1.4280	 6.8610
 1.4290	 6.8170
 1.4300	 6.7770
 1.4310	 6.7400
 1.4320	 6.7080
 1.4330	 6.6770
 1.4340	 6.6500
 1.4350	 6.6260
 1.4360	 6.6040
 1.4370	 6.5850
 1.4380	 6.5690
 1.4390	 6.5550
 1.4400	 6.5430
 1.4410	 6.5330
 1.4420	 6.5250
 1.4430	 6.5180
 1.4440	 6.5130
 1.4450	 6.5080
 1.4460	 6.5060
 1.4470	 6.5040
 1.4480	 6.5050
 1.4490	 6.5070
 1.4500	 6.5090
 1.4510	 6.5110
 1.4520	 6.5150
 1.4530	 6.5190
 1.4540	 6.5240
 1.4550	 6.5320
 1.4560	 6.5390
 1.4570	 6.5490
 1.4580	 6.5610
 1.4590	 6.5740
 1.4600	 6.5880
 1.4610	 6.6040
 1.4620	 6.6210
 1.4630	 6.6410
 1.4640	 6.6630
 1.4650	 6.6880
 1.4660	 6.7150
 1.4670	 6.7430
 1.4680	 6.7740
 1.4690	 6.8070
