Name: Fagus sylvatica 'atropurpurea'
Type: vegetation
Class: Tree
Genus: Fagus
Species: sylvatica_atropurpurea
Sample No.: JPL180
Owner: JPL
Wavelength Range: VSWIR
Origin: 34.12826; -118.11349; WGS84
Collection Date: 10/3/2016
Description: Samples were collected at the Huntington Garden in San Marino California as part of a JPL Subcontract studying HyTES imagery. Samples were taken to JPL and processed within 48 hours of collection. The same leaves were processed in the Nicolet and then measured using the ASD.
Measurement: Bidirectional reflectance
First Column: X
Second Column: Y
X Units: Wavelength (micrometer)
Y Units: Reflectance (percentage)
First X Value: 0.35
Last X Value: 2.5
Number of X Values: 2151
Additional Information: vegetation.tree.fagus.sylvatica_atropurpurea.vswir.jpl180.jpl.asd.ancillary.txt

 0.3500	 5.4640
 0.3510	 5.4830
 0.3520	 5.3960
 0.3530	 5.3510
 0.3540	 5.4270
 0.3550	 5.3620
 0.3560	 5.3640
 0.3570	 5.3690
 0.3580	 5.2130
 0.3590	 5.1510
 0.3600	 5.2050
 0.3610	 5.3050
 0.3620	 5.2920
 0.3630	 5.2290
 0.3640	 5.2230
 0.3650	 5.3190
 0.3660	 5.3130
 0.3670	 5.2810
 0.3680	 5.2560
 0.3690	 5.2370
 0.3700	 5.2460
 0.3710	 5.2730
 0.3720	 5.3000
 0.3730	 5.3060
 0.3740	 5.3040
 0.3750	 5.2960
 0.3760	 5.2870
 0.3770	 5.3030
 0.3780	 5.3050
 0.3790	 5.2980
 0.3800	 5.3170
 0.3810	 5.3020
 0.3820	 5.2870
 0.3830	 5.3000
 0.3840	 5.3120
 0.3850	 5.3190
 0.3860	 5.3140
 0.3870	 5.3060
 0.3880	 5.3500
 0.3890	 5.3750
 0.3900	 5.3750
 0.3910	 5.4210
 0.3920	 5.3840
 0.3930	 5.3380
 0.3940	 5.3520
 0.3950	 5.3760
 0.3960	 5.4070
 0.3970	 5.4190
 0.3980	 5.3910
 0.3990	 5.3890
 0.4000	 5.4000
 0.4010	 5.4140
 0.4020	 5.4380
 0.4030	 5.4700
 0.4040	 5.4830
 0.4050	 5.4690
 0.4060	 5.4880
 0.4070	 5.4930
 0.4080	 5.4830
 0.4090	 5.4870
 0.4100	 5.4940
 0.4110	 5.5110
 0.4120	 5.5360
 0.4130	 5.5550
 0.4140	 5.5530
 0.4150	 5.5430
 0.4160	 5.5430
 0.4170	 5.5560
 0.4180	 5.5700
 0.4190	 5.5800
 0.4200	 5.5870
 0.4210	 5.5870
 0.4220	 5.5960
 0.4230	 5.6180
 0.4240	 5.6280
 0.4250	 5.6310
 0.4260	 5.6320
 0.4270	 5.6350
 0.4280	 5.6420
 0.4290	 5.6430
 0.4300	 5.6400
 0.4310	 5.6490
 0.4320	 5.6570
 0.4330	 5.6630
 0.4340	 5.6690
 0.4350	 5.6760
 0.4360	 5.6780
 0.4370	 5.6740
 0.4380	 5.6750
 0.4390	 5.6830
 0.4400	 5.6900
 0.4410	 5.6950
 0.4420	 5.7200
 0.4430	 5.7320
 0.4440	 5.7320
 0.4450	 5.7320
 0.4460	 5.7370
 0.4470	 5.7420
 0.4480	 5.7490
 0.4490	 5.7610
 0.4500	 5.7640
 0.4510	 5.7650
 0.4520	 5.7710
 0.4530	 5.7850
 0.4540	 5.7910
 0.4550	 5.7900
 0.4560	 5.7910
 0.4570	 5.7890
 0.4580	 5.7940
 0.4590	 5.8050
 0.4600	 5.8010
 0.4610	 5.8070
 0.4620	 5.8150
 0.4630	 5.8120
 0.4640	 5.8140
 0.4650	 5.8160
 0.4660	 5.8170
 0.4670	 5.8210
 0.4680	 5.8240
 0.4690	 5.8250
 0.4700	 5.8270
 0.4710	 5.8330
 0.4720	 5.8370
 0.4730	 5.8400
 0.4740	 5.8440
 0.4750	 5.8430
 0.4760	 5.8410
 0.4770	 5.8430
 0.4780	 5.8490
 0.4790	 5.8530
 0.4800	 5.8580
 0.4810	 5.8640
 0.4820	 5.8670
 0.4830	 5.8660
 0.4840	 5.8650
 0.4850	 5.8700
 0.4860	 5.8770
 0.4870	 5.8820
 0.4880	 5.8850
 0.4890	 5.8870
 0.4900	 5.8930
 0.4910	 5.9020
 0.4920	 5.9110
 0.4930	 5.9160
 0.4940	 5.9230
 0.4950	 5.9340
 0.4960	 5.9410
 0.4970	 5.9520
 0.4980	 5.9630
 0.4990	 5.9700
 0.5000	 5.9780
 0.5010	 5.9890
 0.5020	 6.0050
 0.5030	 6.0250
 0.5040	 6.0390
 0.5050	 6.0530
 0.5060	 6.0730
 0.5070	 6.0920
 0.5080	 6.1170
 0.5090	 6.1440
 0.5100	 6.1690
 0.5110	 6.1960
 0.5120	 6.2310
 0.5130	 6.2710
 0.5140	 6.3110
 0.5150	 6.3570
 0.5160	 6.4080
 0.5170	 6.4600
 0.5180	 6.5190
 0.5190	 6.5810
 0.5200	 6.6440
 0.5210	 6.7070
 0.5220	 6.7770
 0.5230	 6.8500
 0.5240	 6.9210
 0.5250	 6.9930
 0.5260	 7.0630
 0.5270	 7.1300
 0.5280	 7.1950
 0.5290	 7.2600
 0.5300	 7.3190
 0.5310	 7.3720
 0.5320	 7.4260
 0.5330	 7.4740
 0.5340	 7.5170
 0.5350	 7.5560
 0.5360	 7.5920
 0.5370	 7.6280
 0.5380	 7.6620
 0.5390	 7.6870
 0.5400	 7.7140
 0.5410	 7.7430
 0.5420	 7.7730
 0.5430	 7.7980
 0.5440	 7.8220
 0.5450	 7.8450
 0.5460	 7.8650
 0.5470	 7.8800
 0.5480	 7.8980
 0.5490	 7.9210
 0.5500	 7.9410
 0.5510	 7.9580
 0.5520	 7.9700
 0.5530	 7.9780
 0.5540	 7.9840
 0.5550	 7.9840
 0.5560	 7.9780
 0.5570	 7.9680
 0.5580	 7.9510
 0.5590	 7.9290
 0.5600	 7.9040
 0.5610	 7.8750
 0.5620	 7.8450
 0.5630	 7.8120
 0.5640	 7.7750
 0.5650	 7.7360
 0.5660	 7.6980
 0.5670	 7.6610
 0.5680	 7.6240
 0.5690	 7.5890
 0.5700	 7.5540
 0.5710	 7.5180
 0.5720	 7.4810
 0.5730	 7.4480
 0.5740	 7.4190
 0.5750	 7.3930
 0.5760	 7.3650
 0.5770	 7.3390
 0.5780	 7.3160
 0.5790	 7.3000
 0.5800	 7.2820
 0.5810	 7.2660
 0.5820	 7.2560
 0.5830	 7.2470
 0.5840	 7.2380
 0.5850	 7.2290
 0.5860	 7.2200
 0.5870	 7.2130
 0.5880	 7.2060
 0.5890	 7.2030
 0.5900	 7.2030
 0.5910	 7.2030
 0.5920	 7.2020
 0.5930	 7.2020
 0.5940	 7.2000
 0.5950	 7.1980
 0.5960	 7.1970
 0.5970	 7.2010
 0.5980	 7.2020
 0.5990	 7.2010
 0.6000	 7.2010
 0.6010	 7.2000
 0.6020	 7.2000
 0.6030	 7.1980
 0.6040	 7.1930
 0.6050	 7.1880
 0.6060	 7.1820
 0.6070	 7.1770
 0.6080	 7.1720
 0.6090	 7.1650
 0.6100	 7.1600
 0.6110	 7.1600
 0.6120	 7.1520
 0.6130	 7.1400
 0.6140	 7.1260
 0.6150	 7.1180
 0.6160	 7.1090
 0.6170	 7.1010
 0.6180	 7.0960
 0.6190	 7.0920
 0.6200	 7.0890
 0.6210	 7.0880
 0.6220	 7.0870
 0.6230	 7.0860
 0.6240	 7.0880
 0.6250	 7.0920
 0.6260	 7.0950
 0.6270	 7.0970
 0.6280	 7.1010
 0.6290	 7.1080
 0.6300	 7.1150
 0.6310	 7.1210
 0.6320	 7.1260
 0.6330	 7.1290
 0.6340	 7.1280
 0.6350	 7.1250
 0.6360	 7.1220
 0.6370	 7.1130
 0.6380	 7.1020
 0.6390	 7.0900
 0.6400	 7.0780
 0.6410	 7.0630
 0.6420	 7.0500
 0.6430	 7.0370
 0.6440	 7.0210
 0.6450	 7.0110
 0.6460	 7.0020
 0.6470	 6.9920
 0.6480	 6.9840
 0.6490	 6.9810
 0.6500	 6.9800
 0.6510	 6.9810
 0.6520	 6.9820
 0.6530	 6.9850
 0.6540	 6.9910
 0.6550	 6.9980
 0.6560	 7.0010
 0.6570	 7.0010
 0.6580	 7.0030
 0.6590	 7.0060
 0.6600	 7.0110
 0.6610	 7.0160
 0.6620	 7.0180
 0.6630	 7.0190
 0.6640	 7.0220
 0.6650	 7.0300
 0.6660	 7.0380
 0.6670	 7.0490
 0.6680	 7.0630
 0.6690	 7.0820
 0.6700	 7.1020
 0.6710	 7.1260
 0.6720	 7.1540
 0.6730	 7.1810
 0.6740	 7.2130
 0.6750	 7.2490
 0.6760	 7.2880
 0.6770	 7.3280
 0.6780	 7.3720
 0.6790	 7.4190
 0.6800	 7.4700
 0.6810	 7.5250
 0.6820	 7.5810
 0.6830	 7.6370
 0.6840	 7.6970
 0.6850	 7.7570
 0.6860	 7.8190
 0.6870	 7.8840
 0.6880	 7.9560
 0.6890	 8.0370
 0.6900	 8.1290
 0.6910	 8.2340
 0.6920	 8.3670
 0.6930	 8.5310
 0.6940	 8.7280
 0.6950	 8.9610
 0.6960	 9.2350
 0.6970	 9.5520
 0.6980	 9.9110
 0.6990	10.3120
 0.7000	10.7490
 0.7010	11.2190
 0.7020	11.7170
 0.7030	12.2340
 0.7040	12.7690
 0.7050	13.3210
 0.7060	13.8790
 0.7070	14.4460
 0.7080	15.0210
 0.7090	15.6030
 0.7100	16.1910
 0.7110	16.7850
 0.7120	17.3820
 0.7130	17.9800
 0.7140	18.5830
 0.7150	19.1900
 0.7160	19.7970
 0.7170	20.4060
 0.7180	21.0170
 0.7190	21.6260
 0.7200	22.2300
 0.7210	22.8320
 0.7220	23.4300
 0.7230	24.0200
 0.7240	24.6000
 0.7250	25.1680
 0.7260	25.7230
 0.7270	26.2640
 0.7280	26.7880
 0.7290	27.2980
 0.7300	27.7900
 0.7310	28.2610
 0.7320	28.7160
 0.7330	29.1540
 0.7340	29.5720
 0.7350	29.9700
 0.7360	30.3510
 0.7370	30.7110
 0.7380	31.0500
 0.7390	31.3720
 0.7400	31.6750
 0.7410	31.9590
 0.7420	32.2280
 0.7430	32.4770
 0.7440	32.7050
 0.7450	32.9170
 0.7460	33.1140
 0.7470	33.2930
 0.7480	33.4570
 0.7490	33.6100
 0.7500	33.7500
 0.7510	33.8780
 0.7520	33.9950
 0.7530	34.1050
 0.7540	34.2030
 0.7550	34.2920
 0.7560	34.3740
 0.7570	34.4460
 0.7580	34.5120
 0.7590	34.5740
 0.7600	34.6330
 0.7610	34.6850
 0.7620	34.7340
 0.7630	34.7800
 0.7640	34.8200
 0.7650	34.8580
 0.7660	34.8890
 0.7670	34.9170
 0.7680	34.9450
 0.7690	34.9740
 0.7700	34.9980
 0.7710	35.0190
 0.7720	35.0420
 0.7730	35.0640
 0.7740	35.0860
 0.7750	35.1070
 0.7760	35.1260
 0.7770	35.1450
 0.7780	35.1630
 0.7790	35.1800
 0.7800	35.1990
 0.7810	35.2180
 0.7820	35.2380
 0.7830	35.2580
 0.7840	35.2760
 0.7850	35.2930
 0.7860	35.3090
 0.7870	35.3230
 0.7880	35.3390
 0.7890	35.3530
 0.7900	35.3640
 0.7910	35.3760
 0.7920	35.3910
 0.7930	35.4080
 0.7940	35.4230
 0.7950	35.4360
 0.7960	35.4470
 0.7970	35.4570
 0.7980	35.4670
 0.7990	35.4750
 0.8000	35.4820
 0.8010	35.4900
 0.8020	35.4980
 0.8030	35.5090
 0.8040	35.5200
 0.8050	35.5290
 0.8060	35.5360
 0.8070	35.5420
 0.8080	35.5470
 0.8090	35.5490
 0.8100	35.5540
 0.8110	35.5590
 0.8120	35.5630
 0.8130	35.5670
 0.8140	35.5710
 0.8150	35.5740
 0.8160	35.5750
 0.8170	35.5790
 0.8180	35.5830
 0.8190	35.5850
 0.8200	35.5880
 0.8210	35.5890
 0.8220	35.5910
 0.8230	35.5930
 0.8240	35.5950
 0.8250	35.5950
 0.8260	35.5980
 0.8270	35.6040
 0.8280	35.6070
 0.8290	35.6080
 0.8300	35.6060
 0.8310	35.6050
 0.8320	35.6080
 0.8330	35.6120
 0.8340	35.6150
 0.8350	35.6180
 0.8360	35.6190
 0.8370	35.6220
 0.8380	35.6260
 0.8390	35.6280
 0.8400	35.6330
 0.8410	35.6390
 0.8420	35.6450
 0.8430	35.6490
 0.8440	35.6560
 0.8450	35.6620
 0.8460	35.6640
 0.8470	35.6670
 0.8480	35.6740
 0.8490	35.6830
 0.8500	35.6860
 0.8510	35.6930
 0.8520	35.6990
 0.8530	35.7060
 0.8540	35.7120
 0.8550	35.7170
 0.8560	35.7240
 0.8570	35.7320
 0.8580	35.7370
 0.8590	35.7470
 0.8600	35.7590
 0.8610	35.7700
 0.8620	35.7810
 0.8630	35.7860
 0.8640	35.7910
 0.8650	35.8000
 0.8660	35.8100
 0.8670	35.8210
 0.8680	35.8310
 0.8690	35.8380
 0.8700	35.8510
 0.8710	35.8590
 0.8720	35.8650
 0.8730	35.8740
 0.8740	35.8860
 0.8750	35.8990
 0.8760	35.9120
 0.8770	35.9210
 0.8780	35.9320
 0.8790	35.9410
 0.8800	35.9470
 0.8810	35.9600
 0.8820	35.9720
 0.8830	35.9830
 0.8840	35.9940
 0.8850	36.0040
 0.8860	36.0180
 0.8870	36.0290
 0.8880	36.0340
 0.8890	36.0440
 0.8900	36.0510
 0.8910	36.0580
 0.8920	36.0710
 0.8930	36.0810
 0.8940	36.0900
 0.8950	36.1000
 0.8960	36.1110
 0.8970	36.1220
 0.8980	36.1290
 0.8990	36.1370
 0.9000	36.1510
 0.9010	36.1540
 0.9020	36.1610
 0.9030	36.1760
 0.9040	36.1870
 0.9050	36.1970
 0.9060	36.2050
 0.9070	36.2110
 0.9080	36.2180
 0.9090	36.2200
 0.9100	36.2220
 0.9110	36.2280
 0.9120	36.2380
 0.9130	36.2400
 0.9140	36.2440
 0.9150	36.2570
 0.9160	36.2630
 0.9170	36.2670
 0.9180	36.2700
 0.9190	36.2740
 0.9200	36.2810
 0.9210	36.2880
 0.9220	36.2920
 0.9230	36.2940
 0.9240	36.2920
 0.9250	36.2920
 0.9260	36.2950
 0.9270	36.2990
 0.9280	36.2980
 0.9290	36.2920
 0.9300	36.2860
 0.9310	36.2900
 0.9320	36.2830
 0.9330	36.2770
 0.9340	36.2760
 0.9350	36.2750
 0.9360	36.2720
 0.9370	36.2670
 0.9380	36.2570
 0.9390	36.2440
 0.9400	36.2410
 0.9410	36.2390
 0.9420	36.2300
 0.9430	36.2300
 0.9440	36.2170
 0.9450	36.2020
 0.9460	36.1910
 0.9470	36.1860
 0.9480	36.1670
 0.9490	36.1460
 0.9500	36.1350
 0.9510	36.1180
 0.9520	36.1060
 0.9530	36.0900
 0.9540	36.0650
 0.9550	36.0620
 0.9560	36.0400
 0.9570	36.0140
 0.9580	36.0040
 0.9590	35.9930
 0.9600	35.9820
 0.9610	35.9670
 0.9620	35.9490
 0.9630	35.9430
 0.9640	35.9360
 0.9650	35.9230
 0.9660	35.9040
 0.9670	35.8980
 0.9680	35.8890
 0.9690	35.8800
 0.9700	35.8770
 0.9710	35.8710
 0.9720	35.8710
 0.9730	35.8720
 0.9740	35.8670
 0.9750	35.8580
 0.9760	35.8650
 0.9770	35.8710
 0.9780	35.8540
 0.9790	35.8480
 0.9800	35.8510
 0.9810	35.8510
 0.9820	35.8390
 0.9830	35.8470
 0.9840	35.8540
 0.9850	35.8520
 0.9860	35.8460
 0.9870	35.8500
 0.9880	35.8480
 0.9890	35.8440
 0.9900	35.8530
 0.9910	35.8630
 0.9920	35.8700
 0.9930	35.8740
 0.9940	35.8780
 0.9950	35.8910
 0.9960	35.8950
 0.9970	35.8840
 0.9980	35.8700
 0.9990	35.8920
 1.0000	35.9000
 1.0010	36.0300
 1.0020	36.0340
 1.0030	36.0360
 1.0040	36.0410
 1.0050	36.0480
 1.0060	36.0520
 1.0070	36.0600
 1.0080	36.0640
 1.0090	36.0650
 1.0100	36.0680
 1.0110	36.0700
 1.0120	36.0740
 1.0130	36.0790
 1.0140	36.0850
 1.0150	36.0940
 1.0160	36.1010
 1.0170	36.1030
 1.0180	36.1100
 1.0190	36.1100
 1.0200	36.1110
 1.0210	36.1130
 1.0220	36.1130
 1.0230	36.1170
 1.0240	36.1240
 1.0250	36.1310
 1.0260	36.1420
 1.0270	36.1490
 1.0280	36.1520
 1.0290	36.1570
 1.0300	36.1610
 1.0310	36.1640
 1.0320	36.1670
 1.0330	36.1710
 1.0340	36.1730
 1.0350	36.1740
 1.0360	36.1770
 1.0370	36.1800
 1.0380	36.1850
 1.0390	36.1930
 1.0400	36.1980
 1.0410	36.2020
 1.0420	36.2070
 1.0430	36.2100
 1.0440	36.2150
 1.0450	36.2210
 1.0460	36.2250
 1.0470	36.2260
 1.0480	36.2290
 1.0490	36.2320
 1.0500	36.2340
 1.0510	36.2350
 1.0520	36.2380
 1.0530	36.2400
 1.0540	36.2420
 1.0550	36.2450
 1.0560	36.2520
 1.0570	36.2550
 1.0580	36.2570
 1.0590	36.2590
 1.0600	36.2590
 1.0610	36.2610
 1.0620	36.2640
 1.0630	36.2650
 1.0640	36.2640
 1.0650	36.2640
 1.0660	36.2630
 1.0670	36.2620
 1.0680	36.2620
 1.0690	36.2620
 1.0700	36.2620
 1.0710	36.2620
 1.0720	36.2630
 1.0730	36.2640
 1.0740	36.2660
 1.0750	36.2700
 1.0760	36.2710
 1.0770	36.2710
 1.0780	36.2720
 1.0790	36.2720
 1.0800	36.2730
 1.0810	36.2740
 1.0820	36.2750
 1.0830	36.2760
 1.0840	36.2760
 1.0850	36.2760
 1.0860	36.2760
 1.0870	36.2750
 1.0880	36.2730
 1.0890	36.2700
 1.0900	36.2640
 1.0910	36.2620
 1.0920	36.2610
 1.0930	36.2610
 1.0940	36.2660
 1.0950	36.2680
 1.0960	36.2690
 1.0970	36.2700
 1.0980	36.2730
 1.0990	36.2730
 1.1000	36.2700
 1.1010	36.2680
 1.1020	36.2650
 1.1030	36.2640
 1.1040	36.2640
 1.1050	36.2640
 1.1060	36.2620
 1.1070	36.2580
 1.1080	36.2560
 1.1090	36.2520
 1.1100	36.2490
 1.1110	36.2480
 1.1120	36.2450
 1.1130	36.2400
 1.1140	36.2360
 1.1150	36.2320
 1.1160	36.2270
 1.1170	36.2200
 1.1180	36.2150
 1.1190	36.2090
 1.1200	36.2010
 1.1210	36.1950
 1.1220	36.1870
 1.1230	36.1780
 1.1240	36.1680
 1.1250	36.1550
 1.1260	36.1390
 1.1270	36.1240
 1.1280	36.1070
 1.1290	36.0880
 1.1300	36.0710
 1.1310	36.0490
 1.1320	36.0230
 1.1330	35.9950
 1.1340	35.9620
 1.1350	35.9300
 1.1360	35.8950
 1.1370	35.8610
 1.1380	35.8240
 1.1390	35.7850
 1.1400	35.7450
 1.1410	35.7020
 1.1420	35.6600
 1.1430	35.6150
 1.1440	35.5720
 1.1450	35.5280
 1.1460	35.4840
 1.1470	35.4410
 1.1480	35.3990
 1.1490	35.3550
 1.1500	35.3140
 1.1510	35.2750
 1.1520	35.2380
 1.1530	35.2050
 1.1540	35.1730
 1.1550	35.1420
 1.1560	35.1150
 1.1570	35.0890
 1.1580	35.0650
 1.1590	35.0450
 1.1600	35.0260
 1.1610	35.0090
 1.1620	34.9920
 1.1630	34.9760
 1.1640	34.9620
 1.1650	34.9500
 1.1660	34.9390
 1.1670	34.9290
 1.1680	34.9210
 1.1690	34.9120
 1.1700	34.9040
 1.1710	34.8960
 1.1720	34.8880
 1.1730	34.8810
 1.1740	34.8740
 1.1750	34.8680
 1.1760	34.8610
 1.1770	34.8530
 1.1780	34.8430
 1.1790	34.8350
 1.1800	34.8260
 1.1810	34.8170
 1.1820	34.8090
 1.1830	34.8010
 1.1840	34.7930
 1.1850	34.7860
 1.1860	34.7780
 1.1870	34.7690
 1.1880	34.7620
 1.1890	34.7550
 1.1900	34.7490
 1.1910	34.7440
 1.1920	34.7400
 1.1930	34.7350
 1.1940	34.7300
 1.1950	34.7260
 1.1960	34.7230
 1.1970	34.7200
 1.1980	34.7160
 1.1990	34.7150
 1.2000	34.7140
 1.2010	34.7140
 1.2020	34.7160
 1.2030	34.7170
 1.2040	34.7180
 1.2050	34.7200
 1.2060	34.7220
 1.2070	34.7260
 1.2080	34.7310
 1.2090	34.7370
 1.2100	34.7430
 1.2110	34.7500
 1.2120	34.7580
 1.2130	34.7660
 1.2140	34.7740
 1.2150	34.7820
 1.2160	34.7890
 1.2170	34.7950
 1.2180	34.8020
 1.2190	34.8090
 1.2200	34.8160
 1.2210	34.8250
 1.2220	34.8350
 1.2230	34.8460
 1.2240	34.8570
 1.2250	34.8670
 1.2260	34.8760
 1.2270	34.8840
 1.2280	34.8910
 1.2290	34.8990
 1.2300	34.9070
 1.2310	34.9170
 1.2320	34.9270
 1.2330	34.9350
 1.2340	34.9410
 1.2350	34.9460
 1.2360	34.9500
 1.2370	34.9530
 1.2380	34.9580
 1.2390	34.9630
 1.2400	34.9690
 1.2410	34.9760
 1.2420	34.9810
 1.2430	34.9860
 1.2440	34.9900
 1.2450	34.9950
 1.2460	35.0000
 1.2470	35.0040
 1.2480	35.0080
 1.2490	35.0120
 1.2500	35.0140
 1.2510	35.0170
 1.2520	35.0200
 1.2530	35.0220
 1.2540	35.0240
 1.2550	35.0270
 1.2560	35.0280
 1.2570	35.0290
 1.2580	35.0290
 1.2590	35.0290
 1.2600	35.0280
 1.2610	35.0270
 1.2620	35.0270
 1.2630	35.0270
 1.2640	35.0260
 1.2650	35.0260
 1.2660	35.0240
 1.2670	35.0210
 1.2680	35.0170
 1.2690	35.0130
 1.2700	35.0100
 1.2710	35.0060
 1.2720	35.0020
 1.2730	34.9960
 1.2740	34.9890
 1.2750	34.9830
 1.2760	34.9770
 1.2770	34.9710
 1.2780	34.9670
 1.2790	34.9620
 1.2800	34.9550
 1.2810	34.9490
 1.2820	34.9410
 1.2830	34.9320
 1.2840	34.9240
 1.2850	34.9150
 1.2860	34.9030
 1.2870	34.8910
 1.2880	34.8800
 1.2890	34.8690
 1.2900	34.8560
 1.2910	34.8440
 1.2920	34.8310
 1.2930	34.8150
 1.2940	34.7990
 1.2950	34.7830
 1.2960	34.7650
 1.2970	34.7470
 1.2980	34.7280
 1.2990	34.7110
 1.3000	34.6910
 1.3010	34.6720
 1.3020	34.6520
 1.3030	34.6310
 1.3040	34.6090
 1.3050	34.5870
 1.3060	34.5630
 1.3070	34.5380
 1.3080	34.5130
 1.3090	34.4890
 1.3100	34.4620
 1.3110	34.4340
 1.3120	34.4060
 1.3130	34.3760
 1.3140	34.3460
 1.3150	34.3160
 1.3160	34.2840
 1.3170	34.2520
 1.3180	34.2190
 1.3190	34.1850
 1.3200	34.1510
 1.3210	34.1160
 1.3220	34.0810
 1.3230	34.0430
 1.3240	34.0040
 1.3250	33.9640
 1.3260	33.9220
 1.3270	33.8780
 1.3280	33.8340
 1.3290	33.7880
 1.3300	33.7420
 1.3310	33.6970
 1.3320	33.6480
 1.3330	33.5990
 1.3340	33.5490
 1.3350	33.5000
 1.3360	33.4500
 1.3370	33.3990
 1.3380	33.3490
 1.3390	33.2980
 1.3400	33.2460
 1.3410	33.1970
 1.3420	33.1470
 1.3430	33.0970
 1.3440	33.0460
 1.3450	32.9950
 1.3460	32.9410
 1.3470	32.8890
 1.3480	32.8380
 1.3490	32.7860
 1.3500	32.7350
 1.3510	32.6850
 1.3520	32.6330
 1.3530	32.5810
 1.3540	32.5280
 1.3550	32.4760
 1.3560	32.4240
 1.3570	32.3700
 1.3580	32.3170
 1.3590	32.2620
 1.3600	32.2060
 1.3610	32.1490
 1.3620	32.0910
 1.3630	32.0290
 1.3640	31.9640
 1.3650	31.8960
 1.3660	31.8250
 1.3670	31.7510
 1.3680	31.6730
 1.3690	31.5890
 1.3700	31.5000
 1.3710	31.4030
 1.3720	31.2980
 1.3730	31.1860
 1.3740	31.0650
 1.3750	30.9320
 1.3760	30.7880
 1.3770	30.6330
 1.3780	30.4620
 1.3790	30.2820
 1.3800	30.0860
 1.3810	29.8750
 1.3820	29.6530
 1.3830	29.4190
 1.3840	29.1700
 1.3850	28.9090
 1.3860	28.6360
 1.3870	28.3470
 1.3880	28.0510
 1.3890	27.7440
 1.3900	27.4260
 1.3910	27.1020
 1.3920	26.7690
 1.3930	26.4290
 1.3940	26.0850
 1.3950	25.7340
 1.3960	25.3830
 1.3970	25.0320
 1.3980	24.6810
 1.3990	24.3380
 1.4000	24.0010
 1.4010	23.6670
 1.4020	23.3430
 1.4030	23.0250
 1.4040	22.7160
 1.4050	22.4190
 1.4060	22.1320
 1.4070	21.8600
 1.4080	21.5990
 1.4090	21.3500
 1.4100	21.1150
 1.4110	20.8900
 1.4120	20.6790
 1.4130	20.4800
 1.4140	20.2920
 1.4150	20.1180
 1.4160	19.9550
 1.4170	19.8030
 1.4180	19.6620
 1.4190	19.5300
 1.4200	19.4070
 1.4210	19.2930
 1.4220	19.1870
 1.4230	19.0890
 1.4240	19.0000
 1.4250	18.9180
 1.4260	18.8430
 1.4270	18.7730
 1.4280	18.7090
 1.4290	18.6510
 1.4300	18.5990
 1.4310	18.5520
 1.4320	18.5110
 1.4330	18.4740
 1.4340	18.4410
 1.4350	18.4120
 1.4360	18.3870
 1.4370	18.3650
 1.4380	18.3470
 1.4390	18.3320
 1.4400	18.3210
 1.4410	18.3120
 1.4420	18.3060
 1.4430	18.3030
 1.4440	18.3020
 1.4450	18.3030
 1.4460	18.3060
 1.4470	18.3100
 1.4480	18.3160
 1.4490	18.3240
 1.4500	18.3330
 1.4510	18.3450
 1.4520	18.3590
 1.4530	18.3720
 1.4540	18.3880
 1.4550	18.4060
 1.4560	18.4250
 1.4570	18.4470
 1.4580	18.4700
 1.4590	18.4950
 1.4600	18.5250
 1.4610	18.5580
 1.4620	18.5940
 1.4630	18.6340
 1.4640	18.6780
 1.4650	18.7240
 1.4660	18.7750
 1.4670	18.8300
 1.4680	18.8880
 1.4690	18.9500
 1.4700	19.0160
 1.4710	19.0850
 1.4720	19.1560
 1.4730	19.2290
 1.4740	19.3060
 1.4750	19.3840
