Name: Pinus lambertiana 3
Type: vegetation
Class: Tree
Genus: Pinus
Species: lambertiana
Sample No.: VH070
Owner: UCSB
Wavelength Range: TIR
Origin: 37.0433; -119.3048; WGS84
Collection Date: 4/20/2013
Description: Samples were collected as part of the HyspIRI Airborne Campaign. 48 individual plants were sampled in three times in 2013 - spring  summer  and fall. The name of the sample includes a 1  2  or 3 which references a different individual of the species. Samples were taken to JPL and processed within 48 hours of collection. The same leaves were processed in the Nicolet and then measured using the ASD.
Measurement: Hemispherical reflectance
First Column: X
Second Column: Y
X Units: Wavelength (micrometers)
Y Units: Reflectance (percentage)
First X Value: 2.501
Last X Value: 15.387
Number of X Values: 1737
Additional Information: vegetation.tree.pinus.lambertiana.tir.vh070.ucsb.nicolet.ancillary.txt

 2.5010	 2.9270
 2.5030	 2.7170
 2.5040	 2.6830
 2.5050	 2.8420
 2.5060	 2.7390
 2.5070	 2.7970
 2.5090	 2.7780
 2.5100	 2.7520
 2.5110	 2.7290
 2.5120	 2.9190
 2.5140	 3.0240
 2.5150	 3.0140
 2.5160	 2.7750
 2.5170	 2.6280
 2.5180	 2.7770
 2.5200	 3.0790
 2.5210	 2.9520
 2.5220	 3.0150
 2.5230	 3.0920
 2.5250	 3.0860
 2.5260	 2.9790
 2.5270	 2.9020
 2.5280	 2.9100
 2.5290	 3.0780
 2.5310	 3.0120
 2.5320	 2.9790
 2.5330	 2.9880
 2.5340	 3.0910
 2.5360	 3.0820
 2.5370	 3.1520
 2.5380	 3.0410
 2.5390	 3.0590
 2.5410	 2.9850
 2.5420	 2.7990
 2.5430	 2.8040
 2.5440	 3.0050
 2.5460	 3.0460
 2.5470	 3.0390
 2.5480	 2.8840
 2.5490	 2.7650
 2.5510	 2.9320
 2.5520	 3.2400
 2.5530	 3.0890
 2.5540	 2.9890
 2.5560	 2.9670
 2.5570	 2.9940
 2.5580	 2.9870
 2.5590	 2.9420
 2.5610	 2.8610
 2.5620	 3.0280
 2.5630	 3.2170
 2.5640	 3.1810
 2.5660	 2.9310
 2.5670	 2.9550
 2.5680	 2.8950
 2.5700	 2.8970
 2.5710	 2.9020
 2.5720	 3.0260
 2.5730	 3.0740
 2.5750	 3.0010
 2.5760	 3.0480
 2.5770	 3.1110
 2.5790	 2.9740
 2.5800	 2.9010
 2.5810	 2.8060
 2.5820	 2.9590
 2.5840	 3.1170
 2.5850	 3.0700
 2.5860	 2.8560
 2.5880	 2.8990
 2.5890	 2.9810
 2.5900	 3.0470
 2.5910	 3.0780
 2.5930	 3.1570
 2.5940	 3.1170
 2.5950	 3.0570
 2.5970	 2.9410
 2.5980	 2.9740
 2.5990	 2.8390
 2.6000	 2.7560
 2.6020	 2.7060
 2.6030	 2.8290
 2.6040	 3.0280
 2.6060	 3.0640
 2.6070	 2.8680
 2.6080	 2.8440
 2.6100	 2.9330
 2.6110	 2.9750
 2.6120	 2.7880
 2.6140	 2.9400
 2.6150	 2.8790
 2.6160	 2.6930
 2.6180	 2.6960
 2.6190	 2.9410
 2.6200	 2.9530
 2.6220	 2.8890
 2.6230	 2.8260
 2.6240	 2.8990
 2.6260	 2.9180
 2.6270	 2.9200
 2.6280	 2.8100
 2.6300	 2.7040
 2.6310	 2.6690
 2.6320	 2.6510
 2.6340	 2.4330
 2.6350	 2.5520
 2.6360	 2.6950
 2.6380	 2.6930
 2.6390	 2.6620
 2.6400	 2.6620
 2.6420	 2.6440
 2.6430	 2.8040
 2.6440	 2.5850
 2.6460	 2.5060
 2.6470	 2.6090
 2.6480	 2.6480
 2.6500	 2.6340
 2.6510	 2.6250
 2.6520	 2.5070
 2.6540	 2.5090
 2.6550	 2.5140
 2.6560	 2.5650
 2.6580	 2.4060
 2.6590	 2.3040
 2.6610	 2.2230
 2.6620	 2.3230
 2.6630	 2.3570
 2.6650	 2.4810
 2.6660	 2.3220
 2.6670	 2.2920
 2.6690	 2.3910
 2.6700	 2.4810
 2.6720	 2.4440
 2.6730	 2.4200
 2.6740	 2.3610
 2.6760	 2.3930
 2.6770	 2.2640
 2.6780	 2.2010
 2.6800	 2.1500
 2.6810	 2.2610
 2.6830	 2.1860
 2.6840	 2.2300
 2.6850	 2.2900
 2.6870	 2.2120
 2.6880	 2.0990
 2.6900	 2.1240
 2.6910	 2.1840
 2.6920	 2.2580
 2.6940	 2.1810
 2.6950	 2.1290
 2.6970	 1.9910
 2.6980	 2.0250
 2.6990	 2.0740
 2.7010	 2.0730
 2.7020	 1.9610
 2.7040	 1.9980
 2.7050	 2.0690
 2.7060	 2.1810
 2.7080	 2.0840
 2.7090	 2.0870
 2.7110	 2.0380
 2.7120	 2.1580
 2.7130	 2.1210
 2.7150	 1.9580
 2.7160	 1.8680
 2.7180	 1.9700
 2.7190	 2.0810
 2.7210	 2.2150
 2.7220	 2.0370
 2.7230	 1.9530
 2.7250	 1.9820
 2.7260	 1.9550
 2.7280	 1.8330
 2.7290	 1.8940
 2.7310	 1.8780
 2.7320	 1.9380
 2.7330	 1.8140
 2.7350	 1.8680
 2.7360	 1.9280
 2.7380	 2.0050
 2.7390	 2.1280
 2.7410	 2.0570
 2.7420	 1.9110
 2.7440	 1.8620
 2.7450	 1.7430
 2.7470	 1.9450
 2.7480	 2.0710
 2.7490	 2.0560
 2.7510	 1.9260
 2.7520	 1.7380
 2.7540	 1.8950
 2.7550	 2.2720
 2.7570	 2.0270
 2.7580	 1.8630
 2.7600	 1.9310
 2.7610	 1.9420
 2.7630	 1.8450
 2.7640	 1.8210
 2.7660	 1.7950
 2.7670	 1.8760
 2.7680	 1.8920
 2.7700	 1.8830
 2.7710	 1.7630
 2.7730	 1.6160
 2.7740	 1.5900
 2.7760	 1.7840
 2.7770	 1.7500
 2.7790	 1.6940
 2.7800	 1.7950
 2.7820	 1.8750
 2.7830	 1.8220
 2.7850	 1.8340
 2.7860	 1.8760
 2.7880	 1.8750
 2.7890	 1.7130
 2.7910	 1.8280
 2.7920	 1.8470
 2.7940	 1.9000
 2.7950	 1.9970
 2.7970	 2.0660
 2.7980	 1.9500
 2.8000	 1.7860
 2.8010	 1.6140
 2.8030	 1.8960
 2.8040	 1.9690
 2.8060	 1.9400
 2.8070	 1.8270
 2.8090	 1.8600
 2.8110	 1.8110
 2.8120	 1.9030
 2.8140	 1.8640
 2.8150	 1.9190
 2.8170	 1.9040
 2.8180	 1.7570
 2.8200	 1.6660
 2.8210	 1.9390
 2.8230	 1.8660
 2.8240	 1.8300
 2.8260	 1.7300
 2.8270	 1.7780
 2.8290	 1.7020
 2.8300	 1.8430
 2.8320	 1.8740
 2.8340	 2.0460
 2.8350	 1.8510
 2.8370	 1.7200
 2.8380	 1.7180
 2.8400	 1.7840
 2.8410	 1.8310
 2.8430	 2.0280
 2.8440	 1.9470
 2.8460	 1.9740
 2.8480	 1.9590
 2.8490	 2.0250
 2.8510	 1.9720
 2.8520	 2.0080
 2.8540	 1.9310
 2.8550	 1.9990
 2.8570	 1.9260
 2.8590	 1.8210
 2.8600	 1.6450
 2.8620	 1.8100
 2.8630	 1.8780
 2.8650	 1.9680
 2.8660	 1.9420
 2.8680	 1.9660
 2.8700	 1.7460
 2.8710	 1.7240
 2.8730	 1.7160
 2.8740	 1.7170
 2.8760	 1.6300
 2.8780	 1.6460
 2.8790	 1.7670
 2.8810	 2.0410
 2.8820	 2.0790
 2.8840	 2.0170
 2.8860	 1.7820
 2.8870	 1.8050
 2.8890	 1.9070
 2.8900	 1.9290
 2.8920	 1.8130
 2.8940	 1.8480
 2.8950	 1.7240
 2.8970	 1.8170
 2.8980	 1.7970
 2.9000	 1.8070
 2.9020	 1.6910
 2.9030	 1.8430
 2.9050	 1.8840
 2.9070	 1.8950
 2.9080	 1.8650
 2.9100	 2.0380
 2.9120	 1.9450
 2.9130	 1.9630
 2.9150	 1.9170
 2.9160	 1.8940
 2.9180	 1.8430
 2.9200	 2.0020
 2.9210	 2.0160
 2.9230	 1.9450
 2.9250	 1.8530
 2.9260	 1.9710
 2.9280	 1.9180
 2.9300	 2.1190
 2.9310	 2.0980
 2.9330	 1.9920
 2.9350	 1.9540
 2.9360	 1.9950
 2.9380	 1.8030
 2.9400	 1.8950
 2.9410	 1.8750
 2.9430	 1.8660
 2.9450	 1.9610
 2.9460	 2.0930
 2.9480	 2.0360
 2.9500	 1.7830
 2.9510	 1.6670
 2.9530	 1.8540
 2.9550	 1.9620
 2.9560	 2.0860
 2.9580	 1.9990
 2.9600	 2.0520
 2.9610	 2.0070
 2.9630	 1.6340
 2.9650	 1.2100
 2.9660	 1.6820
 2.9680	 1.8240
 2.9700	 1.5990
 2.9720	 2.1730
 2.9730	 2.9010
 2.9750	 2.3420
 2.9770	 2.1430
 2.9780	 2.0460
 2.9800	 1.5360
 2.9820	 1.4800
 2.9840	 1.4920
 2.9850	 1.3480
 2.9870	 1.5430
 2.9890	 1.8730
 2.9900	 1.5750
 2.9920	 1.1870
 2.9940	 1.7880
 2.9960	 1.9510
 2.9970	 1.5410
 2.9990	 1.7700
 3.0010	 2.1530
 3.0030	 2.1340
 3.0040	 2.2470
 3.0060	 2.2000
 3.0080	 1.9040
 3.0100	 1.9800
 3.0110	 2.2630
 3.0130	 2.1440
 3.0150	 1.8050
 3.0170	 1.5990
 3.0180	 1.6790
 3.0200	 1.5660
 3.0220	 1.8740
 3.0240	 2.0870
 3.0250	 2.0800
 3.0270	 1.8820
 3.0290	 1.7610
 3.0310	 1.6650
 3.0320	 1.6140
 3.0340	 1.9750
 3.0360	 2.3110
 3.0380	 2.2970
 3.0400	 1.5750
 3.0410	 1.5400
 3.0430	 2.1390
 3.0450	 2.0200
 3.0470	 1.9310
 3.0480	 2.2690
 3.0500	 2.4950
 3.0520	 2.2520
 3.0540	 2.1950
 3.0560	 2.4790
 3.0570	 2.4970
 3.0590	 2.3920
 3.0610	 2.6940
 3.0630	 2.8110
 3.0650	 2.4220
 3.0660	 1.9340
 3.0680	 1.8170
 3.0700	 1.9510
 3.0720	 2.0500
 3.0740	 1.7780
 3.0760	 1.9030
 3.0770	 1.9680
 3.0790	 1.8940
 3.0810	 1.8220
 3.0830	 1.8810
 3.0850	 1.7700
 3.0870	 1.9420
 3.0880	 1.9300
 3.0900	 1.8430
 3.0920	 1.6840
 3.0940	 1.7070
 3.0960	 1.8770
 3.0980	 1.9830
 3.0990	 1.7260
 3.1010	 1.6020
 3.1030	 1.5500
 3.1050	 1.7610
 3.1070	 1.8810
 3.1090	 1.8360
 3.1110	 1.8210
 3.1120	 1.9730
 3.1140	 2.0510
 3.1160	 2.1430
 3.1180	 2.0730
 3.1200	 2.0520
 3.1220	 1.9170
 3.1240	 1.9310
 3.1260	 1.8860
 3.1270	 1.8750
 3.1290	 1.7980
 3.1310	 1.7770
 3.1330	 1.5780
 3.1350	 1.5800
 3.1370	 1.6970
 3.1390	 1.7360
 3.1410	 1.6880
 3.1430	 1.9110
 3.1450	 1.7270
 3.1460	 1.7140
 3.1480	 1.6990
 3.1500	 1.7710
 3.1520	 1.8080
 3.1540	 1.8610
 3.1560	 1.7430
 3.1580	 1.8100
 3.1600	 1.7080
 3.1620	 1.9220
 3.1640	 2.1180
 3.1660	 2.1440
 3.1680	 2.2620
 3.1700	 2.4500
 3.1710	 1.9990
 3.1730	 1.7510
 3.1750	 2.0100
 3.1770	 2.2490
 3.1790	 2.0300
 3.1810	 1.6600
 3.1830	 1.3780
 3.1850	 1.6650
 3.1870	 1.5030
 3.1890	 1.5600
 3.1910	 1.6000
 3.1930	 1.7260
 3.1950	 1.7370
 3.1970	 1.8480
 3.1990	 1.9520
 3.2010	 1.8900
 3.2030	 1.7240
 3.2050	 1.8340
 3.2070	 1.8810
 3.2090	 1.8550
 3.2110	 1.7300
 3.2130	 1.8630
 3.2150	 1.8150
 3.2170	 1.8720
 3.2190	 1.9740
 3.2210	 2.0320
 3.2230	 1.8450
 3.2250	 1.8040
 3.2270	 1.7760
 3.2290	 1.8750
 3.2310	 1.8550
 3.2330	 1.8240
 3.2350	 1.7310
 3.2370	 1.7890
 3.2390	 1.7790
 3.2410	 1.8850
 3.2430	 1.7980
 3.2450	 1.7920
 3.2470	 1.7670
 3.2490	 1.8100
 3.2510	 1.8190
 3.2530	 1.7280
 3.2550	 1.5920
 3.2570	 1.7730
 3.2590	 1.8280
 3.2610	 1.9100
 3.2630	 1.8100
 3.2650	 1.8800
 3.2670	 1.8410
 3.2690	 1.7250
 3.2720	 1.8330
 3.2740	 1.8050
 3.2760	 1.6500
 3.2780	 1.8040
 3.2800	 1.8430
 3.2820	 1.8400
 3.2840	 1.7340
 3.2860	 1.7580
 3.2880	 1.7070
 3.2900	 1.6950
 3.2920	 1.5780
 3.2940	 1.6800
 3.2960	 1.7140
 3.2990	 1.8120
 3.3010	 1.7690
 3.3030	 1.8060
 3.3050	 1.6740
 3.3070	 1.6490
 3.3090	 1.6520
 3.3110	 1.7020
 3.3130	 1.6810
 3.3150	 1.7610
 3.3180	 1.7160
 3.3200	 1.8030
 3.3220	 1.7860
 3.3240	 1.6710
 3.3260	 1.6470
 3.3280	 1.8080
 3.3300	 1.7600
 3.3330	 1.7840
 3.3350	 1.7470
 3.3370	 1.7800
 3.3390	 1.7430
 3.3410	 1.7410
 3.3430	 1.7070
 3.3450	 1.7210
 3.3480	 1.6570
 3.3500	 1.6100
 3.3520	 1.5480
 3.3540	 1.5420
 3.3560	 1.4440
 3.3580	 1.5960
 3.3610	 1.6010
 3.3630	 1.5530
 3.3650	 1.4310
 3.3670	 1.5290
 3.3690	 1.5330
 3.3720	 1.5200
 3.3740	 1.5040
 3.3760	 1.6630
 3.3780	 1.6650
 3.3800	 1.7380
 3.3830	 1.6220
 3.3850	 1.6320
 3.3870	 1.5550
 3.3890	 1.4350
 3.3910	 1.4840
 3.3940	 1.6010
 3.3960	 1.5870
 3.3980	 1.6300
 3.4000	 1.4950
 3.4020	 1.4180
 3.4050	 1.4750
 3.4070	 1.7280
 3.4090	 1.8320
 3.4110	 1.8650
 3.4140	 1.8450
 3.4160	 2.0280
 3.4180	 2.1790
 3.4200	 2.3280
 3.4230	 2.3900
 3.4250	 2.7560
 3.4270	 3.1020
 3.4290	 3.2650
 3.4320	 3.0570
 3.4340	 2.8520
 3.4360	 2.6890
 3.4390	 2.6010
 3.4410	 2.4530
 3.4430	 2.3840
 3.4450	 2.3480
 3.4480	 2.4360
 3.4500	 2.3690
 3.4520	 2.3370
 3.4550	 2.2680
 3.4570	 2.3470
 3.4590	 2.3230
 3.4620	 2.3320
 3.4640	 2.2220
 3.4660	 2.1490
 3.4680	 2.0520
 3.4710	 2.0130
 3.4730	 1.9720
 3.4750	 1.9570
 3.4780	 1.9310
 3.4800	 1.9650
 3.4820	 1.9350
 3.4850	 2.0530
 3.4870	 2.0950
 3.4890	 1.9870
 3.4920	 1.9140
 3.4940	 1.9460
 3.4970	 1.8270
 3.4990	 1.8300
 3.5010	 1.8680
 3.5040	 2.0980
 3.5060	 2.3750
 3.5080	 2.7790
 3.5110	 2.9520
 3.5130	 2.9980
 3.5160	 2.8360
 3.5180	 2.5880
 3.5200	 2.3630
 3.5230	 2.3300
 3.5250	 2.2570
 3.5270	 2.3400
 3.5300	 2.3140
 3.5320	 2.3100
 3.5350	 2.2570
 3.5370	 2.2330
 3.5400	 2.1720
 3.5420	 2.2070
 3.5440	 2.1290
 3.5470	 2.1150
 3.5490	 2.1850
 3.5520	 2.2450
 3.5540	 2.1150
 3.5570	 2.0950
 3.5590	 2.1340
 3.5610	 2.1310
 3.5640	 2.0640
 3.5660	 2.2040
 3.5690	 2.3320
 3.5710	 2.3300
 3.5740	 2.1460
 3.5760	 2.1300
 3.5790	 2.0660
 3.5810	 2.0200
 3.5840	 1.9490
 3.5860	 1.9240
 3.5890	 1.9270
 3.5910	 2.0290
 3.5930	 2.0190
 3.5960	 2.1800
 3.5980	 2.2070
 3.6010	 2.2280
 3.6030	 2.1640
 3.6060	 2.1600
 3.6080	 2.1110
 3.6110	 2.1470
 3.6140	 2.1180
 3.6160	 2.1490
 3.6190	 2.0120
 3.6210	 2.0190
 3.6240	 2.0420
 3.6260	 2.0550
 3.6290	 1.9990
 3.6310	 2.1440
 3.6340	 2.0460
 3.6360	 2.0470
 3.6390	 2.0720
 3.6410	 2.0740
 3.6440	 1.9830
 3.6470	 2.0470
 3.6490	 2.0160
 3.6520	 2.0570
 3.6540	 2.0390
 3.6570	 2.0750
 3.6590	 2.0210
 3.6620	 1.9630
 3.6650	 1.9450
 3.6670	 2.0360
 3.6700	 1.9960
 3.6720	 2.0020
 3.6750	 1.9830
 3.6780	 2.0710
 3.6800	 2.0710
 3.6830	 2.1550
 3.6850	 2.0850
 3.6880	 2.0710
 3.6910	 2.0610
 3.6930	 2.1430
 3.6960	 2.1220
 3.6990	 2.1700
 3.7010	 2.0820
 3.7040	 2.0380
 3.7060	 2.0100
 3.7090	 2.0690
 3.7120	 2.0690
 3.7140	 2.0660
 3.7170	 1.9750
 3.7200	 2.0250
 3.7220	 2.0720
 3.7250	 2.1020
 3.7280	 2.0560
 3.7300	 2.0310
 3.7330	 1.8850
 3.7360	 2.0260
 3.7390	 2.1900
 3.7410	 2.1570
 3.7440	 2.0950
 3.7470	 2.1010
 3.7490	 1.9690
 3.7520	 1.9250
 3.7550	 1.8970
 3.7580	 1.9720
 3.7600	 2.0300
 3.7630	 2.0880
 3.7660	 2.0260
 3.7680	 2.0420
 3.7710	 2.0480
 3.7740	 2.0910
 3.7770	 2.0410
 3.7790	 2.0600
 3.7820	 2.0970
 3.7850	 2.0960
 3.7880	 1.9400
 3.7900	 1.9950
 3.7930	 2.0210
 3.7960	 2.0600
 3.7990	 1.9730
 3.8020	 2.0250
 3.8040	 2.0400
 3.8070	 2.1190
 3.8100	 2.0550
 3.8130	 2.0500
 3.8160	 2.0780
 3.8180	 2.1330
 3.8210	 2.0870
 3.8240	 2.0980
 3.8270	 1.9440
 3.8300	 1.9510
 3.8330	 1.9750
 3.8350	 2.0080
 3.8380	 1.9830
 3.8410	 1.9980
 3.8440	 1.9710
 3.8470	 1.9610
 3.8500	 1.9050
 3.8520	 2.0230
 3.8550	 2.0760
 3.8580	 2.1120
 3.8610	 2.0620
 3.8640	 2.0490
 3.8670	 2.0320
 3.8700	 2.1260
 3.8730	 2.0400
 3.8750	 2.0140
 3.8780	 1.9850
 3.8810	 2.0110
 3.8840	 1.9850
 3.8870	 2.0480
 3.8900	 2.0240
 3.8930	 2.0290
 3.8960	 1.9770
 3.8990	 1.9720
 3.9020	 1.9320
 3.9050	 2.0100
 3.9080	 2.0730
 3.9110	 2.1010
 3.9140	 2.0270
 3.9160	 2.0670
 3.9190	 2.0870
 3.9220	 2.0560
 3.9250	 2.0270
 3.9280	 2.0940
 3.9310	 2.0370
 3.9340	 2.1370
 3.9370	 2.1140
 3.9400	 1.9800
 3.9430	 1.8510
 3.9460	 2.0250
 3.9490	 2.0900
 3.9520	 2.0840
 3.9550	 2.1200
 3.9580	 2.2000
 3.9610	 2.1200
 3.9640	 2.0770
 3.9670	 2.0920
 3.9700	 2.1700
 3.9730	 2.1170
 3.9770	 2.0770
 3.9800	 2.0600
 3.9830	 2.0810
 3.9860	 2.0220
 3.9890	 2.0720
 3.9920	 1.9900
 3.9950	 2.0370
 3.9980	 2.0680
 4.0010	 2.0470
 4.0040	 1.9800
 4.0070	 2.0340
 4.0100	 2.0490
 4.0130	 2.0780
 4.0170	 2.0440
 4.0200	 2.0790
 4.0230	 2.0060
 4.0260	 2.0160
 4.0290	 1.9490
 4.0320	 2.0460
 4.0350	 2.0100
 4.0380	 2.0600
 4.0420	 2.0280
 4.0450	 2.0540
 4.0480	 1.9680
 4.0510	 2.0340
 4.0540	 1.9940
 4.0570	 2.0110
 4.0610	 1.9630
 4.0640	 1.9920
 4.0670	 2.0460
 4.0700	 2.1260
 4.0730	 2.0910
 4.0770	 2.1050
 4.0800	 2.1530
 4.0830	 2.1690
 4.0860	 2.0700
 4.0890	 2.1060
 4.0930	 2.1150
 4.0960	 2.1010
 4.0990	 1.9720
 4.1020	 1.9230
 4.1060	 1.9180
 4.1090	 1.9320
 4.1120	 1.9510
 4.1150	 2.0640
 4.1190	 2.0030
 4.1220	 2.0940
 4.1250	 2.0650
 4.1280	 2.0430
 4.1320	 2.0660
 4.1350	 2.0680
 4.1380	 1.9910
 4.1420	 2.0480
 4.1450	 2.0490
 4.1480	 2.1360
 4.1520	 2.0900
 4.1550	 2.0800
 4.1580	 1.9670
 4.1620	 1.9430
 4.1650	 1.9230
 4.1680	 2.0230
 4.1720	 2.0300
 4.1750	 2.0460
 4.1780	 2.0810
 4.1820	 2.1250
 4.1850	 2.0160
 4.1890	 2.0110
 4.1920	 1.9290
 4.1950	 2.0250
 4.1990	 2.0740
 4.2020	 2.1650
 4.2060	 2.1330
 4.2090	 2.0960
 4.2120	 2.1060
 4.2160	 2.4800
 4.2190	 2.2770
 4.2230	 2.3590
 4.2260	 2.3750
 4.2300	 2.2020
 4.2330	 2.1590
 4.2360	 2.3040
 4.2400	 2.0970
 4.2430	 2.3450
 4.2470	 2.1330
 4.2500	 2.2540
 4.2540	 2.2160
 4.2570	 2.1220
 4.2610	 1.9430
 4.2640	 2.0920
 4.2680	 2.3280
 4.2710	 3.0390
 4.2750	 2.9460
 4.2780	 2.3440
 4.2820	 1.9980
 4.2850	 2.2210
 4.2890	 2.1070
 4.2930	 2.0210
 4.2960	 2.0290
 4.3000	 2.3690
 4.3030	 2.3240
 4.3070	 2.2360
 4.3100	 2.2960
 4.3140	 2.4120
 4.3180	 2.2470
 4.3210	 2.0970
 4.3250	 2.0640
 4.3280	 2.0750
 4.3320	 1.9290
 4.3360	 1.9110
 4.3390	 1.9390
 4.3430	 2.0280
 4.3470	 2.0080
 4.3500	 2.1330
 4.3540	 2.1450
 4.3570	 2.1170
 4.3610	 1.9840
 4.3650	 1.9980
 4.3680	 1.9790
 4.3720	 1.9540
 4.3760	 1.8810
 4.3800	 1.9310
 4.3830	 1.9270
 4.3870	 1.9220
 4.3910	 1.8320
 4.3940	 1.9270
 4.3980	 1.9390
 4.4020	 1.9220
 4.4060	 1.8260
 4.4090	 1.8510
 4.4130	 1.9250
 4.4170	 1.9510
 4.4210	 1.8570
 4.4240	 1.9130
 4.4280	 1.8760
 4.4320	 1.9520
 4.4360	 1.9070
 4.4400	 1.9020
 4.4430	 1.9230
 4.4470	 2.0050
 4.4510	 1.9780
 4.4550	 1.9910
 4.4590	 1.8740
 4.4620	 1.9270
 4.4660	 1.9440
 4.4700	 1.9480
 4.4740	 1.9310
 4.4780	 2.0760
 4.4820	 2.0120
 4.4860	 1.9520
 4.4900	 1.9440
 4.4930	 1.9340
 4.4970	 1.8400
 4.5010	 1.8790
 4.5050	 1.9230
 4.5090	 1.9430
 4.5130	 1.7740
 4.5170	 1.8040
 4.5210	 1.8460
 4.5250	 1.9050
 4.5290	 1.9060
 4.5330	 1.9810
 4.5370	 1.9820
 4.5410	 1.9900
 4.5450	 1.9210
 4.5490	 1.9690
 4.5530	 1.9100
 4.5570	 1.8490
 4.5610	 1.7290
 4.5650	 1.8180
 4.5690	 1.9190
 4.5730	 1.9340
 4.5770	 1.8430
 4.5810	 1.8530
 4.5850	 1.7960
 4.5890	 1.8580
 4.5930	 1.8760
 4.5970	 1.9100
 4.6010	 1.8690
 4.6050	 1.9200
 4.6090	 1.8510
 4.6130	 1.9160
 4.6170	 1.8020
 4.6220	 1.7770
 4.6260	 1.7880
 4.6300	 1.8740
 4.6340	 1.8920
 4.6380	 1.9150
 4.6420	 1.8720
 4.6460	 1.8680
 4.6510	 1.8090
 4.6550	 1.8760
 4.6590	 1.8460
 4.6630	 1.9160
 4.6670	 1.7960
 4.6720	 1.7950
 4.6760	 1.8070
 4.6800	 1.8540
 4.6840	 1.8290
 4.6880	 1.8800
 4.6930	 1.9150
 4.6970	 2.0400
 4.7010	 1.9300
 4.7050	 1.8790
 4.7100	 1.8440
 4.7140	 1.8970
 4.7180	 1.8390
 4.7230	 1.8880
 4.7270	 1.8580
 4.7310	 1.8550
 4.7360	 1.7680
 4.7400	 1.8810
 4.7440	 1.8990
 4.7490	 1.8710
 4.7530	 1.8020
 4.7570	 1.9020
 4.7620	 1.8750
 4.7660	 1.8220
 4.7700	 1.7940
 4.7750	 1.9510
 4.7790	 1.8140
 4.7840	 1.8320
 4.7880	 1.9170
 4.7920	 1.9130
 4.7970	 1.6900
 4.8010	 1.7120
 4.8060	 1.8540
 4.8100	 1.9160
 4.8150	 1.8760
 4.8190	 1.8670
 4.8240	 1.7770
 4.8280	 1.8410
 4.8330	 1.8770
 4.8370	 1.8290
 4.8420	 1.7760
 4.8460	 1.9000
 4.8510	 1.8170
 4.8550	 1.7430
 4.8600	 1.7520
 4.8640	 1.8640
 4.8690	 1.9010
 4.8730	 1.9330
 4.8780	 1.8640
 4.8830	 1.8630
 4.8870	 1.7460
 4.8920	 1.7950
 4.8960	 1.8030
 4.9010	 1.8630
 4.9060	 1.8210
 4.9100	 1.8730
 4.9150	 1.8320
 4.9200	 1.8990
 4.9240	 1.8440
 4.9290	 1.8700
 4.9340	 1.7990
 4.9380	 1.8200
 4.9430	 1.8220
 4.9480	 1.8380
 4.9530	 1.8380
 4.9570	 1.9530
 4.9620	 1.8970
 4.9670	 1.9060
 4.9720	 1.9240
 4.9760	 1.9330
 4.9810	 1.7550
 4.9860	 1.7710
 4.9910	 1.7620
 4.9960	 1.8030
 5.0000	 1.7780
 5.0050	 1.8770
 5.0100	 1.8290
 5.0150	 1.8650
 5.0200	 1.8230
 5.0250	 1.8830
 5.0290	 1.9010
 5.0340	 1.9640
 5.0390	 1.8880
 5.0440	 1.9050
 5.0490	 1.9070
 5.0540	 1.9120
 5.0590	 1.7670
 5.0640	 1.8450
 5.0690	 1.9370
 5.0740	 1.9240
 5.0790	 1.8650
 5.0840	 1.9150
 5.0890	 1.8370
 5.0940	 1.9520
 5.0990	 1.9760
 5.1040	 2.0260
 5.1090	 1.9940
 5.1140	 1.9610
 5.1190	 1.8580
 5.1240	 1.9140
 5.1290	 1.8360
 5.1340	 1.8510
 5.1390	 1.7690
 5.1440	 1.8510
 5.1490	 1.8230
 5.1540	 1.8120
 5.1600	 1.8850
 5.1650	 2.0180
 5.1700	 1.9490
 5.1750	 1.8240
 5.1800	 1.7700
 5.1850	 1.9280
 5.1910	 1.9710
 5.1960	 2.0240
 5.2010	 1.9820
 5.2060	 2.0350
 5.2110	 1.9360
 5.2170	 1.8950
 5.2220	 1.8820
 5.2270	 1.9450
 5.2320	 1.9010
 5.2380	 1.9430
 5.2430	 1.8430
 5.2480	 1.8140
 5.2540	 1.7670
 5.2590	 1.8800
 5.2640	 1.8850
 5.2700	 1.9230
 5.2750	 1.8570
 5.2800	 1.9310
 5.2860	 1.8680
 5.2910	 1.8780
 5.2970	 1.8750
 5.3020	 1.9180
 5.3070	 1.8460
 5.3130	 1.8690
 5.3180	 1.7830
 5.3240	 1.8540
 5.3290	 1.8380
 5.3350	 1.8720
 5.3400	 1.8880
 5.3460	 1.9250
 5.3510	 1.9620
 5.3570	 2.0100
 5.3620	 1.9420
 5.3680	 2.0340
 5.3730	 2.0190
 5.3790	 1.9990
 5.3850	 1.9140
 5.3900	 1.8440
 5.3960	 1.7710
 5.4010	 1.8320
 5.4070	 1.8100
 5.4130	 1.8400
 5.4180	 1.8150
 5.4240	 1.9240
 5.4300	 1.8720
 5.4350	 1.9010
 5.4410	 1.9060
