Name: Melaleuca linariifolia
Type: vegetation
Class: Tree
Genus: Melaleuca
Species: linariifolia
Sample No.: JPL164
Owner: JPL
Wavelength Range: VSWIR
Origin: 34.12579; -118.11322; WGS84
Collection Date: 9/14/2016
Description: Samples were collected at the Huntington Garden in San Marino California as part of a JPL Subcontract studying HyTES imagery. Samples were taken to JPL and processed within 48 hours of collection. The same leaves were processed in the Nicolet and then measured using the ASD.
Measurement: Bidirectional reflectance
First Column: X
Second Column: Y
X Units: Wavelength (micrometer)
Y Units: Reflectance (percentage)
First X Value: 0.35
Last X Value: 2.5
Number of X Values: 2151
Additional Information: vegetation.tree.melaleuca.linariifolia.vswir.jpl164.jpl.asd.ancillary.txt

 0.3500	 4.1230
 0.3510	 4.0950
 0.3520	 4.1290
 0.3530	 4.1460
 0.3540	 4.0800
 0.3550	 3.9740
 0.3560	 3.9290
 0.3570	 3.9280
 0.3580	 3.9040
 0.3590	 3.9360
 0.3600	 3.9690
 0.3610	 3.9850
 0.3620	 4.0350
 0.3630	 3.9400
 0.3640	 3.8750
 0.3650	 3.9820
 0.3660	 3.9410
 0.3670	 3.8640
 0.3680	 3.8260
 0.3690	 3.8590
 0.3700	 3.8360
 0.3710	 3.8340
 0.3720	 3.8870
 0.3730	 3.8910
 0.3740	 3.9040
 0.3750	 3.8770
 0.3760	 3.7830
 0.3770	 3.8290
 0.3780	 3.8890
 0.3790	 3.8870
 0.3800	 3.8140
 0.3810	 3.8230
 0.3820	 3.8670
 0.3830	 3.8840
 0.3840	 3.8540
 0.3850	 3.8750
 0.3860	 3.8970
 0.3870	 3.8400
 0.3880	 3.8140
 0.3890	 3.8510
 0.3900	 3.9150
 0.3910	 3.9040
 0.3920	 3.8790
 0.3930	 3.8910
 0.3940	 3.9420
 0.3950	 3.9310
 0.3960	 3.9090
 0.3970	 3.9050
 0.3980	 3.9260
 0.3990	 3.9540
 0.4000	 3.9620
 0.4010	 3.9540
 0.4020	 3.9700
 0.4030	 3.9840
 0.4040	 3.9870
 0.4050	 3.9820
 0.4060	 3.9980
 0.4070	 4.0030
 0.4080	 4.0070
 0.4090	 4.0420
 0.4100	 4.0560
 0.4110	 4.0670
 0.4120	 4.0900
 0.4130	 4.1190
 0.4140	 4.1390
 0.4150	 4.1490
 0.4160	 4.1570
 0.4170	 4.1710
 0.4180	 4.1900
 0.4190	 4.2070
 0.4200	 4.2140
 0.4210	 4.2420
 0.4220	 4.2720
 0.4230	 4.2910
 0.4240	 4.3150
 0.4250	 4.3290
 0.4260	 4.3390
 0.4270	 4.3530
 0.4280	 4.3660
 0.4290	 4.3840
 0.4300	 4.4070
 0.4310	 4.4280
 0.4320	 4.4530
 0.4330	 4.4750
 0.4340	 4.4890
 0.4350	 4.5080
 0.4360	 4.5180
 0.4370	 4.5220
 0.4380	 4.5310
 0.4390	 4.5360
 0.4400	 4.5390
 0.4410	 4.5430
 0.4420	 4.5380
 0.4430	 4.5530
 0.4440	 4.5770
 0.4450	 4.5860
 0.4460	 4.6010
 0.4470	 4.6070
 0.4480	 4.6090
 0.4490	 4.6290
 0.4500	 4.6480
 0.4510	 4.6640
 0.4520	 4.6770
 0.4530	 4.6880
 0.4540	 4.6970
 0.4550	 4.7030
 0.4560	 4.7010
 0.4570	 4.7040
 0.4580	 4.7120
 0.4590	 4.7210
 0.4600	 4.7130
 0.4610	 4.7050
 0.4620	 4.7050
 0.4630	 4.7130
 0.4640	 4.7140
 0.4650	 4.7080
 0.4660	 4.7010
 0.4670	 4.7050
 0.4680	 4.7050
 0.4690	 4.7030
 0.4700	 4.7020
 0.4710	 4.7020
 0.4720	 4.6970
 0.4730	 4.6930
 0.4740	 4.6980
 0.4750	 4.7020
 0.4760	 4.7050
 0.4770	 4.7060
 0.4780	 4.7100
 0.4790	 4.7080
 0.4800	 4.7060
 0.4810	 4.7100
 0.4820	 4.7130
 0.4830	 4.7200
 0.4840	 4.7290
 0.4850	 4.7340
 0.4860	 4.7460
 0.4870	 4.7570
 0.4880	 4.7620
 0.4890	 4.7610
 0.4900	 4.7670
 0.4910	 4.7760
 0.4920	 4.7810
 0.4930	 4.7890
 0.4940	 4.8050
 0.4950	 4.8260
 0.4960	 4.8420
 0.4970	 4.8600
 0.4980	 4.8820
 0.4990	 4.9030
 0.5000	 4.9290
 0.5010	 4.9580
 0.5020	 4.9930
 0.5030	 5.0360
 0.5040	 5.0790
 0.5050	 5.1240
 0.5060	 5.1750
 0.5070	 5.2230
 0.5080	 5.2760
 0.5090	 5.3380
 0.5100	 5.4060
 0.5110	 5.4680
 0.5120	 5.5340
 0.5130	 5.6110
 0.5140	 5.6900
 0.5150	 5.7740
 0.5160	 5.8590
 0.5170	 5.9430
 0.5180	 6.0330
 0.5190	 6.1250
 0.5200	 6.2190
 0.5210	 6.3190
 0.5220	 6.4130
 0.5230	 6.5020
 0.5240	 6.5900
 0.5250	 6.6790
 0.5260	 6.7670
 0.5270	 6.8510
 0.5280	 6.9240
 0.5290	 6.9940
 0.5300	 7.0590
 0.5310	 7.1190
 0.5320	 7.1730
 0.5330	 7.2230
 0.5340	 7.2690
 0.5350	 7.3100
 0.5360	 7.3450
 0.5370	 7.3770
 0.5380	 7.4120
 0.5390	 7.4540
 0.5400	 7.5030
 0.5410	 7.5590
 0.5420	 7.6190
 0.5430	 7.6630
 0.5440	 7.6890
 0.5450	 7.6940
 0.5460	 7.6770
 0.5470	 7.6520
 0.5480	 7.6270
 0.5490	 7.6110
 0.5500	 7.6080
 0.5510	 7.6090
 0.5520	 7.6070
 0.5530	 7.5970
 0.5540	 7.5770
 0.5550	 7.5540
 0.5560	 7.5290
 0.5570	 7.4970
 0.5580	 7.4620
 0.5590	 7.4250
 0.5600	 7.3860
 0.5610	 7.3410
 0.5620	 7.2930
 0.5630	 7.2450
 0.5640	 7.1980
 0.5650	 7.1450
 0.5660	 7.0910
 0.5670	 7.0370
 0.5680	 6.9850
 0.5690	 6.9320
 0.5700	 6.8780
 0.5710	 6.8230
 0.5720	 6.7630
 0.5730	 6.7050
 0.5740	 6.6510
 0.5750	 6.5990
 0.5760	 6.5490
 0.5770	 6.5000
 0.5780	 6.4520
 0.5790	 6.4140
 0.5800	 6.3770
 0.5810	 6.3450
 0.5820	 6.3190
 0.5830	 6.2990
 0.5840	 6.2750
 0.5850	 6.2460
 0.5860	 6.2140
 0.5870	 6.1920
 0.5880	 6.1720
 0.5890	 6.1490
 0.5900	 6.1240
 0.5910	 6.1040
 0.5920	 6.0870
 0.5930	 6.0670
 0.5940	 6.0500
 0.5950	 6.0310
 0.5960	 6.0120
 0.5970	 6.0000
 0.5980	 5.9900
 0.5990	 5.9780
 0.6000	 5.9610
 0.6010	 5.9400
 0.6020	 5.9210
 0.6030	 5.9030
 0.6040	 5.8820
 0.6050	 5.8600
 0.6060	 5.8350
 0.6070	 5.8070
 0.6080	 5.7820
 0.6090	 5.7670
 0.6100	 5.7670
 0.6110	 5.7760
 0.6120	 5.7450
 0.6130	 5.6890
 0.6140	 5.6300
 0.6150	 5.5870
 0.6160	 5.5470
 0.6170	 5.5090
 0.6180	 5.4800
 0.6190	 5.4570
 0.6200	 5.4370
 0.6210	 5.4180
 0.6220	 5.3970
 0.6230	 5.3770
 0.6240	 5.3590
 0.6250	 5.3430
 0.6260	 5.3310
 0.6270	 5.3230
 0.6280	 5.3180
 0.6290	 5.3120
 0.6300	 5.3050
 0.6310	 5.2980
 0.6320	 5.2900
 0.6330	 5.2740
 0.6340	 5.2540
 0.6350	 5.2320
 0.6360	 5.2100
 0.6370	 5.1830
 0.6380	 5.1490
 0.6390	 5.1120
 0.6400	 5.0730
 0.6410	 5.0310
 0.6420	 4.9890
 0.6430	 4.9480
 0.6440	 4.9050
 0.6450	 4.8630
 0.6460	 4.8230
 0.6470	 4.7870
 0.6480	 4.7570
 0.6490	 4.7300
 0.6500	 4.7070
 0.6510	 4.6880
 0.6520	 4.6730
 0.6530	 4.6580
 0.6540	 4.6410
 0.6550	 4.6270
 0.6560	 4.6130
 0.6570	 4.5970
 0.6580	 4.5750
 0.6590	 4.5520
 0.6600	 4.5280
 0.6610	 4.5030
 0.6620	 4.4760
 0.6630	 4.4510
 0.6640	 4.4280
 0.6650	 4.4070
 0.6660	 4.3890
 0.6670	 4.3750
 0.6680	 4.3640
 0.6690	 4.3580
 0.6700	 4.3570
 0.6710	 4.3600
 0.6720	 4.3660
 0.6730	 4.3820
 0.6740	 4.3980
 0.6750	 4.4160
 0.6760	 4.4400
 0.6770	 4.4670
 0.6780	 4.4990
 0.6790	 4.5340
 0.6800	 4.5770
 0.6810	 4.6240
 0.6820	 4.6760
 0.6830	 4.7350
 0.6840	 4.7970
 0.6850	 4.8660
 0.6860	 4.9460
 0.6870	 5.0350
 0.6880	 5.1330
 0.6890	 5.2480
 0.6900	 5.3840
 0.6910	 5.5430
 0.6920	 5.7310
 0.6930	 5.9470
 0.6940	 6.1950
 0.6950	 6.4730
 0.6960	 6.7810
 0.6970	 7.1160
 0.6980	 7.4770
 0.6990	 7.8640
 0.7000	 8.2750
 0.7010	 8.7090
 0.7020	 9.1580
 0.7030	 9.6200
 0.7040	10.0950
 0.7050	10.5860
 0.7060	11.0860
 0.7070	11.5950
 0.7080	12.1120
 0.7090	12.6380
 0.7100	13.1700
 0.7110	13.7150
 0.7120	14.2700
 0.7130	14.8280
 0.7140	15.3920
 0.7150	15.9660
 0.7160	16.5490
 0.7170	17.1350
 0.7180	17.7240
 0.7190	18.3150
 0.7200	18.9110
 0.7210	19.5060
 0.7220	20.0960
 0.7230	20.6800
 0.7240	21.2570
 0.7250	21.8240
 0.7260	22.3800
 0.7270	22.9220
 0.7280	23.4490
 0.7290	23.9600
 0.7300	24.4550
 0.7310	24.9310
 0.7320	25.3860
 0.7330	25.8220
 0.7340	26.2400
 0.7350	26.6390
 0.7360	27.0150
 0.7370	27.3720
 0.7380	27.7090
 0.7390	28.0270
 0.7400	28.3250
 0.7410	28.6040
 0.7420	28.8660
 0.7430	29.1100
 0.7440	29.3360
 0.7450	29.5430
 0.7460	29.7320
 0.7470	29.9100
 0.7480	30.0720
 0.7490	30.2150
 0.7500	30.3500
 0.7510	30.4730
 0.7520	30.5850
 0.7530	30.6890
 0.7540	30.7820
 0.7550	30.8670
 0.7560	30.9470
 0.7570	31.0190
 0.7580	31.0870
 0.7590	31.1490
 0.7600	31.2040
 0.7610	31.2540
 0.7620	31.2980
 0.7630	31.3410
 0.7640	31.3830
 0.7650	31.4130
 0.7660	31.4440
 0.7670	31.4750
 0.7680	31.5030
 0.7690	31.5290
 0.7700	31.5540
 0.7710	31.5770
 0.7720	31.5970
 0.7730	31.6150
 0.7740	31.6320
 0.7750	31.6490
 0.7760	31.6670
 0.7770	31.6850
 0.7780	31.7020
 0.7790	31.7180
 0.7800	31.7350
 0.7810	31.7500
 0.7820	31.7610
 0.7830	31.7750
 0.7840	31.7900
 0.7850	31.8040
 0.7860	31.8160
 0.7870	31.8290
 0.7880	31.8400
 0.7890	31.8510
 0.7900	31.8620
 0.7910	31.8720
 0.7920	31.8790
 0.7930	31.8860
 0.7940	31.8920
 0.7950	31.8990
 0.7960	31.9030
 0.7970	31.9050
 0.7980	31.9090
 0.7990	31.9160
 0.8000	31.9190
 0.8010	31.9160
 0.8020	31.9180
 0.8030	31.9230
 0.8040	31.9260
 0.8050	31.9240
 0.8060	31.9210
 0.8070	31.9200
 0.8080	31.9200
 0.8090	31.9190
 0.8100	31.9190
 0.8110	31.9160
 0.8120	31.9090
 0.8130	31.9010
 0.8140	31.8960
 0.8150	31.8930
 0.8160	31.8910
 0.8170	31.8890
 0.8180	31.8830
 0.8190	31.8760
 0.8200	31.8710
 0.8210	31.8650
 0.8220	31.8610
 0.8230	31.8580
 0.8240	31.8490
 0.8250	31.8400
 0.8260	31.8340
 0.8270	31.8320
 0.8280	31.8270
 0.8290	31.8190
 0.8300	31.8120
 0.8310	31.8070
 0.8320	31.8050
 0.8330	31.7970
 0.8340	31.7870
 0.8350	31.7800
 0.8360	31.7810
 0.8370	31.7810
 0.8380	31.7780
 0.8390	31.7760
 0.8400	31.7730
 0.8410	31.7720
 0.8420	31.7760
 0.8430	31.7770
 0.8440	31.7760
 0.8450	31.7760
 0.8460	31.7770
 0.8470	31.7810
 0.8480	31.7830
 0.8490	31.7850
 0.8500	31.7860
 0.8510	31.7900
 0.8520	31.7950
 0.8530	31.8000
 0.8540	31.8050
 0.8550	31.8070
 0.8560	31.8110
 0.8570	31.8190
 0.8580	31.8210
 0.8590	31.8280
 0.8600	31.8370
 0.8610	31.8470
 0.8620	31.8600
 0.8630	31.8700
 0.8640	31.8780
 0.8650	31.8860
 0.8660	31.8940
 0.8670	31.9030
 0.8680	31.9130
 0.8690	31.9230
 0.8700	31.9310
 0.8710	31.9430
 0.8720	31.9580
 0.8730	31.9740
 0.8740	31.9810
 0.8750	31.9900
 0.8760	32.0030
 0.8770	32.0140
 0.8780	32.0270
 0.8790	32.0380
 0.8800	32.0480
 0.8810	32.0650
 0.8820	32.0760
 0.8830	32.0850
 0.8840	32.0960
 0.8850	32.1060
 0.8860	32.1180
 0.8870	32.1290
 0.8880	32.1370
 0.8890	32.1490
 0.8900	32.1610
 0.8910	32.1740
 0.8920	32.1860
 0.8930	32.1910
 0.8940	32.1970
 0.8950	32.2070
 0.8960	32.2180
 0.8970	32.2290
 0.8980	32.2390
 0.8990	32.2460
 0.9000	32.2550
 0.9010	32.2610
 0.9020	32.2660
 0.9030	32.2700
 0.9040	32.2760
 0.9050	32.2900
 0.9060	32.3000
 0.9070	32.3000
 0.9080	32.3020
 0.9090	32.3100
 0.9100	32.3170
 0.9110	32.3210
 0.9120	32.3350
 0.9130	32.3370
 0.9140	32.3360
 0.9150	32.3420
 0.9160	32.3480
 0.9170	32.3500
 0.9180	32.3480
 0.9190	32.3490
 0.9200	32.3510
 0.9210	32.3510
 0.9220	32.3500
 0.9230	32.3500
 0.9240	32.3460
 0.9250	32.3440
 0.9260	32.3390
 0.9270	32.3260
 0.9280	32.3200
 0.9290	32.3090
 0.9300	32.2950
 0.9310	32.2880
 0.9320	32.2810
 0.9330	32.2650
 0.9340	32.2430
 0.9350	32.2280
 0.9360	32.2170
 0.9370	32.2060
 0.9380	32.1900
 0.9390	32.1680
 0.9400	32.1430
 0.9410	32.1240
 0.9420	32.1090
 0.9430	32.0850
 0.9440	32.0570
 0.9450	32.0270
 0.9460	31.9960
 0.9470	31.9640
 0.9480	31.9330
 0.9490	31.8960
 0.9500	31.8520
 0.9510	31.8160
 0.9520	31.7740
 0.9530	31.7270
 0.9540	31.6820
 0.9550	31.6380
 0.9560	31.5880
 0.9570	31.5410
 0.9580	31.5030
 0.9590	31.4670
 0.9600	31.4310
 0.9610	31.3940
 0.9620	31.3560
 0.9630	31.3280
 0.9640	31.3040
 0.9650	31.2820
 0.9660	31.2610
 0.9670	31.2460
 0.9680	31.2180
 0.9690	31.1940
 0.9700	31.1930
 0.9710	31.1760
 0.9720	31.1520
 0.9730	31.1340
 0.9740	31.1300
 0.9750	31.1180
 0.9760	31.1130
 0.9770	31.1110
 0.9780	31.1050
 0.9790	31.0950
 0.9800	31.0670
 0.9810	31.0460
 0.9820	31.0620
 0.9830	31.0720
 0.9840	31.0720
 0.9850	31.0740
 0.9860	31.0900
 0.9870	31.0860
 0.9880	31.0810
 0.9890	31.0830
 0.9900	31.0940
 0.9910	31.1010
 0.9920	31.1010
 0.9930	31.1020
 0.9940	31.1120
 0.9950	31.1110
 0.9960	31.1210
 0.9970	31.1340
 0.9980	31.1360
 0.9990	31.1570
 1.0000	31.1630
 1.0010	31.0370
 1.0020	31.0510
 1.0030	31.0670
 1.0040	31.0800
 1.0050	31.0950
 1.0060	31.1070
 1.0070	31.1180
 1.0080	31.1320
 1.0090	31.1460
 1.0100	31.1600
 1.0110	31.1760
 1.0120	31.1920
 1.0130	31.2080
 1.0140	31.2220
 1.0150	31.2360
 1.0160	31.2450
 1.0170	31.2550
 1.0180	31.2660
 1.0190	31.2830
 1.0200	31.3000
 1.0210	31.3120
 1.0220	31.3280
 1.0230	31.3410
 1.0240	31.3500
 1.0250	31.3650
 1.0260	31.3820
 1.0270	31.3960
 1.0280	31.4130
 1.0290	31.4250
 1.0300	31.4300
 1.0310	31.4390
 1.0320	31.4480
 1.0330	31.4590
 1.0340	31.4740
 1.0350	31.4880
 1.0360	31.4980
 1.0370	31.5090
 1.0380	31.5200
 1.0390	31.5310
 1.0400	31.5410
 1.0410	31.5500
 1.0420	31.5620
 1.0430	31.5790
 1.0440	31.5900
 1.0450	31.6010
 1.0460	31.6110
 1.0470	31.6130
 1.0480	31.6210
 1.0490	31.6370
 1.0500	31.6460
 1.0510	31.6510
 1.0520	31.6560
 1.0530	31.6640
 1.0540	31.6720
 1.0550	31.6790
 1.0560	31.6910
 1.0570	31.6980
 1.0580	31.6980
 1.0590	31.7030
 1.0600	31.7110
 1.0610	31.7170
 1.0620	31.7240
 1.0630	31.7310
 1.0640	31.7390
 1.0650	31.7450
 1.0660	31.7500
 1.0670	31.7560
 1.0680	31.7620
 1.0690	31.7680
 1.0700	31.7720
 1.0710	31.7780
 1.0720	31.7820
 1.0730	31.7830
 1.0740	31.7870
 1.0750	31.7910
 1.0760	31.7950
 1.0770	31.8020
 1.0780	31.8060
 1.0790	31.8090
 1.0800	31.8120
 1.0810	31.8120
 1.0820	31.8120
 1.0830	31.8110
 1.0840	31.8100
 1.0850	31.8090
 1.0860	31.8080
 1.0870	31.8070
 1.0880	31.8050
 1.0890	31.8040
 1.0900	31.8020
 1.0910	31.7990
 1.0920	31.7970
 1.0930	31.7930
 1.0940	31.7870
 1.0950	31.7820
 1.0960	31.7770
 1.0970	31.7730
 1.0980	31.7700
 1.0990	31.7650
 1.1000	31.7590
 1.1010	31.7520
 1.1020	31.7430
 1.1030	31.7340
 1.1040	31.7280
 1.1050	31.7210
 1.1060	31.7110
 1.1070	31.7020
 1.1080	31.6910
 1.1090	31.6760
 1.1100	31.6630
 1.1110	31.6520
 1.1120	31.6390
 1.1130	31.6250
 1.1140	31.6110
 1.1150	31.5950
 1.1160	31.5790
 1.1170	31.5620
 1.1180	31.5430
 1.1190	31.5210
 1.1200	31.5010
 1.1210	31.4760
 1.1220	31.4490
 1.1230	31.4220
 1.1240	31.3910
 1.1250	31.3560
 1.1260	31.3190
 1.1270	31.2760
 1.1280	31.2290
 1.1290	31.1770
 1.1300	31.1220
 1.1310	31.0610
 1.1320	30.9950
 1.1330	30.9240
 1.1340	30.8480
 1.1350	30.7660
 1.1360	30.6780
 1.1370	30.5840
 1.1380	30.4860
 1.1390	30.3850
 1.1400	30.2810
 1.1410	30.1770
 1.1420	30.0700
 1.1430	29.9630
 1.1440	29.8540
 1.1450	29.7410
 1.1460	29.6320
 1.1470	29.5220
 1.1480	29.4180
 1.1490	29.3160
 1.1500	29.2200
 1.1510	29.1260
 1.1520	29.0390
 1.1530	28.9560
 1.1540	28.8770
 1.1550	28.8030
 1.1560	28.7340
 1.1570	28.6690
 1.1580	28.6080
 1.1590	28.5510
 1.1600	28.4990
 1.1610	28.4510
 1.1620	28.4040
 1.1630	28.3630
 1.1640	28.3220
 1.1650	28.2840
 1.1660	28.2480
 1.1670	28.2130
 1.1680	28.1780
 1.1690	28.1440
 1.1700	28.1100
 1.1710	28.0780
 1.1720	28.0480
 1.1730	28.0170
 1.1740	27.9880
 1.1750	27.9570
 1.1760	27.9240
 1.1770	27.8920
 1.1780	27.8570
 1.1790	27.8230
 1.1800	27.7920
 1.1810	27.7580
 1.1820	27.7260
 1.1830	27.6960
 1.1840	27.6680
 1.1850	27.6420
 1.1860	27.6180
 1.1870	27.5970
 1.1880	27.5790
 1.1890	27.5620
 1.1900	27.5480
 1.1910	27.5360
 1.1920	27.5260
 1.1930	27.5190
 1.1940	27.5140
 1.1950	27.5110
 1.1960	27.5110
 1.1970	27.5130
 1.1980	27.5170
 1.1990	27.5220
 1.2000	27.5310
 1.2010	27.5410
 1.2020	27.5520
 1.2030	27.5630
 1.2040	27.5740
 1.2050	27.5860
 1.2060	27.6010
 1.2070	27.6200
 1.2080	27.6370
 1.2090	27.6550
 1.2100	27.6760
 1.2110	27.6970
 1.2120	27.7170
 1.2130	27.7410
 1.2140	27.7680
 1.2150	27.7940
 1.2160	27.8220
 1.2170	27.8500
 1.2180	27.8780
 1.2190	27.9080
 1.2200	27.9350
 1.2210	27.9620
 1.2220	27.9910
 1.2230	28.0180
 1.2240	28.0470
 1.2250	28.0760
 1.2260	28.1030
 1.2270	28.1280
 1.2280	28.1520
 1.2290	28.1780
 1.2300	28.2030
 1.2310	28.2270
 1.2320	28.2500
 1.2330	28.2710
 1.2340	28.2910
 1.2350	28.3110
 1.2360	28.3310
 1.2370	28.3500
 1.2380	28.3690
 1.2390	28.3880
 1.2400	28.4050
 1.2410	28.4220
 1.2420	28.4370
 1.2430	28.4510
 1.2440	28.4650
 1.2450	28.4770
 1.2460	28.4890
 1.2470	28.5050
 1.2480	28.5180
 1.2490	28.5300
 1.2500	28.5420
 1.2510	28.5510
 1.2520	28.5610
 1.2530	28.5740
 1.2540	28.5820
 1.2550	28.5880
 1.2560	28.5950
 1.2570	28.6010
 1.2580	28.6070
 1.2590	28.6120
 1.2600	28.6180
 1.2610	28.6220
 1.2620	28.6250
 1.2630	28.6270
 1.2640	28.6270
 1.2650	28.6270
 1.2660	28.6250
 1.2670	28.6240
 1.2680	28.6240
 1.2690	28.6230
 1.2700	28.6190
 1.2710	28.6140
 1.2720	28.6090
 1.2730	28.6040
 1.2740	28.5990
 1.2750	28.5920
 1.2760	28.5830
 1.2770	28.5730
 1.2780	28.5600
 1.2790	28.5490
 1.2800	28.5370
 1.2810	28.5230
 1.2820	28.5080
 1.2830	28.4930
 1.2840	28.4750
 1.2850	28.4570
 1.2860	28.4390
 1.2870	28.4200
 1.2880	28.3980
 1.2890	28.3750
 1.2900	28.3530
 1.2910	28.3300
 1.2920	28.3060
 1.2930	28.2820
 1.2940	28.2550
 1.2950	28.2260
 1.2960	28.1950
 1.2970	28.1630
 1.2980	28.1310
 1.2990	28.0970
 1.3000	28.0600
 1.3010	28.0220
 1.3020	27.9800
 1.3030	27.9360
 1.3040	27.8910
 1.3050	27.8460
 1.3060	27.7980
 1.3070	27.7500
 1.3080	27.7000
 1.3090	27.6460
 1.3100	27.5900
 1.3110	27.5340
 1.3120	27.4730
 1.3130	27.4110
 1.3140	27.3470
 1.3150	27.2790
 1.3160	27.2080
 1.3170	27.1370
 1.3180	27.0610
 1.3190	26.9810
 1.3200	26.9020
 1.3210	26.8190
 1.3220	26.7330
 1.3230	26.6470
 1.3240	26.5580
 1.3250	26.4670
 1.3260	26.3750
 1.3270	26.2810
 1.3280	26.1840
 1.3290	26.0860
 1.3300	25.9870
 1.3310	25.8850
 1.3320	25.7830
 1.3330	25.6780
 1.3340	25.5730
 1.3350	25.4670
 1.3360	25.3600
 1.3370	25.2530
 1.3380	25.1470
 1.3390	25.0400
 1.3400	24.9320
 1.3410	24.8250
 1.3420	24.7190
 1.3430	24.6130
 1.3440	24.5080
 1.3450	24.4050
 1.3460	24.3010
 1.3470	24.1990
 1.3480	24.0970
 1.3490	23.9970
 1.3500	23.8970
 1.3510	23.7980
 1.3520	23.6980
 1.3530	23.6010
 1.3540	23.5040
 1.3550	23.4070
 1.3560	23.3130
 1.3570	23.2180
 1.3580	23.1210
 1.3590	23.0240
 1.3600	22.9240
 1.3610	22.8220
 1.3620	22.7170
 1.3630	22.6120
 1.3640	22.5020
 1.3650	22.3880
 1.3660	22.2700
 1.3670	22.1450
 1.3680	22.0130
 1.3690	21.8750
 1.3700	21.7280
 1.3710	21.5740
 1.3720	21.4100
 1.3730	21.2350
 1.3740	21.0530
 1.3750	20.8590
 1.3760	20.6510
 1.3770	20.4290
 1.3780	20.1910
 1.3790	19.9390
 1.3800	19.6720
 1.3810	19.3890
 1.3820	19.0960
 1.3830	18.7890
 1.3840	18.4710
 1.3850	18.1410
 1.3860	17.8010
 1.3870	17.4470
 1.3880	17.0920
 1.3890	16.7280
 1.3900	16.3600
 1.3910	15.9950
 1.3920	15.6260
 1.3930	15.2560
 1.3940	14.8920
 1.3950	14.5280
 1.3960	14.1700
 1.3970	13.8220
 1.3980	13.4820
 1.3990	13.1550
 1.4000	12.8380
 1.4010	12.5300
 1.4020	12.2350
 1.4030	11.9510
 1.4040	11.6810
 1.4050	11.4250
 1.4060	11.1820
 1.4070	10.9530
 1.4080	10.7370
 1.4090	10.5320
 1.4100	10.3400
 1.4110	10.1590
 1.4120	 9.9890
 1.4130	 9.8320
 1.4140	 9.6840
 1.4150	 9.5480
 1.4160	 9.4220
 1.4170	 9.3040
 1.4180	 9.1940
 1.4190	 9.0920
 1.4200	 8.9970
 1.4210	 8.9080
 1.4220	 8.8260
 1.4230	 8.7490
 1.4240	 8.6780
 1.4250	 8.6120
 1.4260	 8.5510
 1.4270	 8.4940
 1.4280	 8.4420
 1.4290	 8.3940
 1.4300	 8.3500
 1.4310	 8.3090
 1.4320	 8.2720
 1.4330	 8.2380
 1.4340	 8.2060
 1.4350	 8.1780
 1.4360	 8.1520
 1.4370	 8.1300
 1.4380	 8.1100
 1.4390	 8.0910
 1.4400	 8.0760
 1.4410	 8.0630
 1.4420	 8.0510
 1.4430	 8.0410
 1.4440	 8.0320
 1.4450	 8.0230
 1.4460	 8.0160
 1.4470	 8.0120
 1.4480	 8.0090
 1.4490	 8.0090
 1.4500	 8.0090
 1.4510	 8.0080
 1.4520	 8.0090
 1.4530	 8.0110
 1.4540	 8.0140
 1.4550	 8.0200
 1.4560	 8.0270
 1.4570	 8.0340
 1.4580	 8.0430
 1.4590	 8.0540
 1.4600	 8.0660
 1.4610	 8.0810
 1.4620	 8.0980
 1.4630	 8.1160
 1.4640	 8.1370
 1.4650	 8.1610
 1.4660	 8.1870
 1.4670	 8.2160
 1.4680	 8.2470
 1.4690	 8.2820
 1.4700	 8.3170
 1.4710	 8.3550
 1.4720	 8.3950
 1.4730	 8.4370
 1.4740	 8.4810
 1.4750	 8.5270
 1.4760	 8.5750
