Name: Heteromeles arbutifolia 3
Type: vegetation
Class: Shrub
Genus: Heteromeles
Species: arbutifolia
Sample No.: VH018
Owner: UCSB
Wavelength Range: TIR
Origin: 34.4908; -119.7912; WGS84
Collection Date: 4/1/2013
Description: Samples were collected as part of the HyspIRI Airborne Campaign. 48 individual plants were sampled in three times in 2013 - spring  summer  and fall. The name of the sample includes a 1  2  or 3 which references a different individual of the species. Samples were taken to JPL and processed within 48 hours of collection. The same leaves were processed in the Nicolet and then measured using the ASD.
Measurement: Hemispherical reflectance
First Column: X
Second Column: Y
X Units: Wavelength (micrometers)
Y Units: Reflectance (percentage)
First X Value: 2.501
Last X Value: 15.387
Number of X Values: 1737
Additional Information: vegetation.shrub.heteromeles.arbutifolia.tir.vh018.ucsb.nicolet.ancillary.txt

 2.5010	 8.0390
 2.5030	 8.0300
 2.5040	 7.9470
 2.5050	 7.9560
 2.5060	 8.0220
 2.5070	 7.9910
 2.5090	 8.0430
 2.5100	 7.9760
 2.5110	 7.9300
 2.5120	 7.9950
 2.5140	 8.0510
 2.5150	 8.0460
 2.5160	 8.0210
 2.5170	 7.9390
 2.5180	 7.8790
 2.5200	 7.9060
 2.5210	 8.0140
 2.5220	 8.0020
 2.5230	 7.9520
 2.5250	 8.0170
 2.5260	 8.0620
 2.5270	 8.0100
 2.5280	 7.9740
 2.5290	 7.9300
 2.5310	 7.9000
 2.5320	 7.8680
 2.5330	 7.8820
 2.5340	 7.9170
 2.5360	 7.8960
 2.5370	 7.8890
 2.5380	 7.9370
 2.5390	 8.0000
 2.5410	 7.9840
 2.5420	 7.9550
 2.5430	 7.9230
 2.5440	 8.0110
 2.5460	 8.0700
 2.5470	 8.0040
 2.5480	 8.0200
 2.5490	 8.0300
 2.5510	 8.0470
 2.5520	 8.0690
 2.5530	 8.0230
 2.5540	 7.9490
 2.5560	 7.9660
 2.5570	 7.9700
 2.5580	 8.0400
 2.5590	 8.0760
 2.5610	 8.0370
 2.5620	 7.9610
 2.5630	 7.9640
 2.5640	 8.0250
 2.5660	 8.0660
 2.5670	 7.9760
 2.5680	 7.9690
 2.5700	 8.0450
 2.5710	 8.0410
 2.5720	 8.0160
 2.5730	 7.9910
 2.5750	 7.8590
 2.5760	 7.8100
 2.5770	 7.9190
 2.5790	 7.9490
 2.5800	 7.9530
 2.5810	 8.0220
 2.5820	 8.0570
 2.5840	 8.0260
 2.5850	 8.0470
 2.5860	 8.1430
 2.5880	 8.1740
 2.5890	 8.1010
 2.5900	 8.0210
 2.5910	 7.9720
 2.5930	 8.0170
 2.5940	 8.1100
 2.5950	 8.1050
 2.5970	 7.9400
 2.5980	 7.8250
 2.5990	 7.8320
 2.6000	 7.8220
 2.6020	 7.9040
 2.6030	 7.9460
 2.6040	 7.8290
 2.6060	 7.7460
 2.6070	 7.8330
 2.6080	 7.9050
 2.6100	 7.8790
 2.6110	 7.7800
 2.6120	 7.6490
 2.6140	 7.5540
 2.6150	 7.6560
 2.6160	 7.7850
 2.6180	 7.7210
 2.6190	 7.5670
 2.6200	 7.6470
 2.6220	 7.6720
 2.6230	 7.6350
 2.6240	 7.4420
 2.6260	 7.3660
 2.6270	 7.4410
 2.6280	 7.4220
 2.6300	 7.4060
 2.6310	 7.4530
 2.6320	 7.5240
 2.6340	 7.4770
 2.6350	 7.2940
 2.6360	 7.2400
 2.6380	 7.2920
 2.6390	 7.3060
 2.6400	 7.2580
 2.6420	 7.2790
 2.6430	 7.3110
 2.6440	 7.2850
 2.6460	 7.2980
 2.6470	 7.3180
 2.6480	 7.1730
 2.6500	 7.0890
 2.6510	 7.0480
 2.6520	 6.9820
 2.6540	 6.9100
 2.6550	 6.9130
 2.6560	 7.0060
 2.6580	 7.1480
 2.6590	 7.1440
 2.6610	 7.1310
 2.6620	 7.0870
 2.6630	 6.9700
 2.6650	 6.9040
 2.6660	 6.9400
 2.6670	 7.0970
 2.6690	 7.0370
 2.6700	 6.8750
 2.6720	 6.8190
 2.6730	 6.8000
 2.6740	 6.9780
 2.6760	 7.0240
 2.6770	 6.8410
 2.6780	 6.7460
 2.6800	 6.8170
 2.6810	 6.8590
 2.6830	 6.7670
 2.6840	 6.7020
 2.6850	 6.7160
 2.6870	 6.7030
 2.6880	 6.7860
 2.6900	 6.7800
 2.6910	 6.6720
 2.6920	 6.6220
 2.6940	 6.6710
 2.6950	 6.6920
 2.6970	 6.7200
 2.6980	 6.6930
 2.6990	 6.6150
 2.7010	 6.6440
 2.7020	 6.7230
 2.7040	 6.6380
 2.7050	 6.5970
 2.7060	 6.5850
 2.7080	 6.5900
 2.7090	 6.6040
 2.7110	 6.5850
 2.7120	 6.5510
 2.7130	 6.6350
 2.7150	 6.6280
 2.7160	 6.6580
 2.7180	 6.6580
 2.7190	 6.6620
 2.7210	 6.6650
 2.7220	 6.5630
 2.7230	 6.5810
 2.7250	 6.6030
 2.7260	 6.5300
 2.7280	 6.4670
 2.7290	 6.4890
 2.7310	 6.5580
 2.7320	 6.5110
 2.7330	 6.4640
 2.7350	 6.5610
 2.7360	 6.6520
 2.7380	 6.5050
 2.7390	 6.4950
 2.7410	 6.5830
 2.7420	 6.5620
 2.7440	 6.4660
 2.7450	 6.4570
 2.7470	 6.4700
 2.7480	 6.5630
 2.7490	 6.6360
 2.7510	 6.5570
 2.7520	 6.4080
 2.7540	 6.5170
 2.7550	 6.6330
 2.7570	 6.4470
 2.7580	 6.3460
 2.7600	 6.4410
 2.7610	 6.4530
 2.7630	 6.4590
 2.7640	 6.4490
 2.7660	 6.3670
 2.7670	 6.2770
 2.7680	 6.3760
 2.7700	 6.4420
 2.7710	 6.5000
 2.7730	 6.3920
 2.7740	 6.3470
 2.7760	 6.3540
 2.7770	 6.3210
 2.7790	 6.3350
 2.7800	 6.3250
 2.7820	 6.2120
 2.7830	 6.2800
 2.7850	 6.4280
 2.7860	 6.4600
 2.7880	 6.4000
 2.7890	 6.3140
 2.7910	 6.3770
 2.7920	 6.4720
 2.7940	 6.4380
 2.7950	 6.3430
 2.7970	 6.3050
 2.7980	 6.4640
 2.8000	 6.4520
 2.8010	 6.3450
 2.8030	 6.4000
 2.8040	 6.4670
 2.8060	 6.3510
 2.8070	 6.3340
 2.8090	 6.4050
 2.8110	 6.4220
 2.8120	 6.4060
 2.8140	 6.3250
 2.8150	 6.1830
 2.8170	 6.3070
 2.8180	 6.3570
 2.8200	 6.3450
 2.8210	 6.3480
 2.8230	 6.3800
 2.8240	 6.3600
 2.8260	 6.4060
 2.8270	 6.4010
 2.8290	 6.3290
 2.8300	 6.3350
 2.8320	 6.3690
 2.8340	 6.3770
 2.8350	 6.3700
 2.8370	 6.2840
 2.8380	 6.3000
 2.8400	 6.4180
 2.8410	 6.3420
 2.8430	 6.2350
 2.8440	 6.2790
 2.8460	 6.2670
 2.8480	 6.3360
 2.8490	 6.4140
 2.8510	 6.4090
 2.8520	 6.3860
 2.8540	 6.3960
 2.8550	 6.3540
 2.8570	 6.3740
 2.8590	 6.3600
 2.8600	 6.3730
 2.8620	 6.3010
 2.8630	 6.3640
 2.8650	 6.4630
 2.8660	 6.4230
 2.8680	 6.3670
 2.8700	 6.2830
 2.8710	 6.2660
 2.8730	 6.3900
 2.8740	 6.4680
 2.8760	 6.4850
 2.8780	 6.3960
 2.8790	 6.3450
 2.8810	 6.2920
 2.8820	 6.3950
 2.8840	 6.4690
 2.8860	 6.5030
 2.8870	 6.5760
 2.8890	 6.5970
 2.8900	 6.5340
 2.8920	 6.5130
 2.8940	 6.4370
 2.8950	 6.4530
 2.8970	 6.4730
 2.8980	 6.3940
 2.9000	 6.3900
 2.9020	 6.4640
 2.9030	 6.4980
 2.9050	 6.4740
 2.9070	 6.2580
 2.9080	 6.2060
 2.9100	 6.2760
 2.9120	 6.5000
 2.9130	 6.4640
 2.9150	 6.5230
 2.9160	 6.5520
 2.9180	 6.5520
 2.9200	 6.4050
 2.9210	 6.3720
 2.9230	 6.4100
 2.9250	 6.4000
 2.9260	 6.3330
 2.9280	 6.3560
 2.9300	 6.4060
 2.9310	 6.4150
 2.9330	 6.4580
 2.9350	 6.5610
 2.9360	 6.4860
 2.9380	 6.4870
 2.9400	 6.4540
 2.9410	 6.4130
 2.9430	 6.3230
 2.9450	 6.3960
 2.9460	 6.5430
 2.9480	 6.5280
 2.9500	 6.5230
 2.9510	 6.4930
 2.9530	 6.4000
 2.9550	 6.5930
 2.9560	 6.4610
 2.9580	 6.2590
 2.9600	 6.4020
 2.9610	 6.4660
 2.9630	 6.4110
 2.9650	 6.4450
 2.9660	 6.2380
 2.9680	 6.1170
 2.9700	 6.4260
 2.9720	 6.3540
 2.9730	 5.6130
 2.9750	 5.7210
 2.9770	 6.1320
 2.9780	 6.6380
 2.9800	 6.7520
 2.9820	 6.8380
 2.9840	 6.7910
 2.9850	 6.5360
 2.9870	 6.4340
 2.9890	 6.5240
 2.9900	 6.4760
 2.9920	 6.4280
 2.9940	 6.5540
 2.9960	 6.8000
 2.9970	 6.6100
 2.9990	 6.8220
 3.0010	 7.0370
 3.0030	 6.8010
 3.0040	 6.5940
 3.0060	 6.4280
 3.0080	 6.4160
 3.0100	 6.3660
 3.0110	 6.4690
 3.0130	 6.8120
 3.0150	 6.8000
 3.0170	 6.6150
 3.0180	 6.6010
 3.0200	 6.4490
 3.0220	 6.5700
 3.0240	 6.5400
 3.0250	 6.6320
 3.0270	 6.8810
 3.0290	 6.6800
 3.0310	 6.5560
 3.0320	 6.4330
 3.0340	 6.4420
 3.0360	 6.5530
 3.0380	 6.4180
 3.0400	 5.9610
 3.0410	 5.9060
 3.0430	 6.3130
 3.0450	 6.3730
 3.0470	 6.2930
 3.0480	 6.5020
 3.0500	 6.5340
 3.0520	 6.6860
 3.0540	 6.4100
 3.0560	 6.2220
 3.0570	 6.3910
 3.0590	 6.1810
 3.0610	 6.0900
 3.0630	 6.3710
 3.0650	 6.4980
 3.0660	 6.2850
 3.0680	 6.2030
 3.0700	 6.3630
 3.0720	 6.2220
 3.0740	 6.2410
 3.0760	 6.4960
 3.0770	 6.6150
 3.0790	 6.5150
 3.0810	 6.4730
 3.0830	 6.4140
 3.0850	 6.2600
 3.0870	 6.3240
 3.0880	 6.5120
 3.0900	 6.5830
 3.0920	 6.4320
 3.0940	 6.3580
 3.0960	 6.3850
 3.0980	 6.3610
 3.0990	 6.4050
 3.1010	 6.4690
 3.1030	 6.5380
 3.1050	 6.5140
 3.1070	 6.3340
 3.1090	 6.3340
 3.1110	 6.3900
 3.1120	 6.4110
 3.1140	 6.3480
 3.1160	 6.2940
 3.1180	 6.3830
 3.1200	 6.4510
 3.1220	 6.5140
 3.1240	 6.4650
 3.1260	 6.4390
 3.1270	 6.4950
 3.1290	 6.6000
 3.1310	 6.6830
 3.1330	 6.4970
 3.1350	 6.3230
 3.1370	 6.2730
 3.1390	 6.3410
 3.1410	 6.3320
 3.1430	 6.1300
 3.1450	 6.1180
 3.1460	 6.4480
 3.1480	 6.6340
 3.1500	 6.6050
 3.1520	 6.5770
 3.1540	 6.5330
 3.1560	 6.4640
 3.1580	 6.2680
 3.1600	 6.1320
 3.1620	 6.1750
 3.1640	 6.3210
 3.1660	 6.4600
 3.1680	 6.2320
 3.1700	 6.2910
 3.1710	 6.4630
 3.1730	 6.1440
 3.1750	 6.0060
 3.1770	 6.1400
 3.1790	 6.2170
 3.1810	 5.9760
 3.1830	 5.9190
 3.1850	 5.8800
 3.1870	 5.9880
 3.1890	 6.3060
 3.1910	 6.5400
 3.1930	 6.5550
 3.1950	 6.3510
 3.1970	 6.3310
 3.1990	 6.4710
 3.2010	 6.4030
 3.2030	 6.1940
 3.2050	 6.1190
 3.2070	 6.2210
 3.2090	 6.2330
 3.2110	 6.1630
 3.2130	 6.1020
 3.2150	 6.2620
 3.2170	 6.3680
 3.2190	 6.2830
 3.2210	 6.2600
 3.2230	 6.2480
 3.2250	 6.1970
 3.2270	 6.1430
 3.2290	 6.0760
 3.2310	 6.0220
 3.2330	 6.0840
 3.2350	 6.2600
 3.2370	 6.2110
 3.2390	 6.1380
 3.2410	 6.2480
 3.2430	 6.2560
 3.2450	 6.1130
 3.2470	 6.1900
 3.2490	 6.4160
 3.2510	 6.3890
 3.2530	 6.2290
 3.2550	 6.2800
 3.2570	 6.1820
 3.2590	 6.0470
 3.2610	 6.1110
 3.2630	 6.1160
 3.2650	 6.1030
 3.2670	 6.1710
 3.2690	 6.1940
 3.2720	 6.2100
 3.2740	 6.1830
 3.2760	 6.2000
 3.2780	 6.2310
 3.2800	 6.1890
 3.2820	 6.1380
 3.2840	 6.0850
 3.2860	 6.1020
 3.2880	 6.0820
 3.2900	 6.0010
 3.2920	 6.0340
 3.2940	 6.0110
 3.2960	 6.0230
 3.2990	 6.0750
 3.3010	 6.0490
 3.3030	 5.9190
 3.3050	 5.8140
 3.3070	 5.8470
 3.3090	 5.9590
 3.3110	 6.0020
 3.3130	 5.8620
 3.3150	 5.8190
 3.3180	 5.8730
 3.3200	 5.8480
 3.3220	 5.8620
 3.3240	 5.8800
 3.3260	 5.9370
 3.3280	 5.9120
 3.3300	 5.8790
 3.3330	 5.8620
 3.3350	 5.8470
 3.3370	 5.7860
 3.3390	 5.8540
 3.3410	 5.7820
 3.3430	 5.6510
 3.3450	 5.7010
 3.3480	 5.7260
 3.3500	 5.7040
 3.3520	 5.7360
 3.3540	 5.7300
 3.3560	 5.6520
 3.3580	 5.5910
 3.3610	 5.6490
 3.3630	 5.7170
 3.3650	 5.7070
 3.3670	 5.6710
 3.3690	 5.6090
 3.3720	 5.5450
 3.3740	 5.6140
 3.3760	 5.6930
 3.3780	 5.6900
 3.3800	 5.6490
 3.3830	 5.6270
 3.3850	 5.6080
 3.3870	 5.6210
 3.3890	 5.6190
 3.3910	 5.6070
 3.3940	 5.5030
 3.3960	 5.5160
 3.3980	 5.5970
 3.4000	 5.7050
 3.4020	 5.8080
 3.4050	 5.8690
 3.4070	 6.0450
 3.4090	 6.3170
 3.4110	 6.5410
 3.4140	 6.8030
 3.4160	 7.1180
 3.4180	 7.6000
 3.4200	 8.1960
 3.4230	 8.8550
 3.4250	 9.7580
 3.4270	10.6890
 3.4290	11.1690
 3.4320	10.7100
 3.4340	 9.7190
 3.4360	 8.9170
 3.4390	 8.3330
 3.4410	 7.9980
 3.4430	 7.8290
 3.4450	 7.7290
 3.4480	 7.6130
 3.4500	 7.5150
 3.4520	 7.4810
 3.4550	 7.4330
 3.4570	 7.2930
 3.4590	 7.2180
 3.4620	 7.2520
 3.4640	 7.2040
 3.4660	 7.0650
 3.4680	 7.0830
 3.4710	 7.0860
 3.4730	 7.0470
 3.4750	 6.9440
 3.4780	 6.7440
 3.4800	 6.7410
 3.4820	 6.7770
 3.4850	 6.6690
 3.4870	 6.6280
 3.4890	 6.6130
 3.4920	 6.5610
 3.4940	 6.5860
 3.4970	 6.7030
 3.4990	 6.8130
 3.5010	 7.0700
 3.5040	 7.5080
 3.5060	 8.1730
 3.5080	 9.2630
 3.5110	10.2530
 3.5130	10.0440
 3.5160	 9.1110
 3.5180	 8.4410
 3.5200	 8.0940
 3.5230	 7.8910
 3.5250	 7.6810
 3.5270	 7.4620
 3.5300	 7.4400
 3.5320	 7.4810
 3.5350	 7.4310
 3.5370	 7.3990
 3.5400	 7.2440
 3.5420	 7.1020
 3.5440	 7.1160
 3.5470	 7.1830
 3.5490	 7.2150
 3.5520	 7.1670
 3.5540	 7.0930
 3.5570	 7.0670
 3.5590	 7.0170
 3.5610	 6.9390
 3.5640	 6.9720
 3.5660	 7.0250
 3.5690	 7.0180
 3.5710	 6.9710
 3.5740	 6.9690
 3.5760	 7.0240
 3.5790	 6.9620
 3.5810	 6.9630
 3.5840	 7.0480
 3.5860	 7.0030
 3.5890	 6.8040
 3.5910	 6.7870
 3.5930	 6.9450
 3.5960	 7.0060
 3.5980	 6.8810
 3.6010	 6.9110
 3.6030	 6.9750
 3.6060	 6.9330
 3.6080	 6.8890
 3.6110	 6.8640
 3.6140	 6.8790
 3.6160	 6.8290
 3.6190	 6.7990
 3.6210	 6.8260
 3.6240	 6.8580
 3.6260	 6.8560
 3.6290	 6.8250
 3.6310	 6.7200
 3.6340	 6.6970
 3.6360	 6.7730
 3.6390	 6.7680
 3.6410	 6.7800
 3.6440	 6.8180
 3.6470	 6.8150
 3.6490	 6.7820
 3.6520	 6.7130
 3.6540	 6.7290
 3.6570	 6.7760
 3.6590	 6.7730
 3.6620	 6.7700
 3.6650	 6.7530
 3.6670	 6.7340
 3.6700	 6.7610
 3.6720	 6.7720
 3.6750	 6.7720
 3.6780	 6.8100
 3.6800	 6.8120
 3.6830	 6.7970
 3.6850	 6.8130
 3.6880	 6.7440
 3.6910	 6.7460
 3.6930	 6.7560
 3.6960	 6.7350
 3.6990	 6.7750
 3.7010	 6.7920
 3.7040	 6.7650
 3.7060	 6.7180
 3.7090	 6.7030
 3.7120	 6.7110
 3.7140	 6.6710
 3.7170	 6.6500
 3.7200	 6.7120
 3.7220	 6.7830
 3.7250	 6.7730
 3.7280	 6.7590
 3.7300	 6.7690
 3.7330	 6.8200
 3.7360	 6.8640
 3.7390	 6.7990
 3.7410	 6.7650
 3.7440	 6.7710
 3.7470	 6.8000
 3.7490	 6.8240
 3.7520	 6.8180
 3.7550	 6.7210
 3.7580	 6.6410
 3.7600	 6.6880
 3.7630	 6.7610
 3.7660	 6.7890
 3.7680	 6.7900
 3.7710	 6.7670
 3.7740	 6.7540
 3.7770	 6.8270
 3.7790	 6.8750
 3.7820	 6.8890
 3.7850	 6.8810
 3.7880	 6.8740
 3.7900	 6.8620
 3.7930	 6.8340
 3.7960	 6.8260
 3.7990	 6.8300
 3.8020	 6.7440
 3.8040	 6.7740
 3.8070	 6.8310
 3.8100	 6.7900
 3.8130	 6.8040
 3.8160	 6.8100
 3.8180	 6.7980
 3.8210	 6.7760
 3.8240	 6.7980
 3.8270	 6.8180
 3.8300	 6.8010
 3.8330	 6.8180
 3.8350	 6.8340
 3.8380	 6.7850
 3.8410	 6.7900
 3.8440	 6.8200
 3.8470	 6.8020
 3.8500	 6.8140
 3.8520	 6.8250
 3.8550	 6.8200
 3.8580	 6.8310
 3.8610	 6.7970
 3.8640	 6.7770
 3.8670	 6.7810
 3.8700	 6.8220
 3.8730	 6.8050
 3.8750	 6.8390
 3.8780	 6.8770
 3.8810	 6.8270
 3.8840	 6.7810
 3.8870	 6.7770
 3.8900	 6.8190
 3.8930	 6.8930
 3.8960	 6.7470
 3.8990	 6.6740
 3.9020	 6.7670
 3.9050	 6.7400
 3.9080	 6.7760
 3.9110	 6.8580
 3.9140	 6.8410
 3.9160	 6.8130
 3.9190	 6.7580
 3.9220	 6.7600
 3.9250	 6.8520
 3.9280	 6.8580
 3.9310	 6.8290
 3.9340	 6.8150
 3.9370	 6.8370
 3.9400	 6.8330
 3.9430	 6.8040
 3.9460	 6.8040
 3.9490	 6.7990
 3.9520	 6.7970
 3.9550	 6.7920
 3.9580	 6.8330
 3.9610	 6.8310
 3.9640	 6.8130
 3.9670	 6.8020
 3.9700	 6.7970
 3.9730	 6.7340
 3.9770	 6.7140
 3.9800	 6.8000
 3.9830	 6.8430
 3.9860	 6.8350
 3.9890	 6.7820
 3.9920	 6.7370
 3.9950	 6.8160
 3.9980	 6.8480
 4.0010	 6.8460
 4.0040	 6.8140
 4.0070	 6.7940
 4.0100	 6.7840
 4.0130	 6.8080
 4.0170	 6.8400
 4.0200	 6.8300
 4.0230	 6.8320
 4.0260	 6.8010
 4.0290	 6.7660
 4.0320	 6.8420
 4.0350	 6.8480
 4.0380	 6.7590
 4.0420	 6.7060
 4.0450	 6.7410
 4.0480	 6.7940
 4.0510	 6.8480
 4.0540	 6.8210
 4.0570	 6.7550
 4.0610	 6.7100
 4.0640	 6.7500
 4.0670	 6.8510
 4.0700	 6.8910
 4.0730	 6.8610
 4.0770	 6.8500
 4.0800	 6.7960
 4.0830	 6.7630
 4.0860	 6.7610
 4.0890	 6.7870
 4.0930	 6.8230
 4.0960	 6.8490
 4.0990	 6.8090
 4.1020	 6.7540
 4.1060	 6.7680
 4.1090	 6.8190
 4.1120	 6.8410
 4.1150	 6.8420
 4.1190	 6.8630
 4.1220	 6.8650
 4.1250	 6.8630
 4.1280	 6.8180
 4.1320	 6.7820
 4.1350	 6.8180
 4.1380	 6.8180
 4.1420	 6.8090
 4.1450	 6.7760
 4.1480	 6.8020
 4.1520	 6.8140
 4.1550	 6.7990
 4.1580	 6.7760
 4.1620	 6.7410
 4.1650	 6.7310
 4.1680	 6.7230
 4.1720	 6.7600
 4.1750	 6.7730
 4.1780	 6.7580
 4.1820	 6.8080
 4.1850	 6.8180
 4.1890	 6.8050
 4.1920	 6.7890
 4.1950	 6.7840
 4.1990	 6.8980
 4.2020	 7.0240
 4.2060	 7.0840
 4.2090	 7.2060
 4.2120	 7.2250
 4.2160	 7.2500
 4.2190	 7.2540
 4.2230	 7.2140
 4.2260	 7.3000
 4.2300	 7.3720
 4.2330	 7.4810
 4.2360	 7.5800
 4.2400	 7.4840
 4.2430	 7.5480
 4.2470	 7.2820
 4.2500	 7.1280
 4.2540	 7.0040
 4.2570	 7.1310
 4.2610	 7.3960
 4.2640	 7.4940
 4.2680	 7.4220
 4.2710	 7.5310
 4.2750	 7.4960
 4.2780	 7.2960
 4.2820	 7.1260
 4.2850	 7.0890
 4.2890	 7.0790
 4.2930	 7.1140
 4.2960	 7.0460
 4.3000	 7.1350
 4.3030	 7.1710
 4.3070	 7.0760
 4.3100	 7.0300
 4.3140	 6.9890
 4.3180	 6.9070
 4.3210	 6.9640
 4.3250	 6.9390
 4.3280	 6.9630
 4.3320	 6.9230
 4.3360	 6.8950
 4.3390	 6.7850
 4.3430	 6.7700
 4.3470	 6.7600
 4.3500	 6.7220
 4.3540	 6.7340
 4.3570	 6.7860
 4.3610	 6.7750
 4.3650	 6.7120
 4.3680	 6.6520
 4.3720	 6.6630
 4.3760	 6.7120
 4.3800	 6.7280
 4.3830	 6.6770
 4.3870	 6.7140
 4.3910	 6.6730
 4.3940	 6.6920
 4.3980	 6.6970
 4.4020	 6.7140
 4.4060	 6.6840
 4.4090	 6.6800
 4.4130	 6.6950
 4.4170	 6.6510
 4.4210	 6.5560
 4.4240	 6.5890
 4.4280	 6.6920
 4.4320	 6.6970
 4.4360	 6.6670
 4.4400	 6.6470
 4.4430	 6.6070
 4.4470	 6.5860
 4.4510	 6.5780
 4.4550	 6.6390
 4.4590	 6.6390
 4.4620	 6.6320
 4.4660	 6.6240
 4.4700	 6.6340
 4.4740	 6.6380
 4.4780	 6.6400
 4.4820	 6.5610
 4.4860	 6.5780
 4.4900	 6.6540
 4.4930	 6.6970
 4.4970	 6.6440
 4.5010	 6.6070
 4.5050	 6.5560
 4.5090	 6.5660
 4.5130	 6.5600
 4.5170	 6.5820
 4.5210	 6.5770
 4.5250	 6.5540
 4.5290	 6.5880
 4.5330	 6.6340
 4.5370	 6.5650
 4.5410	 6.5490
 4.5450	 6.5610
 4.5490	 6.5920
 4.5530	 6.5440
 4.5570	 6.5600
 4.5610	 6.5590
 4.5650	 6.5460
 4.5690	 6.4690
 4.5730	 6.4860
 4.5770	 6.5120
 4.5810	 6.4980
 4.5850	 6.5100
 4.5890	 6.5600
 4.5930	 6.5550
 4.5970	 6.5880
 4.6010	 6.5480
 4.6050	 6.5140
 4.6090	 6.4600
 4.6130	 6.4890
 4.6170	 6.5010
 4.6220	 6.4820
 4.6260	 6.5020
 4.6300	 6.5210
 4.6340	 6.4750
 4.6380	 6.4610
 4.6420	 6.4530
 4.6460	 6.5230
 4.6510	 6.5340
 4.6550	 6.5310
 4.6590	 6.4960
 4.6630	 6.4670
 4.6670	 6.4680
 4.6720	 6.5070
 4.6760	 6.4980
 4.6800	 6.4910
 4.6840	 6.4400
 4.6880	 6.4250
 4.6930	 6.4080
 4.6970	 6.5030
 4.7010	 6.4920
 4.7050	 6.4980
 4.7100	 6.5200
 4.7140	 6.5250
 4.7180	 6.4770
 4.7230	 6.4910
 4.7270	 6.4720
 4.7310	 6.4690
 4.7360	 6.4810
 4.7400	 6.5230
 4.7440	 6.5030
 4.7490	 6.4790
 4.7530	 6.4460
 4.7570	 6.4730
 4.7620	 6.5200
 4.7660	 6.5430
 4.7700	 6.5220
 4.7750	 6.5720
 4.7790	 6.6000
 4.7840	 6.5560
 4.7880	 6.4880
 4.7920	 6.5080
 4.7970	 6.5320
 4.8010	 6.5210
 4.8060	 6.4560
 4.8100	 6.5330
 4.8150	 6.5400
 4.8190	 6.4740
 4.8240	 6.4330
 4.8280	 6.4470
 4.8330	 6.4880
 4.8370	 6.5470
 4.8420	 6.4770
 4.8460	 6.4670
 4.8510	 6.4570
 4.8550	 6.4450
 4.8600	 6.4350
 4.8640	 6.4570
 4.8690	 6.4400
 4.8730	 6.4860
 4.8780	 6.5050
 4.8830	 6.5550
 4.8870	 6.5770
 4.8920	 6.5610
 4.8960	 6.5110
 4.9010	 6.4850
 4.9060	 6.4610
 4.9100	 6.4980
 4.9150	 6.4890
 4.9200	 6.5220
 4.9240	 6.5250
 4.9290	 6.5320
 4.9340	 6.4910
 4.9380	 6.4950
 4.9430	 6.4960
 4.9480	 6.5310
 4.9530	 6.5040
 4.9570	 6.5010
 4.9620	 6.4690
 4.9670	 6.4790
 4.9720	 6.5530
 4.9760	 6.5940
 4.9810	 6.5020
 4.9860	 6.4780
 4.9910	 6.4410
 4.9960	 6.4840
 5.0000	 6.5420
 5.0050	 6.5860
 5.0100	 6.5510
 5.0150	 6.5430
 5.0200	 6.5420
 5.0250	 6.5550
 5.0290	 6.5010
 5.0340	 6.4770
 5.0390	 6.4070
 5.0440	 6.4390
 5.0490	 6.4750
 5.0540	 6.5300
 5.0590	 6.4550
 5.0640	 6.4600
 5.0690	 6.4670
 5.0740	 6.4930
 5.0790	 6.4620
 5.0840	 6.4740
 5.0890	 6.4840
 5.0940	 6.5640
 5.0990	 6.5740
 5.1040	 6.5630
 5.1090	 6.5270
 5.1140	 6.5950
 5.1190	 6.5870
 5.1240	 6.6140
 5.1290	 6.5750
 5.1340	 6.5270
 5.1390	 6.4500
 5.1440	 6.5350
 5.1490	 6.5250
 5.1540	 6.4740
 5.1600	 6.4730
 5.1650	 6.5540
 5.1700	 6.5130
 5.1750	 6.5430
 5.1800	 6.5880
 5.1850	 6.5600
 5.1910	 6.5120
 5.1960	 6.5340
 5.2010	 6.4990
 5.2060	 6.5160
 5.2110	 6.5440
 5.2170	 6.5490
 5.2220	 6.5480
 5.2270	 6.5850
 5.2320	 6.5410
 5.2380	 6.5460
 5.2430	 6.4770
 5.2480	 6.4930
 5.2540	 6.4870
 5.2590	 6.5340
 5.2640	 6.5260
 5.2700	 6.5260
 5.2750	 6.4570
 5.2800	 6.4520
 5.2860	 6.4770
 5.2910	 6.5310
 5.2970	 6.5030
 5.3020	 6.5670
 5.3070	 6.5520
 5.3130	 6.5270
 5.3180	 6.4740
 5.3240	 6.5640
 5.3290	 6.6120
 5.3350	 6.5700
 5.3400	 6.4760
 5.3460	 6.4900
 5.3510	 6.4940
 5.3570	 6.5300
 5.3620	 6.4730
 5.3680	 6.4740
 5.3730	 6.4880
 5.3790	 6.4600
 5.3850	 6.4430
 5.3900	 6.5130
 5.3960	 6.4450
 5.4010	 6.4350
 5.4070	 6.4270
 5.4130	 6.4550
 5.4180	 6.4240
 5.4240	 6.4230
 5.4300	 6.4470
 5.4350	 6.4440
