Name: Salix babylonica
Type: vegetation
Class: Tree
Genus: Salix
Species: babylonica
Sample No.: JPL131
Owner: JPL
Wavelength Range: VSWIR
Origin: 34.12829; -118.11638;; WGS84
Collection Date: 9/7/2016
Description: Samples were collected at the Huntington Garden in San Marino California as part of a JPL Subcontract studying HyTES imagery. Samples were taken to JPL and processed within 48 hours of collection. The same leaves were processed in the Nicolet and then measured using the ASD.
Measurement: Bidirectional reflectance
First Column: X
Second Column: Y
X Units: Wavelength (micrometer)
Y Units: Reflectance (percentage)
First X Value: 0.35
Last X Value: 2.5
Number of X Values: 2151
Additional Information: vegetation.tree.salix.babylonica.vswir.jpl131.jpl.asd.ancillary.txt

 0.3500	 6.6220
 0.3510	 6.7480
 0.3520	 6.8470
 0.3530	 6.8050
 0.3540	 6.6510
 0.3550	 6.7370
 0.3560	 6.7710
 0.3570	 6.7050
 0.3580	 6.6280
 0.3590	 6.6280
 0.3600	 6.5910
 0.3610	 6.5000
 0.3620	 6.5020
 0.3630	 6.5270
 0.3640	 6.5440
 0.3650	 6.5420
 0.3660	 6.5540
 0.3670	 6.5200
 0.3680	 6.4670
 0.3690	 6.4760
 0.3700	 6.5090
 0.3710	 6.4970
 0.3720	 6.4380
 0.3730	 6.4560
 0.3740	 6.4500
 0.3750	 6.4610
 0.3760	 6.5310
 0.3770	 6.4800
 0.3780	 6.4430
 0.3790	 6.4560
 0.3800	 6.4630
 0.3810	 6.4370
 0.3820	 6.4120
 0.3830	 6.4160
 0.3840	 6.4280
 0.3850	 6.4110
 0.3860	 6.4040
 0.3870	 6.4520
 0.3880	 6.4380
 0.3890	 6.4000
 0.3900	 6.3790
 0.3910	 6.4070
 0.3920	 6.4000
 0.3930	 6.3860
 0.3940	 6.3900
 0.3950	 6.3700
 0.3960	 6.3430
 0.3970	 6.3400
 0.3980	 6.3800
 0.3990	 6.3650
 0.4000	 6.3450
 0.4010	 6.3410
 0.4020	 6.3170
 0.4030	 6.3120
 0.4040	 6.3220
 0.4050	 6.3310
 0.4060	 6.3180
 0.4070	 6.3060
 0.4080	 6.3080
 0.4090	 6.3310
 0.4100	 6.3350
 0.4110	 6.3320
 0.4120	 6.3340
 0.4130	 6.3400
 0.4140	 6.3450
 0.4150	 6.3520
 0.4160	 6.3640
 0.4170	 6.3690
 0.4180	 6.3840
 0.4190	 6.4010
 0.4200	 6.3880
 0.4210	 6.3880
 0.4220	 6.3930
 0.4230	 6.3920
 0.4240	 6.4030
 0.4250	 6.4130
 0.4260	 6.4180
 0.4270	 6.4190
 0.4280	 6.4150
 0.4290	 6.4210
 0.4300	 6.4350
 0.4310	 6.4300
 0.4320	 6.4300
 0.4330	 6.4290
 0.4340	 6.4210
 0.4350	 6.4240
 0.4360	 6.4340
 0.4370	 6.4420
 0.4380	 6.4450
 0.4390	 6.4510
 0.4400	 6.4650
 0.4410	 6.4840
 0.4420	 6.4980
 0.4430	 6.5020
 0.4440	 6.5040
 0.4450	 6.5150
 0.4460	 6.5210
 0.4470	 6.5240
 0.4480	 6.5290
 0.4490	 6.5410
 0.4500	 6.5480
 0.4510	 6.5500
 0.4520	 6.5510
 0.4530	 6.5580
 0.4540	 6.5630
 0.4550	 6.5660
 0.4560	 6.5730
 0.4570	 6.5780
 0.4580	 6.5790
 0.4590	 6.5780
 0.4600	 6.5830
 0.4610	 6.5840
 0.4620	 6.5840
 0.4630	 6.5880
 0.4640	 6.5960
 0.4650	 6.5990
 0.4660	 6.5960
 0.4670	 6.5950
 0.4680	 6.5930
 0.4690	 6.5980
 0.4700	 6.6080
 0.4710	 6.6010
 0.4720	 6.6010
 0.4730	 6.6070
 0.4740	 6.6060
 0.4750	 6.6100
 0.4760	 6.6120
 0.4770	 6.6140
 0.4780	 6.6240
 0.4790	 6.6240
 0.4800	 6.6200
 0.4810	 6.6240
 0.4820	 6.6200
 0.4830	 6.6140
 0.4840	 6.6120
 0.4850	 6.6210
 0.4860	 6.6230
 0.4870	 6.6210
 0.4880	 6.6210
 0.4890	 6.6320
 0.4900	 6.6410
 0.4910	 6.6490
 0.4920	 6.6590
 0.4930	 6.6670
 0.4940	 6.6780
 0.4950	 6.6930
 0.4960	 6.7060
 0.4970	 6.7210
 0.4980	 6.7380
 0.4990	 6.7570
 0.5000	 6.7750
 0.5010	 6.7960
 0.5020	 6.8210
 0.5030	 6.8450
 0.5040	 6.8730
 0.5050	 6.9080
 0.5060	 6.9470
 0.5070	 6.9930
 0.5080	 7.0380
 0.5090	 7.0870
 0.5100	 7.1510
 0.5110	 7.2190
 0.5120	 7.2910
 0.5130	 7.3700
 0.5140	 7.4560
 0.5150	 7.5520
 0.5160	 7.6590
 0.5170	 7.7760
 0.5180	 7.8950
 0.5190	 8.0240
 0.5200	 8.1610
 0.5210	 8.2940
 0.5220	 8.4290
 0.5230	 8.5730
 0.5240	 8.7240
 0.5250	 8.8670
 0.5260	 9.0040
 0.5270	 9.1380
 0.5280	 9.2670
 0.5290	 9.3870
 0.5300	 9.5000
 0.5310	 9.6060
 0.5320	 9.6980
 0.5330	 9.7860
 0.5340	 9.8660
 0.5350	 9.9350
 0.5360	 9.9950
 0.5370	10.0450
 0.5380	10.0880
 0.5390	10.1300
 0.5400	10.1640
 0.5410	10.1900
 0.5420	10.2130
 0.5430	10.2360
 0.5440	10.2610
 0.5450	10.2900
 0.5460	10.3230
 0.5470	10.3520
 0.5480	10.3780
 0.5490	10.4030
 0.5500	10.4210
 0.5510	10.4350
 0.5520	10.4420
 0.5530	10.4400
 0.5540	10.4310
 0.5550	10.4130
 0.5560	10.3840
 0.5570	10.3460
 0.5580	10.2990
 0.5590	10.2420
 0.5600	10.1750
 0.5610	10.0980
 0.5620	10.0160
 0.5630	 9.9310
 0.5640	 9.8420
 0.5650	 9.7470
 0.5660	 9.6480
 0.5670	 9.5490
 0.5680	 9.4520
 0.5690	 9.3580
 0.5700	 9.2660
 0.5710	 9.1770
 0.5720	 9.0860
 0.5730	 9.0030
 0.5740	 8.9280
 0.5750	 8.8580
 0.5760	 8.7970
 0.5770	 8.7400
 0.5780	 8.6810
 0.5790	 8.6210
 0.5800	 8.5650
 0.5810	 8.5170
 0.5820	 8.4770
 0.5830	 8.4370
 0.5840	 8.3990
 0.5850	 8.3630
 0.5860	 8.3230
 0.5870	 8.2830
 0.5880	 8.2420
 0.5890	 8.2030
 0.5900	 8.1830
 0.5910	 8.1710
 0.5920	 8.1620
 0.5930	 8.1490
 0.5940	 8.1330
 0.5950	 8.1170
 0.5960	 8.1030
 0.5970	 8.0890
 0.5980	 8.0770
 0.5990	 8.0670
 0.6000	 8.0540
 0.6010	 8.0410
 0.6020	 8.0260
 0.6030	 8.0070
 0.6040	 7.9840
 0.6050	 7.9560
 0.6060	 7.9250
 0.6070	 7.8900
 0.6080	 7.8520
 0.6090	 7.8080
 0.6100	 7.7570
 0.6110	 7.7010
 0.6120	 7.6650
 0.6130	 7.6390
 0.6140	 7.6160
 0.6150	 7.5860
 0.6160	 7.5560
 0.6170	 7.5260
 0.6180	 7.4980
 0.6190	 7.4700
 0.6200	 7.4460
 0.6210	 7.4270
 0.6220	 7.4130
 0.6230	 7.3960
 0.6240	 7.3810
 0.6250	 7.3710
 0.6260	 7.3640
 0.6270	 7.3560
 0.6280	 7.3470
 0.6290	 7.3400
 0.6300	 7.3350
 0.6310	 7.3300
 0.6320	 7.3250
 0.6330	 7.3200
 0.6340	 7.3110
 0.6350	 7.2960
 0.6360	 7.2770
 0.6370	 7.2590
 0.6380	 7.2350
 0.6390	 7.2060
 0.6400	 7.1800
 0.6410	 7.1530
 0.6420	 7.1240
 0.6430	 7.0950
 0.6440	 7.0680
 0.6450	 7.0430
 0.6460	 7.0180
 0.6470	 6.9940
 0.6480	 6.9760
 0.6490	 6.9600
 0.6500	 6.9440
 0.6510	 6.9320
 0.6520	 6.9230
 0.6530	 6.9160
 0.6540	 6.9100
 0.6550	 6.9050
 0.6560	 6.8960
 0.6570	 6.8830
 0.6580	 6.8690
 0.6590	 6.8620
 0.6600	 6.8510
 0.6610	 6.8360
 0.6620	 6.8250
 0.6630	 6.8170
 0.6640	 6.8100
 0.6650	 6.8040
 0.6660	 6.8000
 0.6670	 6.8010
 0.6680	 6.8060
 0.6690	 6.8130
 0.6700	 6.8220
 0.6710	 6.8350
 0.6720	 6.8500
 0.6730	 6.8660
 0.6740	 6.8840
 0.6750	 6.9060
 0.6760	 6.9310
 0.6770	 6.9600
 0.6780	 6.9880
 0.6790	 7.0180
 0.6800	 7.0530
 0.6810	 7.0880
 0.6820	 7.1260
 0.6830	 7.1680
 0.6840	 7.2100
 0.6850	 7.2520
 0.6860	 7.2980
 0.6870	 7.3490
 0.6880	 7.4070
 0.6890	 7.4800
 0.6900	 7.5730
 0.6910	 7.6930
 0.6920	 7.8410
 0.6930	 8.0240
 0.6940	 8.2470
 0.6950	 8.5200
 0.6960	 8.8460
 0.6970	 9.2230
 0.6980	 9.6480
 0.6990	10.1200
 0.7000	10.6380
 0.7010	11.1990
 0.7020	11.7940
 0.7030	12.4190
 0.7040	13.0710
 0.7050	13.7470
 0.7060	14.4400
 0.7070	15.1520
 0.7080	15.8800
 0.7090	16.6240
 0.7100	17.3840
 0.7110	18.1600
 0.7120	18.9500
 0.7130	19.7480
 0.7140	20.5560
 0.7150	21.3720
 0.7160	22.1920
 0.7170	23.0200
 0.7180	23.8500
 0.7190	24.6790
 0.7200	25.5060
 0.7210	26.3250
 0.7220	27.1360
 0.7230	27.9340
 0.7240	28.7140
 0.7250	29.4780
 0.7260	30.2210
 0.7270	30.9410
 0.7280	31.6330
 0.7290	32.3000
 0.7300	32.9420
 0.7310	33.5550
 0.7320	34.1370
 0.7330	34.6920
 0.7340	35.2180
 0.7350	35.7130
 0.7360	36.1820
 0.7370	36.6230
 0.7380	37.0350
 0.7390	37.4190
 0.7400	37.7800
 0.7410	38.1170
 0.7420	38.4290
 0.7430	38.7160
 0.7440	38.9790
 0.7450	39.2210
 0.7460	39.4430
 0.7470	39.6460
 0.7480	39.8320
 0.7490	40.0020
 0.7500	40.1530
 0.7510	40.2910
 0.7520	40.4190
 0.7530	40.5380
 0.7540	40.6430
 0.7550	40.7380
 0.7560	40.8230
 0.7570	40.8990
 0.7580	40.9650
 0.7590	41.0260
 0.7600	41.0870
 0.7610	41.1410
 0.7620	41.1880
 0.7630	41.2300
 0.7640	41.2670
 0.7650	41.3030
 0.7660	41.3340
 0.7670	41.3610
 0.7680	41.3850
 0.7690	41.4050
 0.7700	41.4240
 0.7710	41.4430
 0.7720	41.4600
 0.7730	41.4750
 0.7740	41.4900
 0.7750	41.5030
 0.7760	41.5190
 0.7770	41.5300
 0.7780	41.5380
 0.7790	41.5490
 0.7800	41.5620
 0.7810	41.5750
 0.7820	41.5860
 0.7830	41.5910
 0.7840	41.5970
 0.7850	41.6050
 0.7860	41.6140
 0.7870	41.6200
 0.7880	41.6250
 0.7890	41.6290
 0.7900	41.6290
 0.7910	41.6320
 0.7920	41.6360
 0.7930	41.6390
 0.7940	41.6390
 0.7950	41.6400
 0.7960	41.6390
 0.7970	41.6360
 0.7980	41.6340
 0.7990	41.6290
 0.8000	41.6240
 0.8010	41.6200
 0.8020	41.6150
 0.8030	41.6070
 0.8040	41.6010
 0.8050	41.6010
 0.8060	41.5940
 0.8070	41.5830
 0.8080	41.5720
 0.8090	41.5640
 0.8100	41.5550
 0.8110	41.5470
 0.8120	41.5390
 0.8130	41.5270
 0.8140	41.5140
 0.8150	41.5010
 0.8160	41.4880
 0.8170	41.4770
 0.8180	41.4670
 0.8190	41.4560
 0.8200	41.4430
 0.8210	41.4290
 0.8220	41.4170
 0.8230	41.4060
 0.8240	41.3910
 0.8250	41.3770
 0.8260	41.3660
 0.8270	41.3560
 0.8280	41.3470
 0.8290	41.3320
 0.8300	41.3170
 0.8310	41.3060
 0.8320	41.2920
 0.8330	41.2820
 0.8340	41.2730
 0.8350	41.2630
 0.8360	41.2550
 0.8370	41.2450
 0.8380	41.2340
 0.8390	41.2250
 0.8400	41.2200
 0.8410	41.2160
 0.8420	41.2110
 0.8430	41.2070
 0.8440	41.2040
 0.8450	41.2010
 0.8460	41.1970
 0.8470	41.1910
 0.8480	41.1890
 0.8490	41.1880
 0.8500	41.1850
 0.8510	41.1820
 0.8520	41.1790
 0.8530	41.1760
 0.8540	41.1760
 0.8550	41.1790
 0.8560	41.1800
 0.8570	41.1800
 0.8580	41.1850
 0.8590	41.1940
 0.8600	41.2000
 0.8610	41.2010
 0.8620	41.2040
 0.8630	41.2080
 0.8640	41.2100
 0.8650	41.2130
 0.8660	41.2180
 0.8670	41.2260
 0.8680	41.2350
 0.8690	41.2450
 0.8700	41.2490
 0.8710	41.2550
 0.8720	41.2640
 0.8730	41.2730
 0.8740	41.2840
 0.8750	41.2920
 0.8760	41.2980
 0.8770	41.3100
 0.8780	41.3220
 0.8790	41.3330
 0.8800	41.3420
 0.8810	41.3530
 0.8820	41.3620
 0.8830	41.3730
 0.8840	41.3870
 0.8850	41.3960
 0.8860	41.4050
 0.8870	41.4150
 0.8880	41.4240
 0.8890	41.4340
 0.8900	41.4470
 0.8910	41.4600
 0.8920	41.4660
 0.8930	41.4730
 0.8940	41.4840
 0.8950	41.4980
 0.8960	41.5100
 0.8970	41.5240
 0.8980	41.5330
 0.8990	41.5380
 0.9000	41.5510
 0.9010	41.5630
 0.9020	41.5720
 0.9030	41.5800
 0.9040	41.5870
 0.9050	41.5960
 0.9060	41.6080
 0.9070	41.6190
 0.9080	41.6250
 0.9090	41.6290
 0.9100	41.6330
 0.9110	41.6350
 0.9120	41.6430
 0.9130	41.6510
 0.9140	41.6560
 0.9150	41.6590
 0.9160	41.6620
 0.9170	41.6640
 0.9180	41.6640
 0.9190	41.6600
 0.9200	41.6630
 0.9210	41.6650
 0.9220	41.6630
 0.9230	41.6580
 0.9240	41.6560
 0.9250	41.6540
 0.9260	41.6480
 0.9270	41.6340
 0.9280	41.6220
 0.9290	41.6090
 0.9300	41.5950
 0.9310	41.5830
 0.9320	41.5700
 0.9330	41.5550
 0.9340	41.5400
 0.9350	41.5290
 0.9360	41.5070
 0.9370	41.4850
 0.9380	41.4700
 0.9390	41.4520
 0.9400	41.4270
 0.9410	41.3990
 0.9420	41.3730
 0.9430	41.3490
 0.9440	41.3280
 0.9450	41.3000
 0.9460	41.2580
 0.9470	41.2220
 0.9480	41.1930
 0.9490	41.1590
 0.9500	41.1110
 0.9510	41.0570
 0.9520	41.0090
 0.9530	40.9640
 0.9540	40.9150
 0.9550	40.8660
 0.9560	40.8260
 0.9570	40.7850
 0.9580	40.7340
 0.9590	40.6850
 0.9600	40.6510
 0.9610	40.6220
 0.9620	40.5830
 0.9630	40.5520
 0.9640	40.5260
 0.9650	40.5070
 0.9660	40.4940
 0.9670	40.4700
 0.9680	40.4480
 0.9690	40.4290
 0.9700	40.4120
 0.9710	40.3980
 0.9720	40.3900
 0.9730	40.3830
 0.9740	40.3730
 0.9750	40.3650
 0.9760	40.3640
 0.9770	40.3620
 0.9780	40.3530
 0.9790	40.3540
 0.9800	40.3480
 0.9810	40.3410
 0.9820	40.3450
 0.9830	40.3440
 0.9840	40.3390
 0.9850	40.3400
 0.9860	40.3520
 0.9870	40.3660
 0.9880	40.3730
 0.9890	40.3760
 0.9900	40.3830
 0.9910	40.3820
 0.9920	40.3940
 0.9930	40.4100
 0.9940	40.4150
 0.9950	40.4200
 0.9960	40.4270
 0.9970	40.4340
 0.9980	40.4440
 0.9990	40.4640
 1.0000	40.4810
 1.0010	42.0950
 1.0020	42.1090
 1.0030	42.1200
 1.0040	42.1330
 1.0050	42.1460
 1.0060	42.1560
 1.0070	42.1670
 1.0080	42.1770
 1.0090	42.1850
 1.0100	42.1950
 1.0110	42.2060
 1.0120	42.2190
 1.0130	42.2320
 1.0140	42.2450
 1.0150	42.2590
 1.0160	42.2740
 1.0170	42.2870
 1.0180	42.2930
 1.0190	42.3000
 1.0200	42.3120
 1.0210	42.3210
 1.0220	42.3330
 1.0230	42.3450
 1.0240	42.3590
 1.0250	42.3710
 1.0260	42.3820
 1.0270	42.3940
 1.0280	42.4030
 1.0290	42.4150
 1.0300	42.4300
 1.0310	42.4430
 1.0320	42.4560
 1.0330	42.4680
 1.0340	42.4800
 1.0350	42.4930
 1.0360	42.5040
 1.0370	42.5190
 1.0380	42.5310
 1.0390	42.5430
 1.0400	42.5550
 1.0410	42.5650
 1.0420	42.5770
 1.0430	42.5890
 1.0440	42.6020
 1.0450	42.6170
 1.0460	42.6290
 1.0470	42.6390
 1.0480	42.6470
 1.0490	42.6530
 1.0500	42.6600
 1.0510	42.6680
 1.0520	42.6730
 1.0530	42.6790
 1.0540	42.6840
 1.0550	42.6890
 1.0560	42.6940
 1.0570	42.6960
 1.0580	42.6960
 1.0590	42.6950
 1.0600	42.6910
 1.0610	42.6890
 1.0620	42.6880
 1.0630	42.6860
 1.0640	42.6820
 1.0650	42.6790
 1.0660	42.6760
 1.0670	42.6710
 1.0680	42.6660
 1.0690	42.6610
 1.0700	42.6550
 1.0710	42.6470
 1.0720	42.6390
 1.0730	42.6310
 1.0740	42.6220
 1.0750	42.6130
 1.0760	42.6030
 1.0770	42.5920
 1.0780	42.5830
 1.0790	42.5740
 1.0800	42.5650
 1.0810	42.5580
 1.0820	42.5490
 1.0830	42.5380
 1.0840	42.5270
 1.0850	42.5150
 1.0860	42.5020
 1.0870	42.4910
 1.0880	42.4810
 1.0890	42.4710
 1.0900	42.4640
 1.0910	42.4540
 1.0920	42.4420
 1.0930	42.4320
 1.0940	42.4210
 1.0950	42.4110
 1.0960	42.4040
 1.0970	42.3950
 1.0980	42.3830
 1.0990	42.3750
 1.1000	42.3690
 1.1010	42.3610
 1.1020	42.3530
 1.1030	42.3470
 1.1040	42.3350
 1.1050	42.3220
 1.1060	42.3110
 1.1070	42.3010
 1.1080	42.2920
 1.1090	42.2850
 1.1100	42.2770
 1.1110	42.2690
 1.1120	42.2590
 1.1130	42.2500
 1.1140	42.2400
 1.1150	42.2290
 1.1160	42.2180
 1.1170	42.2060
 1.1180	42.1920
 1.1190	42.1770
 1.1200	42.1600
 1.1210	42.1410
 1.1220	42.1210
 1.1230	42.1000
 1.1240	42.0750
 1.1250	42.0450
 1.1260	42.0140
 1.1270	41.9770
 1.1280	41.9370
 1.1290	41.8910
 1.1300	41.8410
 1.1310	41.7850
 1.1320	41.7220
 1.1330	41.6560
 1.1340	41.5870
 1.1350	41.5120
 1.1360	41.4330
 1.1370	41.3490
 1.1380	41.2590
 1.1390	41.1660
 1.1400	41.0690
 1.1410	40.9680
 1.1420	40.8650
 1.1430	40.7600
 1.1440	40.6540
 1.1450	40.5450
 1.1460	40.4420
 1.1470	40.3370
 1.1480	40.2390
 1.1490	40.1440
 1.1500	40.0540
 1.1510	39.9660
 1.1520	39.8850
 1.1530	39.8070
 1.1540	39.7360
 1.1550	39.6700
 1.1560	39.6110
 1.1570	39.5590
 1.1580	39.5130
 1.1590	39.4710
 1.1600	39.4310
 1.1610	39.3950
 1.1620	39.3620
 1.1630	39.3340
 1.1640	39.3080
 1.1650	39.2860
 1.1660	39.2670
 1.1670	39.2490
 1.1680	39.2340
 1.1690	39.2200
 1.1700	39.2080
 1.1710	39.1950
 1.1720	39.1840
 1.1730	39.1720
 1.1740	39.1590
 1.1750	39.1480
 1.1760	39.1360
 1.1770	39.1230
 1.1780	39.1110
 1.1790	39.0970
 1.1800	39.0820
 1.1810	39.0670
 1.1820	39.0530
 1.1830	39.0380
 1.1840	39.0230
 1.1850	39.0080
 1.1860	38.9950
 1.1870	38.9800
 1.1880	38.9660
 1.1890	38.9520
 1.1900	38.9410
 1.1910	38.9290
 1.1920	38.9190
 1.1930	38.9130
 1.1940	38.9060
 1.1950	38.8980
 1.1960	38.8920
 1.1970	38.8870
 1.1980	38.8830
 1.1990	38.8820
 1.2000	38.8810
 1.2010	38.8810
 1.2020	38.8850
 1.2030	38.8870
 1.2040	38.8900
 1.2050	38.8950
 1.2060	38.9010
 1.2070	38.9080
 1.2080	38.9160
 1.2090	38.9250
 1.2100	38.9340
 1.2110	38.9430
 1.2120	38.9530
 1.2130	38.9650
 1.2140	38.9760
 1.2150	38.9900
 1.2160	39.0040
 1.2170	39.0210
 1.2180	39.0360
 1.2190	39.0530
 1.2200	39.0710
 1.2210	39.0870
 1.2220	39.1020
 1.2230	39.1190
 1.2240	39.1340
 1.2250	39.1490
 1.2260	39.1650
 1.2270	39.1820
 1.2280	39.1980
 1.2290	39.2130
 1.2300	39.2280
 1.2310	39.2420
 1.2320	39.2550
 1.2330	39.2690
 1.2340	39.2820
 1.2350	39.2920
 1.2360	39.3040
 1.2370	39.3150
 1.2380	39.3260
 1.2390	39.3370
 1.2400	39.3460
 1.2410	39.3540
 1.2420	39.3610
 1.2430	39.3680
 1.2440	39.3760
 1.2450	39.3840
 1.2460	39.3930
 1.2470	39.4000
 1.2480	39.4060
 1.2490	39.4120
 1.2500	39.4180
 1.2510	39.4220
 1.2520	39.4280
 1.2530	39.4300
 1.2540	39.4330
 1.2550	39.4360
 1.2560	39.4370
 1.2570	39.4400
 1.2580	39.4420
 1.2590	39.4420
 1.2600	39.4420
 1.2610	39.4400
 1.2620	39.4370
 1.2630	39.4340
 1.2640	39.4290
 1.2650	39.4250
 1.2660	39.4210
 1.2670	39.4160
 1.2680	39.4120
 1.2690	39.4070
 1.2700	39.4030
 1.2710	39.3970
 1.2720	39.3920
 1.2730	39.3870
 1.2740	39.3810
 1.2750	39.3730
 1.2760	39.3650
 1.2770	39.3570
 1.2780	39.3470
 1.2790	39.3360
 1.2800	39.3230
 1.2810	39.3070
 1.2820	39.2910
 1.2830	39.2730
 1.2840	39.2540
 1.2850	39.2320
 1.2860	39.2070
 1.2870	39.1810
 1.2880	39.1530
 1.2890	39.1220
 1.2900	39.0890
 1.2910	39.0510
 1.2920	39.0100
 1.2930	38.9660
 1.2940	38.9190
 1.2950	38.8700
 1.2960	38.8180
 1.2970	38.7650
 1.2980	38.7110
 1.2990	38.6540
 1.3000	38.5950
 1.3010	38.5320
 1.3020	38.4680
 1.3030	38.4040
 1.3040	38.3370
 1.3050	38.2710
 1.3060	38.2030
 1.3070	38.1320
 1.3080	38.0610
 1.3090	37.9880
 1.3100	37.9120
 1.3110	37.8350
 1.3120	37.7580
 1.3130	37.6790
 1.3140	37.5980
 1.3150	37.5170
 1.3160	37.4340
 1.3170	37.3500
 1.3180	37.2640
 1.3190	37.1770
 1.3200	37.0910
 1.3210	37.0030
 1.3220	36.9140
 1.3230	36.8230
 1.3240	36.7310
 1.3250	36.6380
 1.3260	36.5430
 1.3270	36.4470
 1.3280	36.3490
 1.3290	36.2500
 1.3300	36.1510
 1.3310	36.0510
 1.3320	35.9510
 1.3330	35.8500
 1.3340	35.7480
 1.3350	35.6450
 1.3360	35.5420
 1.3370	35.4380
 1.3380	35.3360
 1.3390	35.2340
 1.3400	35.1310
 1.3410	35.0310
 1.3420	34.9320
 1.3430	34.8320
 1.3440	34.7350
 1.3450	34.6370
 1.3460	34.5400
 1.3470	34.4440
 1.3480	34.3480
 1.3490	34.2540
 1.3500	34.1600
 1.3510	34.0650
 1.3520	33.9710
 1.3530	33.8780
 1.3540	33.7840
 1.3550	33.6890
 1.3560	33.5930
 1.3570	33.4960
 1.3580	33.3980
 1.3590	33.2980
 1.3600	33.1950
 1.3610	33.0900
 1.3620	32.9780
 1.3630	32.8640
 1.3640	32.7440
 1.3650	32.6170
 1.3660	32.4840
 1.3670	32.3440
 1.3680	32.1950
 1.3690	32.0370
 1.3700	31.8660
 1.3710	31.6850
 1.3720	31.4910
 1.3730	31.2820
 1.3740	31.0590
 1.3750	30.8180
 1.3760	30.5580
 1.3770	30.2780
 1.3780	29.9760
 1.3790	29.6560
 1.3800	29.3160
 1.3810	28.9510
 1.3820	28.5700
 1.3830	28.1700
 1.3840	27.7530
 1.3850	27.3170
 1.3860	26.8690
 1.3870	26.4020
 1.3880	25.9310
 1.3890	25.4490
 1.3900	24.9580
 1.3910	24.4660
 1.3920	23.9690
 1.3930	23.4680
 1.3940	22.9700
 1.3950	22.4700
 1.3960	21.9790
 1.3970	21.4990
 1.3980	21.0280
 1.3990	20.5750
 1.4000	20.1360
 1.4010	19.7090
 1.4020	19.3010
 1.4030	18.9090
 1.4040	18.5350
 1.4050	18.1820
 1.4060	17.8480
 1.4070	17.5360
 1.4080	17.2420
 1.4090	16.9640
 1.4100	16.7060
 1.4110	16.4640
 1.4120	16.2380
 1.4130	16.0300
 1.4140	15.8360
 1.4150	15.6590
 1.4160	15.4960
 1.4170	15.3450
 1.4180	15.2060
 1.4190	15.0760
 1.4200	14.9570
 1.4210	14.8470
 1.4220	14.7470
 1.4230	14.6570
 1.4240	14.5740
 1.4250	14.4980
 1.4260	14.4300
 1.4270	14.3660
 1.4280	14.3090
 1.4290	14.2570
 1.4300	14.2110
 1.4310	14.1690
 1.4320	14.1340
 1.4330	14.1020
 1.4340	14.0750
 1.4350	14.0510
 1.4360	14.0310
 1.4370	14.0140
 1.4380	14.0010
 1.4390	13.9910
 1.4400	13.9830
 1.4410	13.9780
 1.4420	13.9760
 1.4430	13.9760
 1.4440	13.9770
 1.4450	13.9800
 1.4460	13.9840
 1.4470	13.9900
 1.4480	13.9980
 1.4490	14.0070
 1.4500	14.0170
 1.4510	14.0290
 1.4520	14.0420
 1.4530	14.0570
 1.4540	14.0730
 1.4550	14.0920
 1.4560	14.1120
 1.4570	14.1330
 1.4580	14.1580
 1.4590	14.1850
 1.4600	14.2140
 1.4610	14.2480
 1.4620	14.2840
 1.4630	14.3250
 1.4640	14.3690
 1.4650	14.4160
 1.4660	14.4680
 1.4670	14.5220
 1.4680	14.5790
 1.4690	14.6420
 1.4700	14.7080
 1.4710	14.7780
 1.4720	14.8500
 1.4730	14.9260
 1.4740	15.0040
 1.4750	15.0860
 1.4760	15.1710
 1.4770	15.2580
 1.4780	15.3460
