Name: Salvia leucophylla 1
Type: vegetation
Class: Shrub
Genus: Salvia
Species: leucophylla
Sample No.: VH287
Owner: UCSB
Wavelength Range: VSWIR
Origin: 34.698; -120.0477; WGS84
Collection Date: 11/2/2013
Description: Samples were collected as part of the HyspIRI Airborne Campaign. 48 individual plants were sampled in three times in 2013 - spring  summer  and fall. The name of the sample includes a 1  2  or 3 which references a different individual of the species. Samples were taken to JPL and processed within 48 hours of collection. The same leaves were processed in the Nicolet and then measured using the ASD.
Measurement: Bidirectional reflectance
First Column: X
Second Column: Y
X Units: Wavelength (micrometers)
Y Units: Reflectance (percentage)
First X Value: 0.35
Last X Value: 2.5
Number of X Values: 2151
Additional Information: vegetation.shrub.salvia.leucophylla.vswir.vh287.ucsb.asd.ancillary.txt

 0.3500	 7.3500
 0.3510	 7.7930
 0.3520	 7.8870
 0.3530	 7.7780
 0.3540	 7.8050
 0.3550	 8.1850
 0.3560	 8.0580
 0.3570	 7.7610
 0.3580	 8.1010
 0.3590	 8.2800
 0.3600	 8.2840
 0.3610	 8.2290
 0.3620	 8.2910
 0.3630	 8.5020
 0.3640	 8.6700
 0.3650	 8.6480
 0.3660	 8.6550
 0.3670	 8.7680
 0.3680	 8.9200
 0.3690	 8.9690
 0.3700	 9.0810
 0.3710	 9.2120
 0.3720	 9.3240
 0.3730	 9.4280
 0.3740	 9.5140
 0.3750	 9.6250
 0.3760	 9.7880
 0.3770	 9.8680
 0.3780	10.0570
 0.3790	10.3020
 0.3800	10.3550
 0.3810	10.4770
 0.3820	10.6890
 0.3830	10.9160
 0.3840	10.9620
 0.3850	11.0140
 0.3860	11.1370
 0.3870	11.3290
 0.3880	11.5130
 0.3890	11.6110
 0.3900	11.6540
 0.3910	11.7710
 0.3920	11.8530
 0.3930	11.9340
 0.3940	12.0640
 0.3950	12.2610
 0.3960	12.3870
 0.3970	12.4570
 0.3980	12.5550
 0.3990	12.7230
 0.4000	12.8300
 0.4010	12.8550
 0.4020	12.9380
 0.4030	13.0840
 0.4040	13.2100
 0.4050	13.2580
 0.4060	13.3320
 0.4070	13.4310
 0.4080	13.5210
 0.4090	13.5630
 0.4100	13.6290
 0.4110	13.7320
 0.4120	13.8400
 0.4130	13.8460
 0.4140	13.9080
 0.4150	14.0190
 0.4160	14.1130
 0.4170	14.1540
 0.4180	14.2170
 0.4190	14.3070
 0.4200	14.3700
 0.4210	14.4340
 0.4220	14.5030
 0.4230	14.5790
 0.4240	14.6680
 0.4250	14.7370
 0.4260	14.7880
 0.4270	14.8390
 0.4280	14.9080
 0.4290	14.9820
 0.4300	15.0530
 0.4310	15.1230
 0.4320	15.1910
 0.4330	15.2610
 0.4340	15.3360
 0.4350	15.4060
 0.4360	15.4600
 0.4370	15.5040
 0.4380	15.5560
 0.4390	15.6160
 0.4400	15.6650
 0.4410	15.6990
 0.4420	15.7440
 0.4430	15.7970
 0.4440	15.8500
 0.4450	15.8960
 0.4460	15.9270
 0.4470	15.9610
 0.4480	16.0080
 0.4490	16.0610
 0.4500	16.0960
 0.4510	16.1400
 0.4520	16.2070
 0.4530	16.2290
 0.4540	16.2610
 0.4550	16.3060
 0.4560	16.3360
 0.4570	16.3630
 0.4580	16.4000
 0.4590	16.4470
 0.4600	16.4810
 0.4610	16.5090
 0.4620	16.5380
 0.4630	16.5760
 0.4640	16.6160
 0.4650	16.6410
 0.4660	16.6600
 0.4670	16.7070
 0.4680	16.7330
 0.4690	16.7500
 0.4700	16.7770
 0.4710	16.8200
 0.4720	16.8560
 0.4730	16.8770
 0.4740	16.8940
 0.4750	16.9290
 0.4760	16.9500
 0.4770	16.9540
 0.4780	16.9930
 0.4790	17.0270
 0.4800	17.0520
 0.4810	17.0720
 0.4820	17.0930
 0.4830	17.1160
 0.4840	17.1450
 0.4850	17.1840
 0.4860	17.2110
 0.4870	17.2300
 0.4880	17.2520
 0.4890	17.2720
 0.4900	17.3060
 0.4910	17.3460
 0.4920	17.3740
 0.4930	17.3940
 0.4940	17.4230
 0.4950	17.4600
 0.4960	17.4820
 0.4970	17.5210
 0.4980	17.5660
 0.4990	17.6000
 0.5000	17.6330
 0.5010	17.6710
 0.5020	17.7170
 0.5030	17.7700
 0.5040	17.8070
 0.5050	17.8440
 0.5060	17.8980
 0.5070	17.9510
 0.5080	18.0110
 0.5090	18.0750
 0.5100	18.1350
 0.5110	18.1990
 0.5120	18.2680
 0.5130	18.3430
 0.5140	18.4200
 0.5150	18.4930
 0.5160	18.5600
 0.5170	18.6250
 0.5180	18.7110
 0.5190	18.8040
 0.5200	18.8920
 0.5210	18.9690
 0.5220	19.0400
 0.5230	19.1190
 0.5240	19.2100
 0.5250	19.2840
 0.5260	19.3620
 0.5270	19.4430
 0.5280	19.5180
 0.5290	19.5900
 0.5300	19.6640
 0.5310	19.7400
 0.5320	19.8100
 0.5330	19.8850
 0.5340	19.9610
 0.5350	20.0320
 0.5360	20.1020
 0.5370	20.1650
 0.5380	20.2270
 0.5390	20.2980
 0.5400	20.3810
 0.5410	20.4630
 0.5420	20.5400
 0.5430	20.6230
 0.5440	20.6950
 0.5450	20.7530
 0.5460	20.7970
 0.5470	20.8290
 0.5480	20.8620
 0.5490	20.9050
 0.5500	20.9510
 0.5510	21.0010
 0.5520	21.0490
 0.5530	21.0920
 0.5540	21.1240
 0.5550	21.1640
 0.5560	21.2090
 0.5570	21.2430
 0.5580	21.2790
 0.5590	21.3180
 0.5600	21.3610
 0.5610	21.3980
 0.5620	21.4450
 0.5630	21.4950
 0.5640	21.5330
 0.5650	21.5530
 0.5660	21.5580
 0.5670	21.5650
 0.5680	21.6050
 0.5690	21.6330
 0.5700	21.6500
 0.5710	21.6670
 0.5720	21.6750
 0.5730	21.6900
 0.5740	21.7150
 0.5750	21.7480
 0.5760	21.7760
 0.5770	21.7880
 0.5780	21.7870
 0.5790	21.8040
 0.5800	21.8190
 0.5810	21.8330
 0.5820	21.8510
 0.5830	21.8620
 0.5840	21.8620
 0.5850	21.8590
 0.5860	21.8730
 0.5870	21.9170
 0.5880	21.9710
 0.5890	22.0170
 0.5900	22.0650
 0.5910	22.0880
 0.5920	22.0910
 0.5930	22.0950
 0.5940	22.0940
 0.5950	22.1070
 0.5960	22.1350
 0.5970	22.1530
 0.5980	22.1850
 0.5990	22.2140
 0.6000	22.2210
 0.6010	22.2320
 0.6020	22.2470
 0.6030	22.2630
 0.6040	22.2700
 0.6050	22.2890
 0.6060	22.3150
 0.6070	22.3400
 0.6080	22.3590
 0.6090	22.3840
 0.6100	22.4270
 0.6110	22.4850
 0.6120	22.4950
 0.6130	22.4840
 0.6140	22.4790
 0.6150	22.4860
 0.6160	22.4910
 0.6170	22.4970
 0.6180	22.5120
 0.6190	22.5340
 0.6200	22.5560
 0.6210	22.5740
 0.6220	22.5930
 0.6230	22.6180
 0.6240	22.6440
 0.6250	22.6680
 0.6260	22.6940
 0.6270	22.7240
 0.6280	22.7600
 0.6290	22.7980
 0.6300	22.8240
 0.6310	22.8520
 0.6320	22.8810
 0.6330	22.8900
 0.6340	22.9040
 0.6350	22.9160
 0.6360	22.9190
 0.6370	22.9130
 0.6380	22.8980
 0.6390	22.8770
 0.6400	22.8520
 0.6410	22.8100
 0.6420	22.7690
 0.6430	22.7340
 0.6440	22.6870
 0.6450	22.6440
 0.6460	22.6050
 0.6470	22.5680
 0.6480	22.5430
 0.6490	22.5240
 0.6500	22.5070
 0.6510	22.4900
 0.6520	22.4920
 0.6530	22.4980
 0.6540	22.4970
 0.6550	22.4980
 0.6560	22.4930
 0.6570	22.4860
 0.6580	22.4850
 0.6590	22.4780
 0.6600	22.4630
 0.6610	22.4370
 0.6620	22.3960
 0.6630	22.3710
 0.6640	22.3410
 0.6650	22.2940
 0.6660	22.2640
 0.6670	22.2400
 0.6680	22.2170
 0.6690	22.1940
 0.6700	22.1780
 0.6710	22.1690
 0.6720	22.1660
 0.6730	22.1690
 0.6740	22.1800
 0.6750	22.1980
 0.6760	22.2220
 0.6770	22.2460
 0.6780	22.2730
 0.6790	22.3120
 0.6800	22.3700
 0.6810	22.4300
 0.6820	22.5100
 0.6830	22.6200
 0.6840	22.7520
 0.6850	22.9030
 0.6860	23.0810
 0.6870	23.2910
 0.6880	23.5310
 0.6890	23.7940
 0.6900	24.0800
 0.6910	24.3950
 0.6920	24.7180
 0.6930	25.0430
 0.6940	25.3740
 0.6950	25.7270
 0.6960	26.0800
 0.6970	26.4270
 0.6980	26.7670
 0.6990	27.1010
 0.7000	27.4250
 0.7010	27.7400
 0.7020	28.0500
 0.7030	28.3510
 0.7040	28.6390
 0.7050	28.9100
 0.7060	29.1620
 0.7070	29.4150
 0.7080	29.6610
 0.7090	29.8830
 0.7100	30.0800
 0.7110	30.2770
 0.7120	30.4730
 0.7130	30.6360
 0.7140	30.8060
 0.7150	30.9710
 0.7160	31.1190
 0.7170	31.2590
 0.7180	31.4070
 0.7190	31.5510
 0.7200	31.6720
 0.7210	31.7890
 0.7220	31.9120
 0.7230	32.0340
 0.7240	32.1330
 0.7250	32.2320
 0.7260	32.3360
 0.7270	32.4390
 0.7280	32.5210
 0.7290	32.6100
 0.7300	32.7060
 0.7310	32.7950
 0.7320	32.8800
 0.7330	32.9540
 0.7340	33.0250
 0.7350	33.1110
 0.7360	33.1760
 0.7370	33.2440
 0.7380	33.3300
 0.7390	33.4070
 0.7400	33.4750
 0.7410	33.5370
 0.7420	33.6010
 0.7430	33.6700
 0.7440	33.7340
 0.7450	33.7920
 0.7460	33.8490
 0.7470	33.9170
 0.7480	33.9840
 0.7490	34.0410
 0.7500	34.0920
 0.7510	34.1510
 0.7520	34.2100
 0.7530	34.2580
 0.7540	34.3150
 0.7550	34.3750
 0.7560	34.4340
 0.7570	34.4870
 0.7580	34.5330
 0.7590	34.5880
 0.7600	34.6530
 0.7610	34.6890
 0.7620	34.7370
 0.7630	34.7950
 0.7640	34.8530
 0.7650	34.8940
 0.7660	34.9400
 0.7670	34.9930
 0.7680	35.0390
 0.7690	35.0970
 0.7700	35.1430
 0.7710	35.1750
 0.7720	35.2230
 0.7730	35.2780
 0.7740	35.3300
 0.7750	35.3760
 0.7760	35.4270
 0.7770	35.4700
 0.7780	35.5150
 0.7790	35.5720
 0.7800	35.6210
 0.7810	35.6630
 0.7820	35.7060
 0.7830	35.7600
 0.7840	35.8110
 0.7850	35.8560
 0.7860	35.9000
 0.7870	35.9510
 0.7880	35.9960
 0.7890	36.0330
 0.7900	36.0720
 0.7910	36.1390
 0.7920	36.1940
 0.7930	36.2300
 0.7940	36.2690
 0.7950	36.3150
 0.7960	36.3700
 0.7970	36.4330
 0.7980	36.4910
 0.7990	36.5290
 0.8000	36.5640
 0.8010	36.6130
 0.8020	36.6750
 0.8030	36.7320
 0.8040	36.7790
 0.8050	36.8220
 0.8060	36.8660
 0.8070	36.9230
 0.8080	36.9780
 0.8090	37.0020
 0.8100	37.0680
 0.8110	37.1320
 0.8120	37.1680
 0.8130	37.2040
 0.8140	37.2590
 0.8150	37.3220
 0.8160	37.3770
 0.8170	37.4180
 0.8180	37.4720
 0.8190	37.5290
 0.8200	37.5700
 0.8210	37.6190
 0.8220	37.6680
 0.8230	37.7140
 0.8240	37.7630
 0.8250	37.8170
 0.8260	37.8660
 0.8270	37.9060
 0.8280	37.9530
 0.8290	38.0060
 0.8300	38.0670
 0.8310	38.1280
 0.8320	38.1630
 0.8330	38.1880
 0.8340	38.2250
 0.8350	38.2890
 0.8360	38.3530
 0.8370	38.4000
 0.8380	38.4350
 0.8390	38.4790
 0.8400	38.5360
 0.8410	38.5820
 0.8420	38.6200
 0.8430	38.6840
 0.8440	38.7260
 0.8450	38.7720
 0.8460	38.8390
 0.8470	38.8750
 0.8480	38.9200
 0.8490	38.9730
 0.8500	39.0190
 0.8510	39.0540
 0.8520	39.1050
 0.8530	39.1590
 0.8540	39.1880
 0.8550	39.2400
 0.8560	39.2830
 0.8570	39.3220
 0.8580	39.3950
 0.8590	39.4410
 0.8600	39.4710
 0.8610	39.5060
 0.8620	39.5540
 0.8630	39.6060
 0.8640	39.6560
 0.8650	39.7000
 0.8660	39.7420
 0.8670	39.7780
 0.8680	39.8180
 0.8690	39.8690
 0.8700	39.9000
 0.8710	39.9340
 0.8720	39.9830
 0.8730	40.0480
 0.8740	40.0880
 0.8750	40.1290
 0.8760	40.1790
 0.8770	40.2200
 0.8780	40.2580
 0.8790	40.3110
 0.8800	40.3720
 0.8810	40.4030
 0.8820	40.4330
 0.8830	40.4730
 0.8840	40.5220
 0.8850	40.5520
 0.8860	40.6030
 0.8870	40.6480
 0.8880	40.6680
 0.8890	40.7180
 0.8900	40.7640
 0.8910	40.7960
 0.8920	40.8250
 0.8930	40.8850
 0.8940	40.9380
 0.8950	40.9760
 0.8960	41.0110
 0.8970	41.0510
 0.8980	41.0830
 0.8990	41.1080
 0.9000	41.1440
 0.9010	41.1880
 0.9020	41.2340
 0.9030	41.2750
 0.9040	41.3070
 0.9050	41.3530
 0.9060	41.3950
 0.9070	41.4210
 0.9080	41.4530
 0.9090	41.4870
 0.9100	41.5280
 0.9110	41.5760
 0.9120	41.6080
 0.9130	41.6430
 0.9140	41.6790
 0.9150	41.7180
 0.9160	41.7720
 0.9170	41.8260
 0.9180	41.8640
 0.9190	41.8780
 0.9200	41.9080
 0.9210	41.9560
 0.9220	42.0200
 0.9230	42.0940
 0.9240	42.1270
 0.9250	42.1390
 0.9260	42.1540
 0.9270	42.1920
 0.9280	42.2490
 0.9290	42.2830
 0.9300	42.2940
 0.9310	42.3230
 0.9320	42.3870
 0.9330	42.4370
 0.9340	42.4580
 0.9350	42.4840
 0.9360	42.5040
 0.9370	42.5230
 0.9380	42.5550
 0.9390	42.6180
 0.9400	42.6620
 0.9410	42.6900
 0.9420	42.7080
 0.9430	42.7160
 0.9440	42.7360
 0.9450	42.7750
 0.9460	42.8240
 0.9470	42.8530
 0.9480	42.8620
 0.9490	42.8570
 0.9500	42.8560
 0.9510	42.8890
 0.9520	42.9120
 0.9530	42.9260
 0.9540	42.9450
 0.9550	42.9680
 0.9560	42.9690
 0.9570	42.9630
 0.9580	42.9750
 0.9590	43.0020
 0.9600	43.0060
 0.9610	43.0130
 0.9620	43.0530
 0.9630	43.0810
 0.9640	43.0900
 0.9650	43.1070
 0.9660	43.1490
 0.9670	43.1630
 0.9680	43.1910
 0.9690	43.2180
 0.9700	43.2200
 0.9710	43.2720
 0.9720	43.3050
 0.9730	43.3190
 0.9740	43.3440
 0.9750	43.3570
 0.9760	43.3710
 0.9770	43.4070
 0.9780	43.4700
 0.9790	43.5110
 0.9800	43.5340
 0.9810	43.5600
 0.9820	43.6070
 0.9830	43.6270
 0.9840	43.6280
 0.9850	43.6640
 0.9860	43.7640
 0.9870	43.7660
 0.9880	43.7910
 0.9890	43.8420
 0.9900	43.8730
 0.9910	43.9130
 0.9920	43.9470
 0.9930	43.9840
 0.9940	44.0360
 0.9950	44.0870
 0.9960	44.1130
 0.9970	44.1290
 0.9980	44.1640
 0.9990	44.2120
 1.0000	44.2430
 1.0010	44.2090
 1.0020	44.2400
 1.0030	44.2870
 1.0040	44.3330
 1.0050	44.3740
 1.0060	44.4110
 1.0070	44.4500
 1.0080	44.4920
 1.0090	44.5360
 1.0100	44.5810
 1.0110	44.6330
 1.0120	44.6770
 1.0130	44.7170
 1.0140	44.7610
 1.0150	44.8050
 1.0160	44.8450
 1.0170	44.8950
 1.0180	44.9330
 1.0190	44.9640
 1.0200	45.0010
 1.0210	45.0330
 1.0220	45.0720
 1.0230	45.1110
 1.0240	45.1530
 1.0250	45.1940
 1.0260	45.2350
 1.0270	45.2740
 1.0280	45.3120
 1.0290	45.3510
 1.0300	45.3840
 1.0310	45.4240
 1.0320	45.4690
 1.0330	45.5120
 1.0340	45.5540
 1.0350	45.5880
 1.0360	45.6210
 1.0370	45.6530
 1.0380	45.6870
 1.0390	45.7270
 1.0400	45.7590
 1.0410	45.7850
 1.0420	45.8180
 1.0430	45.8510
 1.0440	45.8840
 1.0450	45.9240
 1.0460	45.9580
 1.0470	45.9870
 1.0480	46.0190
 1.0490	46.0520
 1.0500	46.0840
 1.0510	46.1170
 1.0520	46.1500
 1.0530	46.1810
 1.0540	46.2080
 1.0550	46.2410
 1.0560	46.2750
 1.0570	46.3060
 1.0580	46.3390
 1.0590	46.3700
 1.0600	46.3980
 1.0610	46.4260
 1.0620	46.4560
 1.0630	46.4830
 1.0640	46.5080
 1.0650	46.5350
 1.0660	46.5670
 1.0670	46.5920
 1.0680	46.6130
 1.0690	46.6280
 1.0700	46.6520
 1.0710	46.6740
 1.0720	46.6980
 1.0730	46.7300
 1.0740	46.7580
 1.0750	46.7840
 1.0760	46.8070
 1.0770	46.8320
 1.0780	46.8530
 1.0790	46.8670
 1.0800	46.8870
 1.0810	46.9120
 1.0820	46.9360
 1.0830	46.9650
 1.0840	46.9880
 1.0850	47.0070
 1.0860	47.0230
 1.0870	47.0390
 1.0880	47.0500
 1.0890	47.0670
 1.0900	47.0880
 1.0910	47.1050
 1.0920	47.1230
 1.0930	47.1370
 1.0940	47.1480
 1.0950	47.1610
 1.0960	47.1750
 1.0970	47.1890
 1.0980	47.2010
 1.0990	47.2160
 1.1000	47.2360
 1.1010	47.2510
 1.1020	47.2650
 1.1030	47.2840
 1.1040	47.2980
 1.1050	47.3050
 1.1060	47.3160
 1.1070	47.3260
 1.1080	47.3370
 1.1090	47.3500
 1.1100	47.3590
 1.1110	47.3640
 1.1120	47.3730
 1.1130	47.3800
 1.1140	47.3890
 1.1150	47.4050
 1.1160	47.4140
 1.1170	47.4220
 1.1180	47.4240
 1.1190	47.4200
 1.1200	47.4180
 1.1210	47.4150
 1.1220	47.4090
 1.1230	47.4070
 1.1240	47.4010
 1.1250	47.3910
 1.1260	47.3790
 1.1270	47.3630
 1.1280	47.3430
 1.1290	47.3190
 1.1300	47.2940
 1.1310	47.2600
 1.1320	47.2220
 1.1330	47.1780
 1.1340	47.1230
 1.1350	47.0690
 1.1360	47.0120
 1.1370	46.9520
 1.1380	46.8930
 1.1390	46.8310
 1.1400	46.7650
 1.1410	46.6950
 1.1420	46.6230
 1.1430	46.5500
 1.1440	46.4770
 1.1450	46.4050
 1.1460	46.3320
 1.1470	46.2580
 1.1480	46.1860
 1.1490	46.1130
 1.1500	46.0470
 1.1510	45.9870
 1.1520	45.9260
 1.1530	45.8660
 1.1540	45.8100
 1.1550	45.7550
 1.1560	45.7020
 1.1570	45.6570
 1.1580	45.6140
 1.1590	45.5700
 1.1600	45.5330
 1.1610	45.4990
 1.1620	45.4640
 1.1630	45.4350
 1.1640	45.4070
 1.1650	45.3780
 1.1660	45.3510
 1.1670	45.3240
 1.1680	45.2960
 1.1690	45.2700
 1.1700	45.2480
 1.1710	45.2230
 1.1720	45.1990
 1.1730	45.1730
 1.1740	45.1460
 1.1750	45.1190
 1.1760	45.0890
 1.1770	45.0600
 1.1780	45.0280
 1.1790	44.9940
 1.1800	44.9630
 1.1810	44.9340
 1.1820	44.9050
 1.1830	44.8790
 1.1840	44.8550
 1.1850	44.8340
 1.1860	44.8180
 1.1870	44.8050
 1.1880	44.7960
 1.1890	44.7930
 1.1900	44.7930
 1.1910	44.7960
 1.1920	44.8030
 1.1930	44.8140
 1.1940	44.8270
 1.1950	44.8450
 1.1960	44.8640
 1.1970	44.8830
 1.1980	44.9020
 1.1990	44.9240
 1.2000	44.9460
 1.2010	44.9710
 1.2020	45.0000
 1.2030	45.0290
 1.2040	45.0620
 1.2050	45.0970
 1.2060	45.1340
 1.2070	45.1760
 1.2080	45.2180
 1.2090	45.2650
 1.2100	45.3160
 1.2110	45.3640
 1.2120	45.4120
 1.2130	45.4670
 1.2140	45.5190
 1.2150	45.5770
 1.2160	45.6430
 1.2170	45.7110
 1.2180	45.7750
 1.2190	45.8440
 1.2200	45.9130
 1.2210	45.9800
 1.2220	46.0460
 1.2230	46.1100
 1.2240	46.1750
 1.2250	46.2390
 1.2260	46.3010
 1.2270	46.3660
 1.2280	46.4260
 1.2290	46.4830
 1.2300	46.5410
 1.2310	46.5990
 1.2320	46.6580
 1.2330	46.7160
 1.2340	46.7680
 1.2350	46.8170
 1.2360	46.8620
 1.2370	46.9030
 1.2380	46.9440
 1.2390	46.9860
 1.2400	47.0310
 1.2410	47.0740
 1.2420	47.1140
 1.2430	47.1530
 1.2440	47.1900
 1.2450	47.2270
 1.2460	47.2650
 1.2470	47.2980
 1.2480	47.3300
 1.2490	47.3620
 1.2500	47.3940
 1.2510	47.4280
 1.2520	47.4620
 1.2530	47.4930
 1.2540	47.5230
 1.2550	47.5500
 1.2560	47.5760
 1.2570	47.6050
 1.2580	47.6310
 1.2590	47.6570
 1.2600	47.6840
 1.2610	47.7070
 1.2620	47.7260
 1.2630	47.7460
 1.2640	47.7660
 1.2650	47.7840
 1.2660	47.8000
 1.2670	47.8160
 1.2680	47.8330
 1.2690	47.8480
 1.2700	47.8690
 1.2710	47.8860
 1.2720	47.8990
 1.2730	47.9140
 1.2740	47.9260
 1.2750	47.9370
 1.2760	47.9480
 1.2770	47.9590
 1.2780	47.9670
 1.2790	47.9780
 1.2800	47.9910
 1.2810	48.0000
 1.2820	48.0110
 1.2830	48.0210
 1.2840	48.0270
 1.2850	48.0360
 1.2860	48.0420
 1.2870	48.0470
 1.2880	48.0490
 1.2890	48.0510
 1.2900	48.0490
 1.2910	48.0500
 1.2920	48.0480
 1.2930	48.0470
 1.2940	48.0440
 1.2950	48.0360
 1.2960	48.0300
 1.2970	48.0220
 1.2980	48.0110
 1.2990	47.9990
 1.3000	47.9830
 1.3010	47.9650
 1.3020	47.9470
 1.3030	47.9250
 1.3040	47.9020
 1.3050	47.8780
 1.3060	47.8520
 1.3070	47.8240
 1.3080	47.7930
 1.3090	47.7560
 1.3100	47.7180
 1.3110	47.6820
 1.3120	47.6460
 1.3130	47.6160
 1.3140	47.5790
 1.3150	47.5370
 1.3160	47.4940
 1.3170	47.4490
 1.3180	47.3970
 1.3190	47.3440
 1.3200	47.2910
 1.3210	47.2350
 1.3220	47.1750
 1.3230	47.1110
 1.3240	47.0440
 1.3250	46.9740
 1.3260	46.9040
 1.3270	46.8390
 1.3280	46.7710
 1.3290	46.7000
 1.3300	46.6300
 1.3310	46.5540
 1.3320	46.4770
 1.3330	46.4000
 1.3340	46.3200
 1.3350	46.2390
 1.3360	46.1560
 1.3370	46.0690
 1.3380	45.9830
 1.3390	45.8950
 1.3400	45.8060
 1.3410	45.7200
 1.3420	45.6320
 1.3430	45.5400
 1.3440	45.4500
 1.3450	45.3590
 1.3460	45.2640
 1.3470	45.1730
 1.3480	45.0830
 1.3490	44.9930
 1.3500	44.9040
 1.3510	44.8140
 1.3520	44.7210
 1.3530	44.6300
 1.3540	44.5350
 1.3550	44.4390
 1.3560	44.3450
 1.3570	44.2490
 1.3580	44.1550
 1.3590	44.0620
 1.3600	43.9670
 1.3610	43.8690
 1.3620	43.7720
 1.3630	43.6760
 1.3640	43.5760
 1.3650	43.4740
 1.3660	43.3710
 1.3670	43.2590
 1.3680	43.1400
 1.3690	43.0210
 1.3700	42.8930
 1.3710	42.7600
 1.3720	42.6220
 1.3730	42.4730
 1.3740	42.3170
 1.3750	42.1520
 1.3760	41.9780
 1.3770	41.7940
 1.3780	41.5980
 1.3790	41.3910
 1.3800	41.1710
 1.3810	40.9390
 1.3820	40.6980
 1.3830	40.4480
 1.3840	40.1850
 1.3850	39.9140
 1.3860	39.6320
 1.3870	39.3360
 1.3880	39.0390
 1.3890	38.7330
 1.3900	38.4210
 1.3910	38.1100
 1.3920	37.7970
 1.3930	37.4800
 1.3940	37.1630
 1.3950	36.8410
 1.3960	36.5210
 1.3970	36.2040
 1.3980	35.8880
 1.3990	35.5780
 1.4000	35.2710
 1.4010	34.9660
 1.4020	34.6710
 1.4030	34.3820
 1.4040	34.1020
 1.4050	33.8300
 1.4060	33.5630
 1.4070	33.3080
 1.4080	33.0640
 1.4090	32.8300
 1.4100	32.6110
 1.4110	32.4040
 1.4120	32.2090
 1.4130	32.0240
 1.4140	31.8500
 1.4150	31.6890
 1.4160	31.5400
 1.4170	31.4010
 1.4180	31.2720
 1.4190	31.1490
 1.4200	31.0360
 1.4210	30.9320
 1.4220	30.8360
 1.4230	30.7480
 1.4240	30.6670
 1.4250	30.5910
 1.4260	30.5220
 1.4270	30.4570
 1.4280	30.3980
 1.4290	30.3430
 1.4300	30.2930
 1.4310	30.2500
 1.4320	30.2110
 1.4330	30.1780
 1.4340	30.1500
 1.4350	30.1260
 1.4360	30.1070
 1.4370	30.0910
 1.4380	30.0760
 1.4390	30.0660
 1.4400	30.0600
 1.4410	30.0530
 1.4420	30.0500
 1.4430	30.0510
 1.4440	30.0500
 1.4450	30.0510
 1.4460	30.0540
 1.4470	30.0590
 1.4480	30.0680
 1.4490	30.0790
 1.4500	30.0930
 1.4510	30.1060
 1.4520	30.1180
 1.4530	30.1320
 1.4540	30.1480
 1.4550	30.1650
 1.4560	30.1830
 1.4570	30.2020
 1.4580	30.2200
 1.4590	30.2430
 1.4600	30.2670
 1.4610	30.2940
 1.4620	30.3250
 1.4630	30.3570
 1.4640	30.3890
 1.4650	30.4240
 1.4660	30.4630
 1.4670	30.5030
 1.4680	30.5480
 1.4690	30.5970
 1.4700	30.6470
