Name: Tsuga canadensis
Type: Vegetation
Class: Tree
Genus: Tsuga
Species: canadensis
Sample No.: TSCA-1-47
Owner: UCSB
Wavelength Range: TIR
Origin: USA; Massachusetts; Harvard Forest
Collection Date: 7/8/2013
Description: Samples were collected as part of NSF Macrosystem Biology proposal titled: Collaborative Research: Thermal controls on ecosystem metabolism and function: scaling from leaves to canopies to regions. Samples were collected and overnighted to JPL facilities for processing. The same leaves were processed in the Nicolet and then measured using the ASD.
Measurement: Hemispherical reflectance
First Column: X
Second Column: Y
X Units: Wavelength (micrometers)
Y Units: Reflectance (percentage)
First X Value: 2.501
Last X Value: 15.387
Number of X Values: 1737
Additional Information: vegetation.tree.tsuga.canadensis.tir.tsca-1-47.ucsb.nicolet.ancillary.txt

 2.5010	 4.7470
 2.5030	 4.6390
 2.5040	 4.6380
 2.5050	 4.7150
 2.5060	 4.7880
 2.5070	 4.9160
 2.5090	 4.8540
 2.5100	 4.5930
 2.5110	 4.4070
 2.5120	 4.5560
 2.5140	 4.7170
 2.5150	 4.8050
 2.5160	 4.7570
 2.5170	 4.8370
 2.5180	 5.0180
 2.5200	 4.8570
 2.5210	 4.7900
 2.5220	 4.6610
 2.5230	 4.5950
 2.5250	 4.6730
 2.5260	 4.8330
 2.5270	 4.7630
 2.5280	 4.6840
 2.5290	 4.5830
 2.5310	 4.7890
 2.5320	 4.8640
 2.5330	 4.8680
 2.5340	 4.9360
 2.5360	 4.8950
 2.5370	 4.8940
 2.5380	 4.9610
 2.5390	 4.8630
 2.5410	 5.0430
 2.5420	 4.9950
 2.5430	 4.9300
 2.5440	 4.6760
 2.5460	 4.5730
 2.5470	 4.5230
 2.5480	 4.5710
 2.5490	 4.7420
 2.5510	 4.8510
 2.5520	 4.6640
 2.5530	 4.6900
 2.5540	 4.8970
 2.5560	 4.9790
 2.5570	 4.8240
 2.5580	 4.6250
 2.5590	 4.5150
 2.5610	 4.8650
 2.5620	 4.9900
 2.5630	 4.8320
 2.5640	 4.8610
 2.5660	 5.0950
 2.5670	 5.0060
 2.5680	 4.9820
 2.5700	 4.9770
 2.5710	 4.8820
 2.5720	 4.8940
 2.5730	 5.0550
 2.5750	 5.1230
 2.5760	 5.1040
 2.5770	 4.8410
 2.5790	 4.7670
 2.5800	 4.8840
 2.5810	 4.9090
 2.5820	 4.7530
 2.5840	 4.6730
 2.5850	 4.5980
 2.5860	 4.5130
 2.5880	 4.3250
 2.5890	 4.4860
 2.5900	 4.5850
 2.5910	 4.7470
 2.5930	 4.5660
 2.5940	 4.3080
 2.5950	 4.4210
 2.5970	 4.8280
 2.5980	 4.9030
 2.5990	 4.7680
 2.6000	 4.8260
 2.6020	 4.9510
 2.6030	 4.8700
 2.6040	 4.8230
 2.6060	 4.8150
 2.6070	 4.6710
 2.6080	 4.6080
 2.6100	 4.6040
 2.6110	 4.5840
 2.6120	 4.7110
 2.6140	 4.6580
 2.6150	 4.5000
 2.6160	 4.3090
 2.6180	 4.1470
 2.6190	 4.3440
 2.6200	 4.4840
 2.6220	 4.3650
 2.6230	 4.5310
 2.6240	 4.6220
 2.6260	 4.6470
 2.6270	 4.6260
 2.6280	 4.5160
 2.6300	 4.3840
 2.6310	 4.4980
 2.6320	 4.5100
 2.6340	 4.5300
 2.6350	 4.5730
 2.6360	 4.3440
 2.6380	 4.1270
 2.6390	 4.1420
 2.6400	 4.1110
 2.6420	 4.1050
 2.6430	 4.1570
 2.6440	 4.2540
 2.6460	 4.1560
 2.6470	 4.0850
 2.6480	 4.0240
 2.6500	 4.2910
 2.6510	 4.3270
 2.6520	 4.1740
 2.6540	 4.0060
 2.6550	 4.2220
 2.6560	 4.4110
 2.6580	 4.2400
 2.6590	 4.0610
 2.6610	 4.0220
 2.6620	 3.7790
 2.6630	 3.9630
 2.6650	 4.1150
 2.6660	 3.7460
 2.6670	 3.6580
 2.6690	 3.9100
 2.6700	 3.8860
 2.6720	 4.0380
 2.6730	 3.9070
 2.6740	 3.6850
 2.6760	 3.7860
 2.6770	 4.0040
 2.6780	 3.8630
 2.6800	 3.7580
 2.6810	 3.6700
 2.6830	 3.7070
 2.6840	 3.5870
 2.6850	 3.5270
 2.6870	 3.5800
 2.6880	 3.4990
 2.6900	 3.5350
 2.6910	 3.5070
 2.6920	 3.3560
 2.6940	 3.4240
 2.6950	 3.4150
 2.6970	 3.4520
 2.6980	 3.2840
 2.6990	 3.1120
 2.7010	 3.1490
 2.7020	 3.3370
 2.7040	 3.3330
 2.7050	 3.2980
 2.7060	 3.1610
 2.7080	 3.2710
 2.7090	 3.2910
 2.7110	 3.0900
 2.7120	 2.9060
 2.7130	 2.9620
 2.7150	 3.1600
 2.7160	 3.2580
 2.7180	 2.9870
 2.7190	 2.9230
 2.7210	 3.1150
 2.7220	 3.1990
 2.7230	 2.9300
 2.7250	 2.6280
 2.7260	 2.8510
 2.7280	 3.1830
 2.7290	 3.1270
 2.7310	 3.2220
 2.7320	 3.2340
 2.7330	 3.2590
 2.7350	 2.9090
 2.7360	 2.9660
 2.7380	 3.0770
 2.7390	 3.1290
 2.7410	 3.0090
 2.7420	 2.8700
 2.7440	 2.8280
 2.7450	 2.6240
 2.7470	 2.3540
 2.7480	 2.9630
 2.7490	 3.2790
 2.7510	 3.5030
 2.7520	 3.4350
 2.7540	 3.4260
 2.7550	 3.2720
 2.7570	 3.2200
 2.7580	 2.9650
 2.7600	 2.6290
 2.7610	 2.4200
 2.7630	 2.6890
 2.7640	 3.0090
 2.7660	 3.0350
 2.7670	 3.2190
 2.7680	 3.1220
 2.7700	 2.9610
 2.7710	 2.9680
 2.7730	 2.8920
 2.7740	 2.9020
 2.7760	 2.8250
 2.7770	 2.6490
 2.7790	 2.6110
 2.7800	 2.7880
 2.7820	 2.9140
 2.7830	 2.9320
 2.7850	 2.7900
 2.7860	 2.5300
 2.7880	 2.3200
 2.7890	 2.3490
 2.7910	 2.3790
 2.7920	 2.3510
 2.7940	 2.4870
 2.7950	 3.0120
 2.7970	 2.7670
 2.7980	 2.6240
 2.8000	 2.7520
 2.8010	 2.4420
 2.8030	 2.2810
 2.8040	 2.4400
 2.8060	 2.6140
 2.8070	 2.7370
 2.8090	 2.5890
 2.8110	 2.5250
 2.8120	 2.6270
 2.8140	 2.8270
 2.8150	 2.6700
 2.8170	 2.5990
 2.8180	 2.6370
 2.8200	 2.7840
 2.8210	 2.4870
 2.8230	 2.3380
 2.8240	 2.5650
 2.8260	 2.8510
 2.8270	 2.9800
 2.8290	 2.6860
 2.8300	 2.3540
 2.8320	 2.5640
 2.8340	 2.8510
 2.8350	 2.9600
 2.8370	 2.7310
 2.8380	 2.7220
 2.8400	 2.8870
 2.8410	 2.8650
 2.8430	 2.7270
 2.8440	 2.7240
 2.8460	 2.6080
 2.8480	 2.4870
 2.8490	 2.4720
 2.8510	 2.6390
 2.8520	 2.7790
 2.8540	 2.7860
 2.8550	 2.6830
 2.8570	 2.6430
 2.8590	 2.5950
 2.8600	 2.6200
 2.8620	 2.4440
 2.8630	 2.4460
 2.8650	 2.4010
 2.8660	 2.3630
 2.8680	 2.6860
 2.8700	 2.6940
 2.8710	 2.5060
 2.8730	 2.6130
 2.8740	 2.8510
 2.8760	 2.7270
 2.8780	 2.3830
 2.8790	 2.4540
 2.8810	 2.5140
 2.8820	 2.8580
 2.8840	 2.7220
 2.8860	 2.5550
 2.8870	 2.6150
 2.8890	 2.5650
 2.8900	 2.4970
 2.8920	 2.4450
 2.8940	 2.3490
 2.8950	 2.5770
 2.8970	 2.6780
 2.8980	 2.6400
 2.9000	 2.6430
 2.9020	 2.7340
 2.9030	 2.5030
 2.9050	 2.5390
 2.9070	 2.6450
 2.9080	 2.5850
 2.9100	 2.3860
 2.9120	 2.5840
 2.9130	 2.7090
 2.9150	 2.7390
 2.9160	 2.4770
 2.9180	 2.5390
 2.9200	 2.8480
 2.9210	 2.9430
 2.9230	 2.5850
 2.9250	 2.6190
 2.9260	 2.9140
 2.9280	 2.8020
 2.9300	 2.4830
 2.9310	 2.6260
 2.9330	 2.8750
 2.9350	 3.1430
 2.9360	 3.0110
 2.9380	 2.7850
 2.9400	 2.8820
 2.9410	 2.9560
 2.9430	 2.6830
 2.9450	 2.4390
 2.9460	 2.5780
 2.9480	 3.1470
 2.9500	 3.1670
 2.9510	 2.6820
 2.9530	 1.9760
 2.9550	 2.2600
 2.9560	 3.1340
 2.9580	 3.6390
 2.9600	 3.7730
 2.9610	 3.1320
 2.9630	 2.6080
 2.9650	 4.1850
 2.9660	 4.3780
 2.9680	 3.1770
 2.9700	 4.6760
 2.9720	 6.2020
 2.9730	 6.0140
 2.9750	 3.3680
 2.9770	 1.5060
 2.9780	 1.6030
 2.9800	 1.8880
 2.9820	 1.5330
 2.9840	 1.3250
 2.9850	 3.2080
 2.9870	 4.0420
 2.9890	 2.8400
 2.9900	 1.4970
 2.9920	 2.5190
 2.9940	 3.7750
 2.9960	 2.6180
 2.9970	 0.6610
 2.9990	 0.8390
 3.0010	 0.7680
 3.0030	 1.4120
 3.0040	 1.7510
 3.0060	 2.2240
 3.0080	 3.1270
 3.0100	 3.7700
 3.0110	 4.4060
 3.0130	 4.4300
 3.0150	 2.7890
 3.0170	 3.2330
 3.0180	 3.3000
 3.0200	 2.3660
 3.0220	 1.8160
 3.0240	 1.5330
 3.0250	 1.9450
 3.0270	 2.4690
 3.0290	 2.9230
 3.0310	 2.6400
 3.0320	 1.8030
 3.0340	 1.7670
 3.0360	 1.0990
 3.0380	 1.4850
 3.0400	 2.4910
 3.0410	 2.2370
 3.0430	 1.3500
 3.0450	 2.9180
 3.0470	 4.2080
 3.0480	 2.3350
 3.0500	 0.4150
 3.0520	 -0.139
 3.0540	 2.0600
 3.0560	 2.4290
 3.0570	 1.1160
 3.0590	 1.7180
 3.0610	 1.2360
 3.0630	 1.2150
 3.0650	 2.2010
 3.0660	 2.5380
 3.0680	 2.2940
 3.0700	 2.8800
 3.0720	 3.3450
 3.0740	 3.1980
 3.0760	 3.4010
 3.0770	 3.1090
 3.0790	 2.7900
 3.0810	 2.7110
 3.0830	 2.7540
 3.0850	 2.6830
 3.0870	 2.7050
 3.0880	 2.6470
 3.0900	 2.5020
 3.0920	 2.3540
 3.0940	 2.6450
 3.0960	 2.9980
 3.0980	 3.2800
 3.0990	 2.8820
 3.1010	 2.4630
 3.1030	 2.7840
 3.1050	 2.9160
 3.1070	 2.3570
 3.1090	 2.1020
 3.1110	 2.6290
 3.1120	 3.5350
 3.1140	 2.7540
 3.1160	 2.0580
 3.1180	 2.5040
 3.1200	 2.1880
 3.1220	 2.2250
 3.1240	 2.5600
 3.1260	 2.4470
 3.1270	 2.4640
 3.1290	 2.7790
 3.1310	 2.7810
 3.1330	 2.5270
 3.1350	 2.1010
 3.1370	 2.6200
 3.1390	 2.3670
 3.1410	 2.4580
 3.1430	 3.3630
 3.1450	 2.1870
 3.1460	 1.9030
 3.1480	 3.6570
 3.1500	 3.3050
 3.1520	 1.7020
 3.1540	 0.6980
 3.1560	 1.6390
 3.1580	 4.0550
 3.1600	 4.2500
 3.1620	 3.3950
 3.1640	 3.2230
 3.1660	 4.4150
 3.1680	 4.8030
 3.1700	 4.1440
 3.1710	 1.8770
 3.1730	 0.2950
 3.1750	 0.8200
 3.1770	 0.2820
 3.1790	 0.5350
 3.1810	 2.1610
 3.1830	 2.8810
 3.1850	 2.6520
 3.1870	 2.6190
 3.1890	 2.9240
 3.1910	 3.3300
 3.1930	 3.1650
 3.1950	 2.9200
 3.1970	 2.5780
 3.1990	 2.3900
 3.2010	 2.5330
 3.2030	 2.7700
 3.2050	 2.5980
 3.2070	 2.5800
 3.2090	 2.4570
 3.2110	 2.6700
 3.2130	 2.7860
 3.2150	 2.7160
 3.2170	 2.5080
 3.2190	 2.8440
 3.2210	 2.9100
 3.2230	 2.4980
 3.2250	 2.3140
 3.2270	 2.6130
 3.2290	 2.7100
 3.2310	 2.6590
 3.2330	 2.6500
 3.2350	 2.8620
 3.2370	 2.7580
 3.2390	 2.5110
 3.2410	 2.5850
 3.2430	 2.8700
 3.2450	 2.6760
 3.2470	 2.4680
 3.2490	 2.5830
 3.2510	 2.8500
 3.2530	 2.8220
 3.2550	 2.7840
 3.2570	 2.6280
 3.2590	 2.5560
 3.2610	 2.6750
 3.2630	 2.8960
 3.2650	 2.7670
 3.2670	 2.4920
 3.2690	 2.6550
 3.2720	 2.7140
 3.2740	 2.4330
 3.2760	 2.3880
 3.2780	 2.4800
 3.2800	 2.4720
 3.2820	 2.3990
 3.2840	 2.5060
 3.2860	 2.6930
 3.2880	 2.7710
 3.2900	 2.5990
 3.2920	 2.5660
 3.2940	 2.6600
 3.2960	 2.4240
 3.2990	 2.2950
 3.3010	 2.4900
 3.3030	 2.4860
 3.3050	 2.6090
 3.3070	 2.7590
 3.3090	 2.8760
 3.3110	 2.6300
 3.3130	 2.6130
 3.3150	 2.6910
 3.3180	 2.5230
 3.3200	 2.4590
 3.3220	 2.5680
 3.3240	 2.4850
 3.3260	 2.4370
 3.3280	 2.2840
 3.3300	 2.4320
 3.3330	 2.7610
 3.3350	 3.0300
 3.3370	 2.7830
 3.3390	 2.7350
 3.3410	 2.5760
 3.3430	 2.4980
 3.3450	 2.4260
 3.3480	 2.5430
 3.3500	 2.5840
 3.3520	 2.5290
 3.3540	 2.5180
 3.3560	 2.7130
 3.3580	 2.4450
 3.3610	 2.1160
 3.3630	 2.1550
 3.3650	 2.2700
 3.3670	 2.1640
 3.3690	 2.2920
 3.3720	 2.4090
 3.3740	 2.2160
 3.3760	 2.1190
 3.3780	 2.3760
 3.3800	 2.4190
 3.3830	 2.3670
 3.3850	 2.3540
 3.3870	 2.2740
 3.3890	 2.1570
 3.3910	 2.1370
 3.3940	 2.0460
 3.3960	 2.0960
 3.3980	 1.9640
 3.4000	 2.0050
 3.4020	 2.2590
 3.4050	 2.1390
 3.4070	 1.9950
 3.4090	 2.1770
 3.4110	 2.2670
 3.4140	 2.4030
 3.4160	 2.6400
 3.4180	 2.7880
 3.4200	 2.9740
 3.4230	 3.3380
 3.4250	 3.7520
 3.4270	 4.5220
 3.4290	 5.1870
 3.4320	 5.2510
 3.4340	 4.9130
 3.4360	 4.5350
 3.4390	 4.0950
 3.4410	 3.9510
 3.4430	 3.8800
 3.4450	 3.5730
 3.4480	 3.5060
 3.4500	 3.7090
 3.4520	 3.6040
 3.4550	 3.5400
 3.4570	 3.6140
 3.4590	 3.6090
 3.4620	 3.6740
 3.4640	 3.5450
 3.4660	 3.4660
 3.4680	 3.5590
 3.4710	 3.4040
 3.4730	 3.4010
 3.4750	 3.3240
 3.4780	 3.1530
 3.4800	 2.9670
 3.4820	 2.9720
 3.4850	 2.8820
 3.4870	 2.8730
 3.4890	 2.8200
 3.4920	 2.7170
 3.4940	 2.6610
 3.4970	 2.6430
 3.4990	 2.4280
 3.5010	 2.2920
 3.5040	 2.5180
 3.5060	 3.1070
 3.5080	 4.1430
 3.5110	 5.0560
 3.5130	 5.0970
 3.5160	 4.8840
 3.5180	 4.7180
 3.5200	 4.4510
 3.5230	 4.2430
 3.5250	 4.1280
 3.5270	 3.9240
 3.5300	 3.7580
 3.5320	 3.7700
 3.5350	 3.7860
 3.5370	 3.6510
 3.5400	 3.5850
 3.5420	 3.5910
 3.5440	 3.6370
 3.5470	 3.5420
 3.5490	 3.5550
 3.5520	 3.5750
 3.5540	 3.5060
 3.5570	 3.4500
 3.5590	 3.5190
 3.5610	 3.5330
 3.5640	 3.3740
 3.5660	 3.1940
 3.5690	 3.4360
 3.5710	 3.5980
 3.5740	 3.4600
 3.5760	 3.2330
 3.5790	 3.3450
 3.5810	 3.2890
 3.5840	 3.2600
 3.5860	 3.2930
 3.5890	 3.5010
 3.5910	 3.3560
 3.5930	 3.2510
 3.5960	 3.3070
 3.5980	 3.0600
 3.6010	 3.2710
 3.6030	 3.7520
 3.6060	 3.6280
 3.6080	 3.1450
 3.6110	 3.1840
 3.6140	 3.5280
 3.6160	 3.5190
 3.6190	 3.4620
 3.6210	 3.3560
 3.6240	 3.4000
 3.6260	 3.3460
 3.6290	 3.2430
 3.6310	 3.4130
 3.6340	 3.5410
 3.6360	 3.3460
 3.6390	 3.3010
 3.6410	 3.3550
 3.6440	 3.4090
 3.6470	 3.3410
 3.6490	 3.3920
 3.6520	 3.4100
 3.6540	 3.3440
 3.6570	 3.2400
 3.6590	 3.2430
 3.6620	 3.2970
 3.6650	 3.3880
 3.6670	 3.3990
 3.6700	 3.3410
 3.6720	 3.2780
 3.6750	 3.3300
 3.6780	 3.3190
 3.6800	 3.3190
 3.6830	 3.1350
 3.6850	 3.2790
 3.6880	 3.3910
 3.6910	 3.4320
 3.6930	 3.3860
 3.6960	 3.3480
 3.6990	 3.2850
 3.7010	 3.2700
 3.7040	 3.2980
 3.7060	 3.4140
 3.7090	 3.4730
 3.7120	 3.4560
 3.7140	 3.3180
 3.7170	 3.3590
 3.7200	 3.3380
 3.7220	 3.3020
 3.7250	 3.1510
 3.7280	 3.1320
 3.7300	 3.1520
 3.7330	 3.1620
 3.7360	 3.1210
 3.7390	 3.3230
 3.7410	 3.2990
 3.7440	 3.3040
 3.7470	 3.3090
 3.7490	 3.5090
 3.7520	 3.4760
 3.7550	 3.4470
 3.7580	 3.5390
 3.7600	 3.5010
 3.7630	 3.4630
 3.7660	 3.5170
 3.7680	 3.5080
 3.7710	 3.4560
 3.7740	 3.3020
 3.7770	 3.2510
 3.7790	 3.3200
 3.7820	 3.4850
 3.7850	 3.4950
 3.7880	 3.4960
 3.7900	 3.5380
 3.7930	 3.5510
 3.7960	 3.5020
 3.7990	 3.5210
 3.8020	 3.4370
 3.8040	 3.3740
 3.8070	 3.3440
 3.8100	 3.4110
 3.8130	 3.3960
 3.8160	 3.2800
 3.8180	 3.2650
 3.8210	 3.4020
 3.8240	 3.3960
 3.8270	 3.3860
 3.8300	 3.1730
 3.8330	 3.0920
 3.8350	 3.3540
 3.8380	 3.4290
 3.8410	 3.3460
 3.8440	 3.2640
 3.8470	 3.2670
 3.8500	 3.4750
 3.8520	 3.4280
 3.8550	 3.4970
 3.8580	 3.4990
 3.8610	 3.4040
 3.8640	 3.3270
 3.8670	 3.5470
 3.8700	 3.6220
 3.8730	 3.5570
 3.8750	 3.4270
 3.8780	 3.4370
 3.8810	 3.4780
 3.8840	 3.5130
 3.8870	 3.4800
 3.8900	 3.3580
 3.8930	 3.2750
 3.8960	 3.3890
 3.8990	 3.4740
 3.9020	 3.4180
 3.9050	 3.4170
 3.9080	 3.5670
 3.9110	 3.4980
 3.9140	 3.3620
 3.9160	 3.3420
 3.9190	 3.4610
 3.9220	 3.5130
 3.9250	 3.5010
 3.9280	 3.4420
 3.9310	 3.4720
 3.9340	 3.5330
 3.9370	 3.5030
 3.9400	 3.4470
 3.9430	 3.5250
 3.9460	 3.4570
 3.9490	 3.3220
 3.9520	 3.3030
 3.9550	 3.3540
 3.9580	 3.4160
 3.9610	 3.5260
 3.9640	 3.5890
 3.9670	 3.5880
 3.9700	 3.5090
 3.9730	 3.4720
 3.9770	 3.3480
 3.9800	 3.3840
 3.9830	 3.4020
 3.9860	 3.3420
 3.9890	 3.3130
 3.9920	 3.3880
 3.9950	 3.5460
 3.9980	 3.7120
 4.0010	 3.6380
 4.0040	 3.5250
 4.0070	 3.4300
 4.0100	 3.3790
 4.0130	 3.4530
 4.0170	 3.5550
 4.0200	 3.5260
 4.0230	 3.5270
 4.0260	 3.4950
 4.0290	 3.4130
 4.0320	 3.4090
 4.0350	 3.3950
 4.0380	 3.4050
 4.0420	 3.5030
 4.0450	 3.5430
 4.0480	 3.6050
 4.0510	 3.6000
 4.0540	 3.5780
 4.0570	 3.5120
 4.0610	 3.5080
 4.0640	 3.5060
 4.0670	 3.4560
 4.0700	 3.4420
 4.0730	 3.5870
 4.0770	 3.5290
 4.0800	 3.4800
 4.0830	 3.5200
 4.0860	 3.6080
 4.0890	 3.5450
 4.0930	 3.5190
 4.0960	 3.6020
 4.0990	 3.7080
 4.1020	 3.5130
 4.1060	 3.3950
 4.1090	 3.5330
 4.1120	 3.5810
 4.1150	 3.4430
 4.1190	 3.3750
 4.1220	 3.3040
 4.1250	 3.3650
 4.1280	 3.3580
 4.1320	 3.4350
 4.1350	 3.4890
 4.1380	 3.5590
 4.1420	 3.6030
 4.1450	 3.5690
 4.1480	 3.4660
 4.1520	 3.4500
 4.1550	 3.4210
 4.1580	 3.4600
 4.1620	 3.5090
 4.1650	 3.5310
 4.1680	 3.4750
 4.1720	 3.4270
 4.1750	 3.5240
 4.1780	 3.4630
 4.1820	 3.4560
 4.1850	 3.5770
 4.1890	 3.6030
 4.1920	 3.4530
 4.1950	 3.3920
 4.1990	 3.4290
 4.2020	 3.4410
 4.2060	 3.5020
 4.2090	 3.5640
 4.2120	 3.6850
 4.2160	 3.5570
 4.2190	 3.3170
 4.2230	 3.1690
 4.2260	 3.4460
 4.2300	 3.4100
 4.2330	 3.0780
 4.2360	 3.2170
 4.2400	 3.4530
 4.2430	 3.4600
 4.2470	 3.3950
 4.2500	 3.5550
 4.2540	 3.6320
 4.2570	 3.4340
 4.2610	 3.5110
 4.2640	 3.6150
 4.2680	 3.5400
 4.2710	 3.4240
 4.2750	 3.3770
 4.2780	 3.3730
 4.2820	 3.3460
 4.2850	 3.1950
 4.2890	 3.2100
 4.2930	 3.4700
 4.2960	 3.4750
 4.3000	 3.3780
 4.3030	 3.4520
 4.3070	 3.4680
 4.3100	 3.4030
 4.3140	 3.3400
 4.3180	 3.2730
 4.3210	 3.1750
 4.3250	 3.2140
 4.3280	 3.3000
 4.3320	 3.4130
 4.3360	 3.5300
 4.3390	 3.3890
 4.3430	 3.1700
 4.3470	 3.2630
 4.3500	 3.2790
 4.3540	 3.3410
 4.3570	 3.3950
 4.3610	 3.3910
 4.3650	 3.2980
 4.3680	 3.2490
 4.3720	 3.1900
 4.3760	 3.2360
 4.3800	 3.3680
 4.3830	 3.4140
 4.3870	 3.2650
 4.3910	 3.2990
 4.3940	 3.3910
 4.3980	 3.3620
 4.4020	 3.2890
 4.4060	 3.3400
 4.4090	 3.3670
 4.4130	 3.3300
 4.4170	 3.3470
 4.4210	 3.3260
 4.4240	 3.3400
 4.4280	 3.3820
 4.4320	 3.2680
 4.4360	 3.2740
 4.4400	 3.3570
 4.4430	 3.4120
 4.4470	 3.2700
 4.4510	 3.2350
 4.4550	 3.2700
 4.4590	 3.2370
 4.4620	 3.1670
 4.4660	 3.2400
 4.4700	 3.3440
 4.4740	 3.4260
 4.4780	 3.4710
 4.4820	 3.4140
 4.4860	 3.2890
 4.4900	 3.2250
 4.4930	 3.2680
 4.4970	 3.2940
 4.5010	 3.2620
 4.5050	 3.2690
 4.5090	 3.2590
 4.5130	 3.2490
 4.5170	 3.2370
 4.5210	 3.1970
 4.5250	 3.2140
 4.5290	 3.2860
 4.5330	 3.3730
 4.5370	 3.4220
 4.5410	 3.3230
 4.5450	 3.1520
 4.5490	 3.1810
 4.5530	 3.2660
 4.5570	 3.2540
 4.5610	 3.1990
 4.5650	 3.1810
 4.5690	 3.2230
 4.5730	 3.3030
 4.5770	 3.3450
 4.5810	 3.3200
 4.5850	 3.3150
 4.5890	 3.2570
 4.5930	 3.1970
 4.5970	 3.1910
 4.6010	 3.2240
 4.6050	 3.2780
 4.6090	 3.3280
 4.6130	 3.3420
 4.6170	 3.3050
 4.6220	 3.5550
 4.6260	 3.7140
 4.6300	 3.4940
 4.6340	 3.2240
 4.6380	 3.0020
 4.6420	 2.9930
 4.6460	 3.1110
 4.6510	 3.0390
 4.6550	 3.0190
 4.6590	 3.1550
 4.6630	 3.1780
 4.6670	 3.1720
 4.6720	 3.1510
 4.6760	 3.1540
 4.6800	 3.1790
 4.6840	 3.2040
 4.6880	 3.1580
 4.6930	 3.2130
 4.6970	 3.3130
 4.7010	 3.2650
 4.7050	 3.2020
 4.7100	 3.2160
 4.7140	 3.1370
 4.7180	 3.1180
 4.7230	 3.2570
 4.7270	 3.2310
 4.7310	 3.1150
 4.7360	 3.1600
 4.7400	 3.2620
 4.7440	 3.3220
 4.7490	 3.2710
 4.7530	 3.1180
 4.7570	 3.1010
 4.7620	 3.2920
 4.7660	 3.2250
 4.7700	 3.1140
 4.7750	 3.0990
 4.7790	 3.3850
 4.7840	 3.5330
 4.7880	 3.1890
 4.7920	 2.8970
 4.7970	 2.9080
 4.8010	 2.9960
 4.8060	 3.0630
 4.8100	 3.2440
 4.8150	 3.2050
 4.8190	 3.0970
 4.8240	 3.0600
 4.8280	 3.1470
 4.8330	 3.2040
 4.8370	 3.2350
 4.8420	 3.2110
 4.8460	 3.1400
 4.8510	 3.1610
 4.8550	 3.1220
 4.8600	 3.0640
 4.8640	 3.0690
 4.8690	 3.0880
 4.8730	 3.1260
 4.8780	 3.2160
 4.8830	 3.3260
 4.8870	 3.3060
 4.8920	 3.1710
 4.8960	 3.1540
 4.9010	 3.2310
 4.9060	 3.2660
 4.9100	 3.1820
 4.9150	 3.0510
 4.9200	 3.0250
 4.9240	 3.0620
 4.9290	 3.1750
 4.9340	 3.2660
 4.9380	 3.2610
 4.9430	 3.1150
 4.9480	 3.1140
 4.9530	 3.1720
 4.9570	 3.2050
 4.9620	 3.2840
 4.9670	 3.3070
 4.9720	 3.2430
 4.9760	 3.2390
 4.9810	 3.2730
 4.9860	 3.2600
 4.9910	 3.1890
 4.9960	 3.1040
 5.0000	 3.1480
 5.0050	 3.2460
 5.0100	 3.3090
 5.0150	 3.3160
 5.0200	 3.1540
 5.0250	 3.1190
 5.0290	 3.1740
 5.0340	 3.2410
 5.0390	 3.2670
 5.0440	 3.2350
 5.0490	 3.0950
 5.0540	 3.0490
 5.0590	 3.1420
 5.0640	 3.2200
 5.0690	 3.1720
 5.0740	 3.1990
 5.0790	 3.2760
 5.0840	 3.3200
 5.0890	 3.2620
 5.0940	 3.2300
 5.0990	 3.2000
 5.1040	 3.1450
 5.1090	 3.1010
 5.1140	 3.1690
 5.1190	 3.2340
 5.1240	 3.2890
 5.1290	 3.3860
 5.1340	 3.4350
 5.1390	 3.3070
 5.1440	 3.2670
 5.1490	 3.3230
 5.1540	 3.2970
 5.1600	 3.2750
 5.1650	 3.3080
 5.1700	 3.2040
 5.1750	 3.2570
 5.1800	 3.3410
 5.1850	 3.3300
 5.1910	 3.2530
 5.1960	 3.2090
 5.2010	 3.2950
 5.2060	 3.3350
 5.2110	 3.2540
 5.2170	 3.2980
 5.2220	 3.3980
 5.2270	 3.3990
 5.2320	 3.4500
 5.2380	 3.4450
 5.2430	 3.4590
 5.2480	 3.4000
 5.2540	 3.2210
 5.2590	 3.1630
 5.2640	 3.2300
 5.2700	 3.2490
 5.2750	 3.2510
 5.2800	 3.2760
 5.2860	 3.3910
 5.2910	 3.3610
 5.2970	 3.1930
 5.3020	 3.2120
 5.3070	 3.2970
 5.3130	 3.2800
 5.3180	 3.1360
 5.3240	 3.1700
 5.3290	 3.2600
 5.3350	 3.2630
 5.3400	 3.2060
 5.3460	 3.1580
 5.3510	 3.0450
 5.3570	 3.0480
 5.3620	 3.1960
 5.3680	 3.2170
 5.3730	 3.2070
 5.3790	 3.2180
 5.3850	 3.1770
 5.3900	 3.2330
 5.3960	 3.2440
 5.4010	 3.2560
 5.4070	 3.2690
 5.4130	 3.1760
 5.4180	 3.0820
 5.4240	 3.1150
 5.4300	 3.1900
 5.4350	 3.2500
 5.4410	 3.2030
 5.4470	 3.1220
 5.4530	 3.0440
