Name: Pinus lambertiana 1
Type: vegetation
Class: Tree
Genus: Pinus
Species: lambertiana
Sample No.: VH244
Owner: UCSB
Wavelength Range: TIR
Origin: 37.043; -119.3043; WGS84
Collection Date: 11/2/2013
Description: Samples were collected as part of the HyspIRI Airborne Campaign. 48 individual plants were sampled in three times in 2013 - spring  summer  and fall. The name of the sample includes a 1  2  or 3 which references a different individual of the species. Samples were taken to JPL and processed within 48 hours of collection. The same leaves were processed in the Nicolet and then measured using the ASD.
Measurement: Hemispherical reflectance
First Column: X
Second Column: Y
X Units: Wavelength (micrometers)
Y Units: Reflectance (percentage)
First X Value: 2.501
Last X Value: 15.387
Number of X Values: 1737
Additional Information: vegetation.tree.pinus.lambertiana.tir.vh244.ucsb.nicolet.ancillary.txt

 2.5010	 8.7950
 2.5030	 8.7340
 2.5040	 8.6620
 2.5050	 8.6070
 2.5060	 8.7200
 2.5070	 8.6420
 2.5090	 8.7390
 2.5100	 8.7950
 2.5110	 8.7390
 2.5120	 8.5540
 2.5140	 8.5460
 2.5150	 8.7080
 2.5160	 8.7490
 2.5170	 8.6450
 2.5180	 8.7690
 2.5200	 8.7990
 2.5210	 8.7020
 2.5220	 8.5470
 2.5230	 8.5830
 2.5250	 8.4490
 2.5260	 8.5520
 2.5270	 8.6750
 2.5280	 8.7480
 2.5290	 8.6710
 2.5310	 8.6010
 2.5320	 8.4120
 2.5330	 8.2910
 2.5340	 8.3820
 2.5360	 8.6550
 2.5370	 8.6690
 2.5380	 8.7090
 2.5390	 8.6100
 2.5410	 8.5540
 2.5420	 8.6490
 2.5430	 8.7510
 2.5440	 8.6810
 2.5460	 8.8360
 2.5470	 8.8190
 2.5480	 8.6390
 2.5490	 8.5720
 2.5510	 8.6910
 2.5520	 8.7380
 2.5530	 8.7890
 2.5540	 8.8150
 2.5560	 8.8910
 2.5570	 8.8850
 2.5580	 8.8840
 2.5590	 8.8930
 2.5610	 8.8910
 2.5620	 8.6550
 2.5630	 8.7130
 2.5640	 8.8630
 2.5660	 8.8010
 2.5670	 8.8110
 2.5680	 8.9500
 2.5700	 8.9910
 2.5710	 8.9390
 2.5720	 8.8960
 2.5730	 8.9730
 2.5750	 8.8980
 2.5760	 8.8970
 2.5770	 8.7390
 2.5790	 8.6670
 2.5800	 8.5590
 2.5810	 8.6210
 2.5820	 8.7240
 2.5840	 8.8060
 2.5850	 8.6660
 2.5860	 8.6680
 2.5880	 8.6870
 2.5890	 8.7660
 2.5900	 8.7620
 2.5910	 8.8540
 2.5930	 8.7800
 2.5940	 8.6830
 2.5950	 8.5730
 2.5970	 8.5750
 2.5980	 8.6450
 2.5990	 8.7380
 2.6000	 8.6330
 2.6020	 8.5920
 2.6030	 8.6020
 2.6040	 8.6750
 2.6060	 8.7090
 2.6070	 8.8270
 2.6080	 8.7180
 2.6100	 8.6740
 2.6110	 8.6290
 2.6120	 8.5930
 2.6140	 8.4880
 2.6150	 8.5700
 2.6160	 8.5570
 2.6180	 8.6180
 2.6190	 8.5080
 2.6200	 8.5280
 2.6220	 8.4990
 2.6230	 8.5430
 2.6240	 8.4410
 2.6260	 8.3860
 2.6270	 8.4150
 2.6280	 8.2470
 2.6300	 8.2370
 2.6310	 8.4420
 2.6320	 8.4160
 2.6340	 8.5540
 2.6350	 8.5850
 2.6360	 8.5940
 2.6380	 8.4100
 2.6390	 8.2780
 2.6400	 8.2350
 2.6420	 8.3560
 2.6430	 8.3340
 2.6440	 8.3730
 2.6460	 8.3150
 2.6470	 8.3860
 2.6480	 8.4030
 2.6500	 8.3510
 2.6510	 8.2310
 2.6520	 8.0980
 2.6540	 7.9960
 2.6550	 8.2300
 2.6560	 8.1330
 2.6580	 8.0110
 2.6590	 7.9860
 2.6610	 8.0540
 2.6620	 8.0200
 2.6630	 8.0650
 2.6650	 8.0900
 2.6660	 7.9630
 2.6670	 7.8530
 2.6690	 8.0990
 2.6700	 8.0860
 2.6720	 7.8780
 2.6730	 7.8640
 2.6740	 7.9800
 2.6760	 7.8520
 2.6770	 7.7250
 2.6780	 7.7610
 2.6800	 7.8910
 2.6810	 7.9600
 2.6830	 7.9470
 2.6840	 7.7190
 2.6850	 7.7360
 2.6870	 7.7460
 2.6880	 7.6980
 2.6900	 7.7050
 2.6910	 7.6990
 2.6920	 7.5940
 2.6940	 7.6640
 2.6950	 7.5770
 2.6970	 7.6890
 2.6980	 7.7450
 2.6990	 7.7680
 2.7010	 7.7330
 2.7020	 7.7160
 2.7040	 7.7140
 2.7050	 7.7220
 2.7060	 7.5390
 2.7080	 7.4970
 2.7090	 7.5190
 2.7110	 7.4720
 2.7120	 7.3690
 2.7130	 7.4920
 2.7150	 7.3770
 2.7160	 7.3330
 2.7180	 7.3720
 2.7190	 7.4810
 2.7210	 7.6380
 2.7220	 7.5950
 2.7230	 7.6320
 2.7250	 7.6640
 2.7260	 7.3800
 2.7280	 7.3690
 2.7290	 7.5550
 2.7310	 7.5040
 2.7320	 7.3080
 2.7330	 7.3910
 2.7350	 7.5490
 2.7360	 7.5010
 2.7380	 7.2360
 2.7390	 7.2330
 2.7410	 7.2840
 2.7420	 7.5580
 2.7440	 7.8960
 2.7450	 7.7520
 2.7470	 7.5030
 2.7480	 7.5350
 2.7490	 7.7590
 2.7510	 7.8710
 2.7520	 7.2700
 2.7540	 7.0970
 2.7550	 7.1680
 2.7570	 7.5040
 2.7580	 7.6050
 2.7600	 7.6280
 2.7610	 7.5990
 2.7630	 7.4570
 2.7640	 7.2860
 2.7660	 7.4470
 2.7670	 7.4130
 2.7680	 7.4440
 2.7700	 7.5960
 2.7710	 7.6260
 2.7730	 7.5210
 2.7740	 7.6360
 2.7760	 7.7290
 2.7770	 7.6200
 2.7790	 7.3680
 2.7800	 7.2440
 2.7820	 7.2170
 2.7830	 7.3580
 2.7850	 7.5550
 2.7860	 7.7280
 2.7880	 7.7030
 2.7890	 7.7800
 2.7910	 7.8580
 2.7920	 7.7170
 2.7940	 7.5290
 2.7950	 7.5760
 2.7970	 7.5430
 2.7980	 7.6000
 2.8000	 7.3310
 2.8010	 7.3780
 2.8030	 7.5710
 2.8040	 7.5580
 2.8060	 7.3640
 2.8070	 7.3630
 2.8090	 7.3860
 2.8110	 7.5220
 2.8120	 7.4390
 2.8140	 7.6210
 2.8150	 7.6640
 2.8170	 7.4880
 2.8180	 7.3970
 2.8200	 7.4540
 2.8210	 7.3660
 2.8230	 7.3330
 2.8240	 7.3020
 2.8260	 7.4490
 2.8270	 7.5690
 2.8290	 7.6350
 2.8300	 7.5000
 2.8320	 7.4860
 2.8340	 7.5040
 2.8350	 7.5570
 2.8370	 7.5230
 2.8380	 7.6120
 2.8400	 7.5480
 2.8410	 7.4840
 2.8430	 7.5130
 2.8440	 7.6180
 2.8460	 7.6290
 2.8480	 7.6600
 2.8490	 7.4780
 2.8510	 7.4820
 2.8520	 7.5240
 2.8540	 7.5270
 2.8550	 7.5330
 2.8570	 7.5530
 2.8590	 7.4170
 2.8600	 7.4820
 2.8620	 7.5300
 2.8630	 7.6340
 2.8650	 7.6120
 2.8660	 7.5420
 2.8680	 7.6200
 2.8700	 7.6510
 2.8710	 7.5210
 2.8730	 7.4390
 2.8740	 7.3310
 2.8760	 7.2940
 2.8780	 7.4670
 2.8790	 7.6410
 2.8810	 7.3770
 2.8820	 7.6490
 2.8840	 7.9910
 2.8860	 7.7950
 2.8870	 7.6750
 2.8890	 7.6750
 2.8900	 7.5730
 2.8920	 7.5990
 2.8940	 7.5760
 2.8950	 7.6550
 2.8970	 7.7050
 2.8980	 7.8390
 2.9000	 7.7360
 2.9020	 7.6340
 2.9030	 7.4700
 2.9050	 7.2400
 2.9070	 7.2450
 2.9080	 7.2150
 2.9100	 7.1920
 2.9120	 7.5130
 2.9130	 7.6980
 2.9150	 7.6400
 2.9160	 7.5380
 2.9180	 7.4830
 2.9200	 7.4870
 2.9210	 7.6110
 2.9230	 7.7120
 2.9250	 7.7800
 2.9260	 7.7470
 2.9280	 7.7490
 2.9300	 7.6590
 2.9310	 7.7510
 2.9330	 7.7020
 2.9350	 7.7360
 2.9360	 7.7380
 2.9380	 7.9020
 2.9400	 7.9410
 2.9410	 7.8450
 2.9430	 7.1470
 2.9450	 6.8290
 2.9460	 6.9330
 2.9480	 6.9540
 2.9500	 6.9110
 2.9510	 7.2900
 2.9530	 7.7150
 2.9550	 7.7040
 2.9560	 7.3950
 2.9580	 7.3250
 2.9600	 7.2280
 2.9610	 7.5780
 2.9630	 7.6600
 2.9650	 7.2220
 2.9660	 7.5830
 2.9680	 7.6920
 2.9700	 7.2930
 2.9720	 6.5490
 2.9730	 6.8110
 2.9750	 6.8340
 2.9770	 6.6920
 2.9780	 8.5820
 2.9800	 9.0920
 2.9820	 7.9240
 2.9840	 7.4400
 2.9850	 8.2680
 2.9870	 9.1570
 2.9890	 8.1340
 2.9900	 6.7690
 2.9920	 6.9860
 2.9940	 6.6450
 2.9960	 7.2370
 2.9970	 8.9100
 2.9990	 9.4090
 3.0010	 7.5870
 3.0030	 7.3170
 3.0040	 7.6720
 3.0060	 7.5250
 3.0080	 7.0410
 3.0100	 6.6510
 3.0110	 6.3610
 3.0130	 7.1440
 3.0150	 7.5210
 3.0170	 8.0610
 3.0180	 8.9150
 3.0200	 8.7810
 3.0220	 8.2110
 3.0240	 7.8410
 3.0250	 7.8980
 3.0270	 7.7150
 3.0290	 7.2020
 3.0310	 7.3870
 3.0320	 7.9540
 3.0340	 7.2880
 3.0360	 6.7550
 3.0380	 6.8490
 3.0400	 6.8290
 3.0410	 6.6430
 3.0430	 6.4040
 3.0450	 7.5850
 3.0470	 8.1530
 3.0480	 8.3490
 3.0500	 9.4670
 3.0520	 8.5470
 3.0540	 6.9880
 3.0560	 7.2910
 3.0570	 7.8690
 3.0590	 7.5160
 3.0610	 7.4360
 3.0630	 7.1600
 3.0650	 7.5830
 3.0660	 7.4330
 3.0680	 7.4190
 3.0700	 8.0070
 3.0720	 7.7170
 3.0740	 7.4210
 3.0760	 7.2750
 3.0770	 7.0850
 3.0790	 7.2500
 3.0810	 7.5270
 3.0830	 7.6240
 3.0850	 7.6760
 3.0870	 7.5200
 3.0880	 7.4230
 3.0900	 7.3850
 3.0920	 7.5110
 3.0940	 7.6440
 3.0960	 7.4400
 3.0980	 7.3740
 3.0990	 7.5320
 3.1010	 7.4870
 3.1030	 7.5120
 3.1050	 7.7240
 3.1070	 7.8790
 3.1090	 7.7430
 3.1110	 7.4900
 3.1120	 7.6790
 3.1140	 7.8050
 3.1160	 7.3490
 3.1180	 7.4330
 3.1200	 7.6450
 3.1220	 7.5710
 3.1240	 7.5600
 3.1260	 7.6390
 3.1270	 7.5650
 3.1290	 7.4630
 3.1310	 7.2270
 3.1330	 7.2110
 3.1350	 7.3460
 3.1370	 7.9570
 3.1390	 7.7560
 3.1410	 7.4880
 3.1430	 7.8300
 3.1450	 7.8790
 3.1460	 8.0370
 3.1480	 7.7990
 3.1500	 7.9940
 3.1520	 7.8090
 3.1540	 6.6910
 3.1560	 7.0340
 3.1580	 7.8200
 3.1600	 8.1340
 3.1620	 7.8380
 3.1640	 7.9820
 3.1660	 7.6020
 3.1680	 6.3060
 3.1700	 7.1070
 3.1710	 9.3030
 3.1730	10.3050
 3.1750	 9.2130
 3.1770	 7.5780
 3.1790	 6.4960
 3.1810	 5.7940
 3.1830	 6.5880
 3.1850	 7.5580
 3.1870	 7.6260
 3.1890	 7.3290
 3.1910	 7.5070
 3.1930	 7.6970
 3.1950	 7.6080
 3.1970	 7.3410
 3.1990	 7.3060
 3.2010	 7.4130
 3.2030	 7.4580
 3.2050	 7.4080
 3.2070	 7.4950
 3.2090	 7.5020
 3.2110	 7.4900
 3.2130	 7.5400
 3.2150	 7.5730
 3.2170	 7.3470
 3.2190	 7.4100
 3.2210	 7.5080
 3.2230	 7.5000
 3.2250	 7.4000
 3.2270	 7.5000
 3.2290	 7.6250
 3.2310	 7.6770
 3.2330	 7.6180
 3.2350	 7.5910
 3.2370	 7.5360
 3.2390	 7.7150
 3.2410	 7.8130
 3.2430	 7.6300
 3.2450	 7.4690
 3.2470	 7.5730
 3.2490	 7.4600
 3.2510	 7.3130
 3.2530	 7.4480
 3.2550	 7.6460
 3.2570	 7.5790
 3.2590	 7.5050
 3.2610	 7.3080
 3.2630	 7.3230
 3.2650	 7.4980
 3.2670	 7.5970
 3.2690	 7.4690
 3.2720	 7.4110
 3.2740	 7.3940
 3.2760	 7.5280
 3.2780	 7.5270
 3.2800	 7.4840
 3.2820	 7.3880
 3.2840	 7.3750
 3.2860	 7.2950
 3.2880	 7.2340
 3.2900	 7.2140
 3.2920	 7.2630
 3.2940	 7.3640
 3.2960	 7.5230
 3.2990	 7.4680
 3.3010	 7.4730
 3.3030	 7.3580
 3.3050	 7.3600
 3.3070	 7.7010
 3.3090	 7.6850
 3.3110	 7.4570
 3.3130	 7.5820
 3.3150	 7.5860
 3.3180	 7.4890
 3.3200	 7.3690
 3.3220	 7.3450
 3.3240	 7.3690
 3.3260	 7.3810
 3.3280	 7.3130
 3.3300	 7.4440
 3.3330	 7.4510
 3.3350	 7.3280
 3.3370	 7.1830
 3.3390	 7.2310
 3.3410	 7.3020
 3.3430	 7.3990
 3.3450	 7.3960
 3.3480	 7.4710
 3.3500	 7.3890
 3.3520	 7.3620
 3.3540	 7.1830
 3.3560	 7.1840
 3.3580	 7.2380
 3.3610	 7.2970
 3.3630	 7.2260
 3.3650	 7.1700
 3.3670	 7.2000
 3.3690	 7.1830
 3.3720	 7.1230
 3.3740	 7.1260
 3.3760	 7.0840
 3.3780	 7.1010
 3.3800	 7.0080
 3.3830	 7.2100
 3.3850	 7.2900
 3.3870	 7.2460
 3.3890	 7.2000
 3.3910	 7.2200
 3.3940	 7.1590
 3.3960	 7.3250
 3.3980	 7.3330
 3.4000	 7.1370
 3.4020	 7.1200
 3.4050	 7.1510
 3.4070	 7.0730
 3.4090	 7.2030
 3.4110	 7.3170
 3.4140	 7.3880
 3.4160	 7.4350
 3.4180	 7.6000
 3.4200	 7.8120
 3.4230	 8.0840
 3.4250	 8.5180
 3.4270	 9.0520
 3.4290	 9.4150
 3.4320	 9.3560
 3.4340	 8.9890
 3.4360	 8.6270
 3.4390	 8.3340
 3.4410	 8.1910
 3.4430	 8.0890
 3.4450	 8.2390
 3.4480	 8.4070
 3.4500	 8.5290
 3.4520	 8.1600
 3.4550	 7.9260
 3.4570	 7.8960
 3.4590	 7.9570
 3.4620	 8.0780
 3.4640	 8.0320
 3.4660	 7.8820
 3.4680	 7.8980
 3.4710	 7.9040
 3.4730	 7.9040
 3.4750	 7.7270
 3.4780	 7.7820
 3.4800	 7.8260
 3.4820	 7.7850
 3.4850	 7.6870
 3.4870	 7.7090
 3.4890	 7.6960
 3.4920	 7.6070
 3.4940	 7.5390
 3.4970	 7.5160
 3.4990	 7.6040
 3.5010	 7.7310
 3.5040	 7.7650
 3.5060	 8.2310
 3.5080	 8.7140
 3.5110	 8.9130
 3.5130	 8.8750
 3.5160	 8.7590
 3.5180	 8.6890
 3.5200	 8.6520
 3.5230	 8.4930
 3.5250	 8.3530
 3.5270	 8.2330
 3.5300	 8.1180
 3.5320	 8.0430
 3.5350	 8.0390
 3.5370	 8.0840
 3.5400	 8.0710
 3.5420	 7.8670
 3.5440	 7.9080
 3.5470	 7.9280
 3.5490	 7.9730
 3.5520	 8.0440
 3.5540	 7.9200
 3.5570	 7.7490
 3.5590	 7.8780
 3.5610	 7.9120
 3.5640	 7.8540
 3.5660	 7.8340
 3.5690	 7.6900
 3.5710	 7.6020
 3.5740	 7.7330
 3.5760	 7.7150
 3.5790	 7.7380
 3.5810	 7.8090
 3.5840	 7.7710
 3.5860	 7.7080
 3.5890	 7.8620
 3.5910	 7.8890
 3.5930	 7.8820
 3.5960	 7.8240
 3.5980	 7.8180
 3.6010	 7.8290
 3.6030	 7.9000
 3.6060	 7.7750
 3.6080	 7.7430
 3.6110	 7.7560
 3.6140	 7.7130
 3.6160	 7.7000
 3.6190	 7.7920
 3.6210	 7.7830
 3.6240	 7.8020
 3.6260	 7.7310
 3.6290	 7.7200
 3.6310	 7.6440
 3.6340	 7.6240
 3.6360	 7.7420
 3.6390	 7.8240
 3.6410	 7.7260
 3.6440	 7.7540
 3.6470	 7.7760
 3.6490	 7.8410
 3.6520	 7.8160
 3.6540	 7.8130
 3.6570	 7.7530
 3.6590	 7.8050
 3.6620	 7.8980
 3.6650	 7.7680
 3.6670	 7.6600
 3.6700	 7.8220
 3.6720	 7.8630
 3.6750	 7.7990
 3.6780	 7.6580
 3.6800	 7.6710
 3.6830	 7.6690
 3.6850	 7.6490
 3.6880	 7.6500
 3.6910	 7.7210
 3.6930	 7.6420
 3.6960	 7.7030
 3.6990	 7.6570
 3.7010	 7.6170
 3.7040	 7.5690
 3.7060	 7.5830
 3.7090	 7.5730
 3.7120	 7.6550
 3.7140	 7.7150
 3.7170	 7.6650
 3.7200	 7.6510
 3.7220	 7.7070
 3.7250	 7.7260
 3.7280	 7.6870
 3.7300	 7.6220
 3.7330	 7.7420
 3.7360	 7.7530
 3.7390	 7.7630
 3.7410	 7.7560
 3.7440	 7.7610
 3.7470	 7.7620
 3.7490	 7.8100
 3.7520	 7.7660
 3.7550	 7.8120
 3.7580	 7.7310
 3.7600	 7.6740
 3.7630	 7.6860
 3.7660	 7.7730
 3.7680	 7.7390
 3.7710	 7.6910
 3.7740	 7.6250
 3.7770	 7.6410
 3.7790	 7.6960
 3.7820	 7.7770
 3.7850	 7.6670
 3.7880	 7.5740
 3.7900	 7.6410
 3.7930	 7.6910
 3.7960	 7.6810
 3.7990	 7.6870
 3.8020	 7.6770
 3.8040	 7.7360
 3.8070	 7.7650
 3.8100	 7.7620
 3.8130	 7.6670
 3.8160	 7.7320
 3.8180	 7.6600
 3.8210	 7.6950
 3.8240	 7.7410
 3.8270	 7.6770
 3.8300	 7.6830
 3.8330	 7.8050
 3.8350	 7.7720
 3.8380	 7.7510
 3.8410	 7.8100
 3.8440	 7.7970
 3.8470	 7.7950
 3.8500	 7.8520
 3.8520	 7.7850
 3.8550	 7.7780
 3.8580	 7.7470
 3.8610	 7.7300
 3.8640	 7.7820
 3.8670	 7.8200
 3.8700	 7.7200
 3.8730	 7.6490
 3.8750	 7.6790
 3.8780	 7.7550
 3.8810	 7.8240
 3.8840	 7.7520
 3.8870	 7.6510
 3.8900	 7.6500
 3.8930	 7.6650
 3.8960	 7.6630
 3.8990	 7.7190
 3.9020	 7.7770
 3.9050	 7.7340
 3.9080	 7.6640
 3.9110	 7.7110
 3.9140	 7.8260
 3.9160	 7.7140
 3.9190	 7.6930
 3.9220	 7.6930
 3.9250	 7.7330
 3.9280	 7.7630
 3.9310	 7.7480
 3.9340	 7.7150
 3.9370	 7.7130
 3.9400	 7.7690
 3.9430	 7.8690
 3.9460	 7.8150
 3.9490	 7.7190
 3.9520	 7.7410
 3.9550	 7.8190
 3.9580	 7.8230
 3.9610	 7.8620
 3.9640	 7.8170
 3.9670	 7.6440
 3.9700	 7.6230
 3.9730	 7.7470
 3.9770	 7.7330
 3.9800	 7.7390
 3.9830	 7.8150
 3.9860	 7.8520
 3.9890	 7.8320
 3.9920	 7.8240
 3.9950	 7.8240
 3.9980	 7.7700
 4.0010	 7.7160
 4.0040	 7.7600
 4.0070	 7.7470
 4.0100	 7.7700
 4.0130	 7.7840
 4.0170	 7.7510
 4.0200	 7.6880
 4.0230	 7.7350
 4.0260	 7.8230
 4.0290	 7.8670
 4.0320	 7.7160
 4.0350	 7.7980
 4.0380	 7.8480
 4.0420	 7.7280
 4.0450	 7.6610
 4.0480	 7.7630
 4.0510	 7.7860
 4.0540	 7.7780
 4.0570	 7.7890
 4.0610	 7.8060
 4.0640	 7.8680
 4.0670	 7.8330
 4.0700	 7.8180
 4.0730	 7.8540
 4.0770	 7.7260
 4.0800	 7.7780
 4.0830	 7.8410
 4.0860	 7.8050
 4.0890	 7.8070
 4.0930	 7.7870
 4.0960	 7.6700
 4.0990	 7.5860
 4.1020	 7.6360
 4.1060	 7.8620
 4.1090	 7.9890
 4.1120	 7.9520
 4.1150	 7.8750
 4.1190	 7.8850
 4.1220	 7.8640
 4.1250	 7.8020
 4.1280	 7.7270
 4.1320	 7.7920
 4.1350	 7.7980
 4.1380	 7.7750
 4.1420	 7.7390
 4.1450	 7.7750
 4.1480	 7.7500
 4.1520	 7.6830
 4.1550	 7.7220
 4.1580	 7.8190
 4.1620	 7.7840
 4.1650	 7.7920
 4.1680	 7.8920
 4.1720	 7.8900
 4.1750	 7.7790
 4.1780	 7.7530
 4.1820	 7.7770
 4.1850	 7.7790
 4.1890	 7.7810
 4.1920	 7.7840
 4.1950	 7.7680
 4.1990	 7.7560
 4.2020	 7.8270
 4.2060	 7.8730
 4.2090	 7.8360
 4.2120	 7.7920
 4.2160	 7.7350
 4.2190	 8.0390
 4.2230	 8.1740
 4.2260	 7.9720
 4.2300	 7.8160
 4.2330	 7.7490
 4.2360	 7.6620
 4.2400	 7.9140
 4.2430	 7.9520
 4.2470	 7.9260
 4.2500	 8.0050
 4.2540	 8.1110
 4.2570	 8.0810
 4.2610	 8.1030
 4.2640	 7.9810
 4.2680	 7.8670
 4.2710	 7.9230
 4.2750	 8.0380
 4.2780	 8.1010
 4.2820	 8.2290
 4.2850	 8.1590
 4.2890	 7.9970
 4.2930	 8.0010
 4.2960	 8.0880
 4.3000	 7.9800
 4.3030	 7.8370
 4.3070	 7.8100
 4.3100	 7.9020
 4.3140	 7.8510
 4.3180	 7.7840
 4.3210	 7.8390
 4.3250	 7.8270
 4.3280	 7.7380
 4.3320	 7.7460
 4.3360	 7.7010
 4.3390	 7.6420
 4.3430	 7.7510
 4.3470	 7.7820
 4.3500	 7.7180
 4.3540	 7.7780
 4.3570	 7.7670
 4.3610	 7.7170
 4.3650	 7.6970
 4.3680	 7.7260
 4.3720	 7.7390
 4.3760	 7.7400
 4.3800	 7.6840
 4.3830	 7.6960
 4.3870	 7.7100
 4.3910	 7.7400
 4.3940	 7.7690
 4.3980	 7.6860
 4.4020	 7.6530
 4.4060	 7.6570
 4.4090	 7.6340
 4.4130	 7.6690
 4.4170	 7.6730
 4.4210	 7.6630
 4.4240	 7.6410
 4.4280	 7.6710
 4.4320	 7.6350
 4.4360	 7.6560
 4.4400	 7.6650
 4.4430	 7.6450
 4.4470	 7.6020
 4.4510	 7.6580
 4.4550	 7.6890
 4.4590	 7.6190
 4.4620	 7.5980
 4.4660	 7.6620
 4.4700	 7.7000
 4.4740	 7.6410
 4.4780	 7.5830
 4.4820	 7.5730
 4.4860	 7.5750
 4.4900	 7.6310
 4.4930	 7.7000
 4.4970	 7.7070
 4.5010	 7.6560
 4.5050	 7.6210
 4.5090	 7.5820
 4.5130	 7.5910
 4.5170	 7.6430
 4.5210	 7.7060
 4.5250	 7.6950
 4.5290	 7.6070
 4.5330	 7.5720
 4.5370	 7.5610
 4.5410	 7.5620
 4.5450	 7.6290
 4.5490	 7.6580
 4.5530	 7.5800
 4.5570	 7.5760
 4.5610	 7.6620
 4.5650	 7.6370
 4.5690	 7.5870
 4.5730	 7.6350
 4.5770	 7.6530
 4.5810	 7.6080
 4.5850	 7.5620
 4.5890	 7.5390
 4.5930	 7.5470
 4.5970	 7.5340
 4.6010	 7.5330
 4.6050	 7.4730
 4.6090	 7.4370
 4.6130	 7.5190
 4.6170	 7.7120
 4.6220	 7.6640
 4.6260	 7.5050
 4.6300	 7.6030
 4.6340	 7.5960
 4.6380	 7.4940
 4.6420	 7.4950
 4.6460	 7.5410
 4.6510	 7.5900
 4.6550	 7.6610
 4.6590	 7.6450
 4.6630	 7.5630
 4.6670	 7.6050
 4.6720	 7.6830
 4.6760	 7.6390
 4.6800	 7.6070
 4.6840	 7.6320
 4.6880	 7.7100
 4.6930	 7.6990
 4.6970	 7.5490
 4.7010	 7.4210
 4.7050	 7.4260
 4.7100	 7.5050
 4.7140	 7.5780
 4.7180	 7.6100
 4.7230	 7.6290
 4.7270	 7.5610
 4.7310	 7.4820
 4.7360	 7.5860
 4.7400	 7.6500
 4.7440	 7.5820
 4.7490	 7.5860
 4.7530	 7.5590
 4.7570	 7.4940
 4.7620	 7.5260
 4.7660	 7.5500
 4.7700	 7.5570
 4.7750	 7.5530
 4.7790	 7.4940
 4.7840	 7.5250
 4.7880	 7.5640
 4.7920	 7.3730
 4.7970	 7.3030
 4.8010	 7.3510
 4.8060	 7.5350
 4.8100	 7.7130
 4.8150	 7.6500
 4.8190	 7.5310
 4.8240	 7.4660
 4.8280	 7.5200
 4.8330	 7.5850
 4.8370	 7.5340
 4.8420	 7.5110
 4.8460	 7.4850
 4.8510	 7.4670
 4.8550	 7.6050
 4.8600	 7.5780
 4.8640	 7.4630
 4.8690	 7.4010
 4.8730	 7.4080
 4.8780	 7.4710
 4.8830	 7.4860
 4.8870	 7.5350
 4.8920	 7.5500
 4.8960	 7.5440
 4.9010	 7.5740
 4.9060	 7.5900
 4.9100	 7.5710
 4.9150	 7.5670
 4.9200	 7.5560
 4.9240	 7.4350
 4.9290	 7.4000
 4.9340	 7.4750
 4.9380	 7.4950
 4.9430	 7.5050
 4.9480	 7.5420
 4.9530	 7.5380
 4.9570	 7.5770
 4.9620	 7.4820
 4.9670	 7.4170
 4.9720	 7.4730
 4.9760	 7.4840
 4.9810	 7.5000
 4.9860	 7.5830
 4.9910	 7.5680
 4.9960	 7.5020
 5.0000	 7.4630
 5.0050	 7.5120
 5.0100	 7.6140
 5.0150	 7.6240
 5.0200	 7.6020
 5.0250	 7.6130
 5.0290	 7.5070
 5.0340	 7.4320
 5.0390	 7.4580
 5.0440	 7.4490
 5.0490	 7.4100
 5.0540	 7.4420
 5.0590	 7.4360
 5.0640	 7.4400
 5.0690	 7.4710
 5.0740	 7.4680
 5.0790	 7.4800
 5.0840	 7.5310
 5.0890	 7.6330
 5.0940	 7.6720
 5.0990	 7.6240
 5.1040	 7.6250
 5.1090	 7.6120
 5.1140	 7.5430
 5.1190	 7.4830
 5.1240	 7.5140
 5.1290	 7.5010
 5.1340	 7.4450
 5.1390	 7.4160
 5.1440	 7.4880
 5.1490	 7.5360
 5.1540	 7.5330
 5.1600	 7.5620
 5.1650	 7.6100
 5.1700	 7.5060
 5.1750	 7.4540
 5.1800	 7.5230
 5.1850	 7.6230
 5.1910	 7.6230
 5.1960	 7.5660
 5.2010	 7.5380
 5.2060	 7.5270
 5.2110	 7.5690
 5.2170	 7.5440
 5.2220	 7.5270
 5.2270	 7.5580
 5.2320	 7.5390
 5.2380	 7.5320
 5.2430	 7.5260
 5.2480	 7.5360
 5.2540	 7.5410
 5.2590	 7.5220
 5.2640	 7.4170
 5.2700	 7.4790
 5.2750	 7.5400
 5.2800	 7.5770
 5.2860	 7.6070
 5.2910	 7.6490
 5.2970	 7.5560
 5.3020	 7.5790
 5.3070	 7.5510
 5.3130	 7.4950
 5.3180	 7.5240
 5.3240	 7.5170
 5.3290	 7.4770
 5.3350	 7.5180
 5.3400	 7.4610
 5.3460	 7.4460
 5.3510	 7.5160
 5.3570	 7.5800
 5.3620	 7.5200
 5.3680	 7.5530
 5.3730	 7.5240
 5.3790	 7.5180
 5.3850	 7.5050
 5.3900	 7.4680
 5.3960	 7.4100
 5.4010	 7.5030
 5.4070	 7.4150
 5.4130	 7.3680
 5.4180	 7.4510
 5.4240	 7.5320
 5.4300	 7.4990
 5.4350	 7.5520
 5.4410	 7.5810
