Name: Ginkgo biloba
Type: vegetation
Class: Tree
Genus: Ginkgo
Species: biloba
Sample No.: JPL208
Owner: JPL
Wavelength Range: VSWIR
Origin: 34.12598; -118.11143; WGS84
Collection Date: 10/3/2016
Description: Samples were collected at the Huntington Garden in San Marino California as part of a JPL Subcontract studying HyTES imagery. Samples were taken to JPL and processed within 48 hours of collection. The same leaves were processed in the Nicolet and then measured using the ASD.
Measurement: Bidirectional reflectance
First Column: X
Second Column: Y
X Units: Wavelength (micrometer)
Y Units: Reflectance (percentage)
First X Value: 0.35
Last X Value: 2.5
Number of X Values: 2151
Additional Information: vegetation.tree.ginkgo.biloba.vswir.jpl208.jpl.asd.ancillary.txt

 0.3500	 4.5580
 0.3510	 4.5220
 0.3520	 4.2980
 0.3530	 4.1680
 0.3540	 4.3100
 0.3550	 4.3620
 0.3560	 4.2140
 0.3570	 4.0790
 0.3580	 4.2520
 0.3590	 4.2260
 0.3600	 4.1350
 0.3610	 4.1040
 0.3620	 4.1540
 0.3630	 4.1220
 0.3640	 4.0800
 0.3650	 4.1120
 0.3660	 4.1080
 0.3670	 4.1190
 0.3680	 4.1220
 0.3690	 4.0600
 0.3700	 4.0910
 0.3710	 4.1280
 0.3720	 4.1100
 0.3730	 4.0850
 0.3740	 4.0880
 0.3750	 4.1010
 0.3760	 4.1010
 0.3770	 4.1280
 0.3780	 4.1660
 0.3790	 4.1920
 0.3800	 4.1880
 0.3810	 4.2530
 0.3820	 4.2710
 0.3830	 4.2010
 0.3840	 4.2370
 0.3850	 4.2870
 0.3860	 4.3470
 0.3870	 4.4290
 0.3880	 4.4630
 0.3890	 4.4600
 0.3900	 4.4590
 0.3910	 4.5170
 0.3920	 4.5540
 0.3930	 4.6040
 0.3940	 4.6900
 0.3950	 4.7550
 0.3960	 4.8150
 0.3970	 4.8740
 0.3980	 4.9340
 0.3990	 4.9900
 0.4000	 5.0550
 0.4010	 5.1360
 0.4020	 5.2240
 0.4030	 5.3180
 0.4040	 5.4030
 0.4050	 5.4690
 0.4060	 5.5300
 0.4070	 5.5940
 0.4080	 5.6760
 0.4090	 5.7850
 0.4100	 5.8740
 0.4110	 5.9520
 0.4120	 6.0300
 0.4130	 6.1150
 0.4140	 6.1970
 0.4150	 6.2740
 0.4160	 6.3490
 0.4170	 6.4170
 0.4180	 6.4880
 0.4190	 6.5650
 0.4200	 6.6440
 0.4210	 6.7100
 0.4220	 6.7650
 0.4230	 6.8170
 0.4240	 6.8750
 0.4250	 6.9320
 0.4260	 6.9800
 0.4270	 7.0200
 0.4280	 7.0630
 0.4290	 7.1030
 0.4300	 7.1400
 0.4310	 7.1760
 0.4320	 7.2100
 0.4330	 7.2390
 0.4340	 7.2630
 0.4350	 7.2900
 0.4360	 7.3200
 0.4370	 7.3500
 0.4380	 7.3770
 0.4390	 7.4050
 0.4400	 7.4380
 0.4410	 7.4740
 0.4420	 7.5000
 0.4430	 7.5330
 0.4440	 7.5640
 0.4450	 7.5790
 0.4460	 7.5950
 0.4470	 7.6230
 0.4480	 7.6580
 0.4490	 7.6800
 0.4500	 7.6970
 0.4510	 7.7210
 0.4520	 7.7530
 0.4530	 7.7720
 0.4540	 7.7900
 0.4550	 7.8100
 0.4560	 7.8290
 0.4570	 7.8510
 0.4580	 7.8730
 0.4590	 7.8920
 0.4600	 7.9090
 0.4610	 7.9360
 0.4620	 7.9660
 0.4630	 7.9900
 0.4640	 8.0110
 0.4650	 8.0320
 0.4660	 8.0530
 0.4670	 8.0700
 0.4680	 8.0860
 0.4690	 8.1010
 0.4700	 8.1160
 0.4710	 8.1330
 0.4720	 8.1510
 0.4730	 8.1640
 0.4740	 8.1690
 0.4750	 8.1730
 0.4760	 8.1810
 0.4770	 8.1940
 0.4780	 8.2030
 0.4790	 8.2170
 0.4800	 8.2280
 0.4810	 8.2320
 0.4820	 8.2470
 0.4830	 8.2680
 0.4840	 8.2880
 0.4850	 8.3090
 0.4860	 8.3350
 0.4870	 8.3730
 0.4880	 8.4200
 0.4890	 8.4640
 0.4900	 8.5200
 0.4910	 8.5860
 0.4920	 8.6520
 0.4930	 8.7270
 0.4940	 8.8120
 0.4950	 8.9080
 0.4960	 9.0130
 0.4970	 9.1290
 0.4980	 9.2530
 0.4990	 9.3850
 0.5000	 9.5270
 0.5010	 9.6810
 0.5020	 9.8480
 0.5030	10.0250
 0.5040	10.2210
 0.5050	10.4290
 0.5060	10.6440
 0.5070	10.8760
 0.5080	11.1240
 0.5090	11.3890
 0.5100	11.6700
 0.5110	11.9610
 0.5120	12.2670
 0.5130	12.5870
 0.5140	12.9180
 0.5150	13.2640
 0.5160	13.6200
 0.5170	13.9840
 0.5180	14.3570
 0.5190	14.7370
 0.5200	15.1160
 0.5210	15.4920
 0.5220	15.8690
 0.5230	16.2440
 0.5240	16.6110
 0.5250	16.9660
 0.5260	17.3100
 0.5270	17.6420
 0.5280	17.9620
 0.5290	18.2630
 0.5300	18.5490
 0.5310	18.8210
 0.5320	19.0720
 0.5330	19.3110
 0.5340	19.5360
 0.5350	19.7450
 0.5360	19.9390
 0.5370	20.1200
 0.5380	20.2910
 0.5390	20.4600
 0.5400	20.6190
 0.5410	20.7710
 0.5420	20.9140
 0.5430	21.0500
 0.5440	21.1830
 0.5450	21.3110
 0.5460	21.4320
 0.5470	21.5470
 0.5480	21.6570
 0.5490	21.7620
 0.5500	21.8610
 0.5510	21.9500
 0.5520	22.0290
 0.5530	22.0990
 0.5540	22.1510
 0.5550	22.1900
 0.5560	22.2180
 0.5570	22.2340
 0.5580	22.2370
 0.5590	22.2280
 0.5600	22.2060
 0.5610	22.1690
 0.5620	22.1210
 0.5630	22.0650
 0.5640	22.0010
 0.5650	21.9300
 0.5660	21.8550
 0.5670	21.7740
 0.5680	21.6840
 0.5690	21.5860
 0.5700	21.4860
 0.5710	21.3870
 0.5720	21.2910
 0.5730	21.1950
 0.5740	21.1030
 0.5750	21.0170
 0.5760	20.9280
 0.5770	20.8360
 0.5780	20.7480
 0.5790	20.6700
 0.5800	20.5980
 0.5810	20.5340
 0.5820	20.4800
 0.5830	20.4370
 0.5840	20.3920
 0.5850	20.3460
 0.5860	20.3030
 0.5870	20.2680
 0.5880	20.2320
 0.5890	20.1890
 0.5900	20.1520
 0.5910	20.1190
 0.5920	20.0910
 0.5930	20.0710
 0.5940	20.0540
 0.5950	20.0410
 0.5960	20.0310
 0.5970	20.0190
 0.5980	20.0070
 0.5990	19.9940
 0.6000	19.9760
 0.6010	19.9520
 0.6020	19.9240
 0.6030	19.8920
 0.6040	19.8510
 0.6050	19.8070
 0.6060	19.7570
 0.6070	19.7020
 0.6080	19.6400
 0.6090	19.5780
 0.6100	19.5170
 0.6110	19.4530
 0.6120	19.3880
 0.6130	19.3170
 0.6140	19.2400
 0.6150	19.1670
 0.6160	19.0970
 0.6170	19.0330
 0.6180	18.9760
 0.6190	18.9240
 0.6200	18.8770
 0.6210	18.8390
 0.6220	18.8120
 0.6230	18.7950
 0.6240	18.7870
 0.6250	18.7880
 0.6260	18.7990
 0.6270	18.8140
 0.6280	18.8320
 0.6290	18.8540
 0.6300	18.8730
 0.6310	18.8840
 0.6320	18.8830
 0.6330	18.8660
 0.6340	18.8250
 0.6350	18.7580
 0.6360	18.6630
 0.6370	18.5380
 0.6380	18.3830
 0.6390	18.1990
 0.6400	17.9910
 0.6410	17.7680
 0.6420	17.5330
 0.6430	17.2860
 0.6440	17.0350
 0.6450	16.7830
 0.6460	16.5370
 0.6470	16.3040
 0.6480	16.0900
 0.6490	15.9060
 0.6500	15.7540
 0.6510	15.6320
 0.6520	15.5420
 0.6530	15.4680
 0.6540	15.4000
 0.6550	15.3370
 0.6560	15.2650
 0.6570	15.1750
 0.6580	15.0630
 0.6590	14.9310
 0.6600	14.7780
 0.6610	14.6080
 0.6620	14.4240
 0.6630	14.2340
 0.6640	14.0490
 0.6650	13.8750
 0.6660	13.7110
 0.6670	13.5630
 0.6680	13.4340
 0.6690	13.3300
 0.6700	13.2520
 0.6710	13.1970
 0.6720	13.1660
 0.6730	13.1570
 0.6740	13.1710
 0.6750	13.2070
 0.6760	13.2660
 0.6770	13.3460
 0.6780	13.4500
 0.6790	13.5830
 0.6800	13.7540
 0.6810	13.9730
 0.6820	14.2520
 0.6830	14.6000
 0.6840	15.0210
 0.6850	15.5290
 0.6860	16.1260
 0.6870	16.8100
 0.6880	17.5890
 0.6890	18.4570
 0.6900	19.4050
 0.6910	20.4200
 0.6920	21.4930
 0.6930	22.6110
 0.6940	23.7610
 0.6950	24.9290
 0.6960	26.1060
 0.6970	27.2810
 0.6980	28.4430
 0.6990	29.5890
 0.7000	30.7100
 0.7010	31.7980
 0.7020	32.8430
 0.7030	33.8450
 0.7040	34.8040
 0.7050	35.7180
 0.7060	36.5900
 0.7070	37.4220
 0.7080	38.2170
 0.7090	38.9810
 0.7100	39.7200
 0.7110	40.4330
 0.7120	41.1210
 0.7130	41.7900
 0.7140	42.4350
 0.7150	43.0590
 0.7160	43.6630
 0.7170	44.2500
 0.7180	44.8180
 0.7190	45.3660
 0.7200	45.8950
 0.7210	46.4070
 0.7220	46.9000
 0.7230	47.3730
 0.7240	47.8230
 0.7250	48.2570
 0.7260	48.6720
 0.7270	49.0670
 0.7280	49.4410
 0.7290	49.7980
 0.7300	50.1370
 0.7310	50.4610
 0.7320	50.7650
 0.7330	51.0540
 0.7340	51.3280
 0.7350	51.5850
 0.7360	51.8250
 0.7370	52.0530
 0.7380	52.2700
 0.7390	52.4740
 0.7400	52.6660
 0.7410	52.8440
 0.7420	53.0090
 0.7430	53.1640
 0.7440	53.3090
 0.7450	53.4440
 0.7460	53.5680
 0.7470	53.6820
 0.7480	53.7880
 0.7490	53.8880
 0.7500	53.9820
 0.7510	54.0710
 0.7520	54.1520
 0.7530	54.2270
 0.7540	54.2990
 0.7550	54.3680
 0.7560	54.4350
 0.7570	54.4950
 0.7580	54.5560
 0.7590	54.6160
 0.7600	54.6730
 0.7610	54.7270
 0.7620	54.7790
 0.7630	54.8270
 0.7640	54.8730
 0.7650	54.9180
 0.7660	54.9650
 0.7670	55.0090
 0.7680	55.0490
 0.7690	55.0910
 0.7700	55.1340
 0.7710	55.1750
 0.7720	55.2110
 0.7730	55.2510
 0.7740	55.2920
 0.7750	55.3290
 0.7760	55.3670
 0.7770	55.4070
 0.7780	55.4470
 0.7790	55.4850
 0.7800	55.5220
 0.7810	55.5590
 0.7820	55.5950
 0.7830	55.6310
 0.7840	55.6690
 0.7850	55.7050
 0.7860	55.7380
 0.7870	55.7720
 0.7880	55.8060
 0.7890	55.8390
 0.7900	55.8700
 0.7910	55.9010
 0.7920	55.9320
 0.7930	55.9620
 0.7940	55.9920
 0.7950	56.0180
 0.7960	56.0430
 0.7970	56.0690
 0.7980	56.0920
 0.7990	56.1130
 0.8000	56.1350
 0.8010	56.1580
 0.8020	56.1780
 0.8030	56.1990
 0.8040	56.2190
 0.8050	56.2350
 0.8060	56.2520
 0.8070	56.2680
 0.8080	56.2840
 0.8090	56.3010
 0.8100	56.3150
 0.8110	56.3250
 0.8120	56.3370
 0.8130	56.3500
 0.8140	56.3580
 0.8150	56.3650
 0.8160	56.3770
 0.8170	56.3870
 0.8180	56.3960
 0.8190	56.4060
 0.8200	56.4180
 0.8210	56.4270
 0.8220	56.4350
 0.8230	56.4420
 0.8240	56.4470
 0.8250	56.4520
 0.8260	56.4600
 0.8270	56.4680
 0.8280	56.4690
 0.8290	56.4710
 0.8300	56.4740
 0.8310	56.4760
 0.8320	56.4810
 0.8330	56.4880
 0.8340	56.4960
 0.8350	56.5040
 0.8360	56.5110
 0.8370	56.5200
 0.8380	56.5300
 0.8390	56.5420
 0.8400	56.5530
 0.8410	56.5640
 0.8420	56.5740
 0.8430	56.5820
 0.8440	56.5950
 0.8450	56.6080
 0.8460	56.6160
 0.8470	56.6300
 0.8480	56.6440
 0.8490	56.6580
 0.8500	56.6720
 0.8510	56.6830
 0.8520	56.6950
 0.8530	56.7080
 0.8540	56.7230
 0.8550	56.7360
 0.8560	56.7520
 0.8570	56.7690
 0.8580	56.7780
 0.8590	56.7910
 0.8600	56.8080
 0.8610	56.8250
 0.8620	56.8400
 0.8630	56.8560
 0.8640	56.8730
 0.8650	56.8900
 0.8660	56.9050
 0.8670	56.9200
 0.8680	56.9370
 0.8690	56.9590
 0.8700	56.9740
 0.8710	56.9880
 0.8720	57.0050
 0.8730	57.0240
 0.8740	57.0390
 0.8750	57.0550
 0.8760	57.0750
 0.8770	57.0930
 0.8780	57.1010
 0.8790	57.1140
 0.8800	57.1370
 0.8810	57.1560
 0.8820	57.1710
 0.8830	57.1830
 0.8840	57.1960
 0.8850	57.2130
 0.8860	57.2280
 0.8870	57.2440
 0.8880	57.2600
 0.8890	57.2770
 0.8900	57.2880
 0.8910	57.2990
 0.8920	57.3160
 0.8930	57.3320
 0.8940	57.3460
 0.8950	57.3570
 0.8960	57.3710
 0.8970	57.3820
 0.8980	57.3960
 0.8990	57.4130
 0.9000	57.4280
 0.9010	57.4380
 0.9020	57.4480
 0.9030	57.4590
 0.9040	57.4720
 0.9050	57.4780
 0.9060	57.4860
 0.9070	57.5000
 0.9080	57.5140
 0.9090	57.5210
 0.9100	57.5250
 0.9110	57.5320
 0.9120	57.5430
 0.9130	57.5520
 0.9140	57.5590
 0.9150	57.5660
 0.9160	57.5670
 0.9170	57.5670
 0.9180	57.5670
 0.9190	57.5640
 0.9200	57.5630
 0.9210	57.5600
 0.9220	57.5550
 0.9230	57.5500
 0.9240	57.5390
 0.9250	57.5250
 0.9260	57.5140
 0.9270	57.5080
 0.9280	57.5060
 0.9290	57.4910
 0.9300	57.4640
 0.9310	57.4440
 0.9320	57.4320
 0.9330	57.4110
 0.9340	57.3780
 0.9350	57.3460
 0.9360	57.3220
 0.9370	57.3040
 0.9380	57.2860
 0.9390	57.2550
 0.9400	57.2230
 0.9410	57.1860
 0.9420	57.1460
 0.9430	57.1070
 0.9440	57.0640
 0.9450	57.0190
 0.9460	56.9740
 0.9470	56.9250
 0.9480	56.8640
 0.9490	56.7970
 0.9500	56.7280
 0.9510	56.6440
 0.9520	56.5740
 0.9530	56.5110
 0.9540	56.4450
 0.9550	56.3800
 0.9560	56.3000
 0.9570	56.2150
 0.9580	56.1420
 0.9590	56.0870
 0.9600	56.0390
 0.9610	55.9890
 0.9620	55.9360
 0.9630	55.9030
 0.9640	55.8700
 0.9650	55.8370
 0.9660	55.8100
 0.9670	55.7790
 0.9680	55.7590
 0.9690	55.7480
 0.9700	55.7350
 0.9710	55.7100
 0.9720	55.6960
 0.9730	55.6910
 0.9740	55.6880
 0.9750	55.6810
 0.9760	55.6720
 0.9770	55.6670
 0.9780	55.6690
 0.9790	55.6600
 0.9800	55.6620
 0.9810	55.6730
 0.9820	55.6810
 0.9830	55.6780
 0.9840	55.6760
 0.9850	55.6820
 0.9860	55.6980
 0.9870	55.7120
 0.9880	55.7410
 0.9890	55.7630
 0.9900	55.7530
 0.9910	55.7590
 0.9920	55.7840
 0.9930	55.8110
 0.9940	55.8270
 0.9950	55.8630
 0.9960	55.8820
 0.9970	55.8870
 0.9980	55.9020
 0.9990	55.9340
 1.0000	55.9630
 1.0010	56.6980
 1.0020	56.7200
 1.0030	56.7450
 1.0040	56.7720
 1.0050	56.8000
 1.0060	56.8260
 1.0070	56.8480
 1.0080	56.8730
 1.0090	56.8980
 1.0100	56.9230
 1.0110	56.9470
 1.0120	56.9750
 1.0130	57.0040
 1.0140	57.0310
 1.0150	57.0590
 1.0160	57.0910
 1.0170	57.1150
 1.0180	57.1380
 1.0190	57.1630
 1.0200	57.1850
 1.0210	57.2090
 1.0220	57.2400
 1.0230	57.2690
 1.0240	57.3020
 1.0250	57.3290
 1.0260	57.3530
 1.0270	57.3770
 1.0280	57.3950
 1.0290	57.4170
 1.0300	57.4400
 1.0310	57.4640
 1.0320	57.4890
 1.0330	57.5100
 1.0340	57.5330
 1.0350	57.5540
 1.0360	57.5710
 1.0370	57.5900
 1.0380	57.6080
 1.0390	57.6230
 1.0400	57.6410
 1.0410	57.6610
 1.0420	57.6780
 1.0430	57.6960
 1.0440	57.7110
 1.0450	57.7230
 1.0460	57.7380
 1.0470	57.7550
 1.0480	57.7700
 1.0490	57.7860
 1.0500	57.7990
 1.0510	57.8100
 1.0520	57.8180
 1.0530	57.8290
 1.0540	57.8420
 1.0550	57.8520
 1.0560	57.8620
 1.0570	57.8730
 1.0580	57.8830
 1.0590	57.8920
 1.0600	57.9020
 1.0610	57.9100
 1.0620	57.9150
 1.0630	57.9210
 1.0640	57.9240
 1.0650	57.9300
 1.0660	57.9380
 1.0670	57.9440
 1.0680	57.9500
 1.0690	57.9580
 1.0700	57.9610
 1.0710	57.9590
 1.0720	57.9610
 1.0730	57.9650
 1.0740	57.9650
 1.0750	57.9640
 1.0760	57.9640
 1.0770	57.9620
 1.0780	57.9600
 1.0790	57.9570
 1.0800	57.9550
 1.0810	57.9540
 1.0820	57.9510
 1.0830	57.9510
 1.0840	57.9480
 1.0850	57.9430
 1.0860	57.9370
 1.0870	57.9320
 1.0880	57.9260
 1.0890	57.9180
 1.0900	57.9100
 1.0910	57.9020
 1.0920	57.8940
 1.0930	57.8840
 1.0940	57.8740
 1.0950	57.8650
 1.0960	57.8570
 1.0970	57.8460
 1.0980	57.8350
 1.0990	57.8230
 1.1000	57.8050
 1.1010	57.7900
 1.1020	57.7770
 1.1030	57.7610
 1.1040	57.7480
 1.1050	57.7370
 1.1060	57.7240
 1.1070	57.7110
 1.1080	57.6950
 1.1090	57.6760
 1.1100	57.6590
 1.1110	57.6420
 1.1120	57.6240
 1.1130	57.6080
 1.1140	57.5870
 1.1150	57.5620
 1.1160	57.5370
 1.1170	57.5120
 1.1180	57.4840
 1.1190	57.4540
 1.1200	57.4220
 1.1210	57.3880
 1.1220	57.3490
 1.1230	57.3040
 1.1240	57.2570
 1.1250	57.2030
 1.1260	57.1440
 1.1270	57.0790
 1.1280	57.0110
 1.1290	56.9310
 1.1300	56.8440
 1.1310	56.7480
 1.1320	56.6410
 1.1330	56.5270
 1.1340	56.4040
 1.1350	56.2730
 1.1360	56.1330
 1.1370	55.9870
 1.1380	55.8330
 1.1390	55.6750
 1.1400	55.5110
 1.1410	55.3410
 1.1420	55.1700
 1.1430	54.9970
 1.1440	54.8260
 1.1450	54.6510
 1.1460	54.4850
 1.1470	54.3200
 1.1480	54.1630
 1.1490	54.0110
 1.1500	53.8680
 1.1510	53.7300
 1.1520	53.6000
 1.1530	53.4780
 1.1540	53.3660
 1.1550	53.2620
 1.1560	53.1670
 1.1570	53.0840
 1.1580	53.0060
 1.1590	52.9330
 1.1600	52.8690
 1.1610	52.8100
 1.1620	52.7580
 1.1630	52.7150
 1.1640	52.6760
 1.1650	52.6380
 1.1660	52.6060
 1.1670	52.5750
 1.1680	52.5450
 1.1690	52.5180
 1.1700	52.4960
 1.1710	52.4730
 1.1720	52.4510
 1.1730	52.4300
 1.1740	52.4080
 1.1750	52.3880
 1.1760	52.3680
 1.1770	52.3490
 1.1780	52.3310
 1.1790	52.3080
 1.1800	52.2830
 1.1810	52.2580
 1.1820	52.2340
 1.1830	52.2090
 1.1840	52.1860
 1.1850	52.1630
 1.1860	52.1400
 1.1870	52.1170
 1.1880	52.0950
 1.1890	52.0730
 1.1900	52.0530
 1.1910	52.0330
 1.1920	52.0160
 1.1930	52.0010
 1.1940	51.9870
 1.1950	51.9740
 1.1960	51.9630
 1.1970	51.9520
 1.1980	51.9440
 1.1990	51.9400
 1.2000	51.9380
 1.2010	51.9390
 1.2020	51.9410
 1.2030	51.9450
 1.2040	51.9520
 1.2050	51.9610
 1.2060	51.9730
 1.2070	51.9890
 1.2080	52.0060
 1.2090	52.0260
 1.2100	52.0480
 1.2110	52.0720
 1.2120	52.0970
 1.2130	52.1250
 1.2140	52.1550
 1.2150	52.1860
 1.2160	52.2190
 1.2170	52.2520
 1.2180	52.2860
 1.2190	52.3210
 1.2200	52.3560
 1.2210	52.3940
 1.2220	52.4320
 1.2230	52.4710
 1.2240	52.5090
 1.2250	52.5460
 1.2260	52.5820
 1.2270	52.6170
 1.2280	52.6510
 1.2290	52.6850
 1.2300	52.7170
 1.2310	52.7480
 1.2320	52.7780
 1.2330	52.8070
 1.2340	52.8360
 1.2350	52.8650
 1.2360	52.8920
 1.2370	52.9180
 1.2380	52.9440
 1.2390	52.9680
 1.2400	52.9910
 1.2410	53.0150
 1.2420	53.0350
 1.2430	53.0540
 1.2440	53.0760
 1.2450	53.0950
 1.2460	53.1140
 1.2470	53.1330
 1.2480	53.1480
 1.2490	53.1640
 1.2500	53.1790
 1.2510	53.1930
 1.2520	53.2060
 1.2530	53.2180
 1.2540	53.2300
 1.2550	53.2420
 1.2560	53.2530
 1.2570	53.2650
 1.2580	53.2750
 1.2590	53.2820
 1.2600	53.2870
 1.2610	53.2920
 1.2620	53.2950
 1.2630	53.2960
 1.2640	53.3010
 1.2650	53.3010
 1.2660	53.3000
 1.2670	53.3000
 1.2680	53.2970
 1.2690	53.2930
 1.2700	53.2870
 1.2710	53.2770
 1.2720	53.2660
 1.2730	53.2550
 1.2740	53.2450
 1.2750	53.2310
 1.2760	53.2150
 1.2770	53.1980
 1.2780	53.1790
 1.2790	53.1590
 1.2800	53.1380
 1.2810	53.1130
 1.2820	53.0850
 1.2830	53.0530
 1.2840	53.0190
 1.2850	52.9850
 1.2860	52.9480
 1.2870	52.9090
 1.2880	52.8680
 1.2890	52.8270
 1.2900	52.7830
 1.2910	52.7360
 1.2920	52.6900
 1.2930	52.6370
 1.2940	52.5840
 1.2950	52.5290
 1.2960	52.4690
 1.2970	52.4090
 1.2980	52.3480
 1.2990	52.2800
 1.3000	52.2120
 1.3010	52.1400
 1.3020	52.0660
 1.3030	51.9890
 1.3040	51.9100
 1.3050	51.8290
 1.3060	51.7430
 1.3070	51.6550
 1.3080	51.5670
 1.3090	51.4720
 1.3100	51.3740
 1.3110	51.2720
 1.3120	51.1670
 1.3130	51.0580
 1.3140	50.9460
 1.3150	50.8320
 1.3160	50.7130
 1.3170	50.5910
 1.3180	50.4660
 1.3190	50.3380
 1.3200	50.2090
 1.3210	50.0770
 1.3220	49.9400
 1.3230	49.8000
 1.3240	49.6540
 1.3250	49.5060
 1.3260	49.3560
 1.3270	49.2050
 1.3280	49.0530
 1.3290	48.8950
 1.3300	48.7360
 1.3310	48.5740
 1.3320	48.4080
 1.3330	48.2460
 1.3340	48.0830
 1.3350	47.9180
 1.3360	47.7550
 1.3370	47.5900
 1.3380	47.4240
 1.3390	47.2620
 1.3400	47.1000
 1.3410	46.9400
 1.3420	46.7810
 1.3430	46.6230
 1.3440	46.4660
 1.3450	46.3100
 1.3460	46.1540
 1.3470	46.0030
 1.3480	45.8560
 1.3490	45.7100
 1.3500	45.5670
 1.3510	45.4240
 1.3520	45.2800
 1.3530	45.1360
 1.3540	44.9920
 1.3550	44.8480
 1.3560	44.7030
 1.3570	44.5580
 1.3580	44.4120
 1.3590	44.2620
 1.3600	44.1090
 1.3610	43.9500
 1.3620	43.7850
 1.3630	43.6140
 1.3640	43.4350
 1.3650	43.2470
 1.3660	43.0510
 1.3670	42.8430
 1.3680	42.6210
 1.3690	42.3870
 1.3700	42.1350
 1.3710	41.8670
 1.3720	41.5840
 1.3730	41.2800
 1.3740	40.9590
 1.3750	40.6160
 1.3760	40.2470
 1.3770	39.8530
 1.3780	39.4280
 1.3790	38.9800
 1.3800	38.5080
 1.3810	38.0080
 1.3820	37.4870
 1.3830	36.9440
 1.3840	36.3800
 1.3850	35.7900
 1.3860	35.1900
 1.3870	34.5660
 1.3880	33.9410
 1.3890	33.3040
 1.3900	32.6600
 1.3910	32.0200
 1.3920	31.3790
 1.3930	30.7360
 1.3940	30.1030
 1.3950	29.4700
 1.3960	28.8500
 1.3970	28.2470
 1.3980	27.6590
 1.3990	27.0970
 1.4000	26.5520
 1.4010	26.0240
 1.4020	25.5220
 1.4030	25.0370
 1.4040	24.5760
 1.4050	24.1400
 1.4060	23.7260
 1.4070	23.3390
 1.4080	22.9750
 1.4090	22.6300
 1.4100	22.3090
 1.4110	22.0060
 1.4120	21.7220
 1.4130	21.4590
 1.4140	21.2130
 1.4150	20.9880
 1.4160	20.7780
 1.4170	20.5820
 1.4180	20.4000
 1.4190	20.2290
 1.4200	20.0700
 1.4210	19.9240
 1.4220	19.7880
 1.4230	19.6640
 1.4240	19.5500
 1.4250	19.4410
 1.4260	19.3420
 1.4270	19.2490
 1.4280	19.1630
 1.4290	19.0840
 1.4300	19.0140
 1.4310	18.9480
 1.4320	18.8910
 1.4330	18.8370
 1.4340	18.7880
 1.4350	18.7440
 1.4360	18.7050
 1.4370	18.6700
 1.4380	18.6400
 1.4390	18.6150
 1.4400	18.5940
 1.4410	18.5750
 1.4420	18.5610
 1.4430	18.5480
 1.4440	18.5400
 1.4450	18.5340
 1.4460	18.5310
 1.4470	18.5320
 1.4480	18.5340
 1.4490	18.5380
 1.4500	18.5450
 1.4510	18.5530
 1.4520	18.5640
 1.4530	18.5780
 1.4540	18.5930
 1.4550	18.6100
 1.4560	18.6310
 1.4570	18.6550
 1.4580	18.6820
 1.4590	18.7140
 1.4600	18.7490
 1.4610	18.7870
 1.4620	18.8300
 1.4630	18.8790
 1.4640	18.9310
 1.4650	18.9890
 1.4660	19.0510
 1.4670	19.1170
 1.4680	19.1900
 1.4690	19.2660
 1.4700	19.3480
 1.4710	19.4360
 1.4720	19.5260
 1.4730	19.6210
 1.4740	19.7180
 1.4750	19.8190
 1.4760	19.9240
 1.4770	20.0310
 1.4780	20.1420
