Name: Ceanothus megacarpus 2
Type: vegetation
Class: Shrub
Genus: Ceanothus
Species: megacarpus
Sample No.: VH142
Owner: UCSB
Wavelength Range: VSWIR
Origin: 34.4909; -119.7914; WGS84
Collection Date: 6/3/2013
Description: Samples were collected as part of the HyspIRI Airborne Campaign. 48 individual plants were sampled in three times in 2013 - spring  summer  and fall. The name of the sample includes a 1  2  or 3 which references a different individual of the species. Samples were taken to JPL and processed within 48 hours of collection. The same leaves were processed in the Nicolet and then measured using the ASD.
Measurement: Bidirectional reflectance
First Column: X
Second Column: Y
X Units: Wavelength (micrometers)
Y Units: Reflectance (percentage)
First X Value: 0.35
Last X Value: 2.5
Number of X Values: 2151
Additional Information: vegetation.shrub.ceanothus.megacarpus.vswir.vh142.ucsb.asd.ancillary.txt

 0.3500	 4.2100
 0.3510	 4.3010
 0.3520	 4.2910
 0.3530	 4.1320
 0.3540	 3.9310
 0.3550	 4.1440
 0.3560	 4.2820
 0.3570	 4.2230
 0.3580	 4.0890
 0.3590	 4.2630
 0.3600	 4.4090
 0.3610	 4.3500
 0.3620	 4.2220
 0.3630	 4.1800
 0.3640	 4.2030
 0.3650	 4.2210
 0.3660	 4.2090
 0.3670	 4.2580
 0.3680	 4.3340
 0.3690	 4.3240
 0.3700	 4.2580
 0.3710	 4.2200
 0.3720	 4.2580
 0.3730	 4.3530
 0.3740	 4.3740
 0.3750	 4.3080
 0.3760	 4.2120
 0.3770	 4.2190
 0.3780	 4.1690
 0.3790	 4.0750
 0.3800	 4.1010
 0.3810	 4.1800
 0.3820	 4.2630
 0.3830	 4.3010
 0.3840	 4.2360
 0.3850	 4.2350
 0.3860	 4.2910
 0.3870	 4.3200
 0.3880	 4.2350
 0.3890	 4.1820
 0.3900	 4.2160
 0.3910	 4.2830
 0.3920	 4.2410
 0.3930	 4.1890
 0.3940	 4.2200
 0.3950	 4.2700
 0.3960	 4.2610
 0.3970	 4.2020
 0.3980	 4.1530
 0.3990	 4.1670
 0.4000	 4.1920
 0.4010	 4.1990
 0.4020	 4.1970
 0.4030	 4.1990
 0.4040	 4.2010
 0.4050	 4.1940
 0.4060	 4.1610
 0.4070	 4.1620
 0.4080	 4.1980
 0.4090	 4.2310
 0.4100	 4.2210
 0.4110	 4.2030
 0.4120	 4.2090
 0.4130	 4.2480
 0.4140	 4.2590
 0.4150	 4.2560
 0.4160	 4.2700
 0.4170	 4.2740
 0.4180	 4.2850
 0.4190	 4.3030
 0.4200	 4.3170
 0.4210	 4.3490
 0.4220	 4.3790
 0.4230	 4.3920
 0.4240	 4.4040
 0.4250	 4.4180
 0.4260	 4.4360
 0.4270	 4.4630
 0.4280	 4.4940
 0.4290	 4.5150
 0.4300	 4.5320
 0.4310	 4.5780
 0.4320	 4.5970
 0.4330	 4.6050
 0.4340	 4.6270
 0.4350	 4.6540
 0.4360	 4.6770
 0.4370	 4.6940
 0.4380	 4.7060
 0.4390	 4.7160
 0.4400	 4.7240
 0.4410	 4.7340
 0.4420	 4.7640
 0.4430	 4.7890
 0.4440	 4.8010
 0.4450	 4.8030
 0.4460	 4.8170
 0.4470	 4.8380
 0.4480	 4.8590
 0.4490	 4.8670
 0.4500	 4.8890
 0.4510	 4.9050
 0.4520	 4.9030
 0.4530	 4.9190
 0.4540	 4.9380
 0.4550	 4.9530
 0.4560	 4.9620
 0.4570	 4.9720
 0.4580	 4.9730
 0.4590	 4.9670
 0.4600	 4.9750
 0.4610	 4.9860
 0.4620	 4.9960
 0.4630	 5.0030
 0.4640	 5.0130
 0.4650	 5.0210
 0.4660	 5.0230
 0.4670	 5.0210
 0.4680	 5.0260
 0.4690	 5.0280
 0.4700	 5.0250
 0.4710	 5.0300
 0.4720	 5.0380
 0.4730	 5.0440
 0.4740	 5.0410
 0.4750	 5.0440
 0.4760	 5.0410
 0.4770	 5.0310
 0.4780	 5.0440
 0.4790	 5.0470
 0.4800	 5.0390
 0.4810	 5.0340
 0.4820	 5.0470
 0.4830	 5.0610
 0.4840	 5.0690
 0.4850	 5.0770
 0.4860	 5.0800
 0.4870	 5.0850
 0.4880	 5.0960
 0.4890	 5.1100
 0.4900	 5.1290
 0.4910	 5.1460
 0.4920	 5.1560
 0.4930	 5.1750
 0.4940	 5.2010
 0.4950	 5.2270
 0.4960	 5.2480
 0.4970	 5.2740
 0.4980	 5.3030
 0.4990	 5.3320
 0.5000	 5.3680
 0.5010	 5.4070
 0.5020	 5.4500
 0.5030	 5.5020
 0.5040	 5.5460
 0.5050	 5.5950
 0.5060	 5.6590
 0.5070	 5.7280
 0.5080	 5.8040
 0.5090	 5.8850
 0.5100	 5.9670
 0.5110	 6.0560
 0.5120	 6.1510
 0.5130	 6.2540
 0.5140	 6.3660
 0.5150	 6.4860
 0.5160	 6.6110
 0.5170	 6.7410
 0.5180	 6.8810
 0.5190	 7.0260
 0.5200	 7.1760
 0.5210	 7.3300
 0.5220	 7.4860
 0.5230	 7.6390
 0.5240	 7.7890
 0.5250	 7.9430
 0.5260	 8.0940
 0.5270	 8.2370
 0.5280	 8.3670
 0.5290	 8.4970
 0.5300	 8.6200
 0.5310	 8.7340
 0.5320	 8.8380
 0.5330	 8.9330
 0.5340	 9.0210
 0.5350	 9.1020
 0.5360	 9.1750
 0.5370	 9.2410
 0.5380	 9.3040
 0.5390	 9.3620
 0.5400	 9.4190
 0.5410	 9.4720
 0.5420	 9.5210
 0.5430	 9.5730
 0.5440	 9.6210
 0.5450	 9.6630
 0.5460	 9.6950
 0.5470	 9.7150
 0.5480	 9.7330
 0.5490	 9.7560
 0.5500	 9.7770
 0.5510	 9.7860
 0.5520	 9.7850
 0.5530	 9.7780
 0.5540	 9.7570
 0.5550	 9.7300
 0.5560	 9.6970
 0.5570	 9.6530
 0.5580	 9.6020
 0.5590	 9.5470
 0.5600	 9.4880
 0.5610	 9.4230
 0.5620	 9.3550
 0.5630	 9.2810
 0.5640	 9.2040
 0.5650	 9.1250
 0.5660	 9.0440
 0.5670	 8.9620
 0.5680	 8.8760
 0.5690	 8.7840
 0.5700	 8.6910
 0.5710	 8.5980
 0.5720	 8.5140
 0.5730	 8.4300
 0.5740	 8.3460
 0.5750	 8.2690
 0.5760	 8.1970
 0.5770	 8.1300
 0.5780	 8.0700
 0.5790	 8.0160
 0.5800	 7.9710
 0.5810	 7.9300
 0.5820	 7.8860
 0.5830	 7.8360
 0.5840	 7.7850
 0.5850	 7.7360
 0.5860	 7.6960
 0.5870	 7.6650
 0.5880	 7.6340
 0.5890	 7.5960
 0.5900	 7.5550
 0.5910	 7.5200
 0.5920	 7.4960
 0.5930	 7.4800
 0.5940	 7.4710
 0.5950	 7.4660
 0.5960	 7.4600
 0.5970	 7.4460
 0.5980	 7.4330
 0.5990	 7.4180
 0.6000	 7.3960
 0.6010	 7.3700
 0.6020	 7.3430
 0.6030	 7.3150
 0.6040	 7.2820
 0.6050	 7.2490
 0.6060	 7.2120
 0.6070	 7.1700
 0.6080	 7.1240
 0.6090	 7.0800
 0.6100	 7.0380
 0.6110	 6.9990
 0.6120	 6.9520
 0.6130	 6.9000
 0.6140	 6.8460
 0.6150	 6.7950
 0.6160	 6.7470
 0.6170	 6.7040
 0.6180	 6.6670
 0.6190	 6.6370
 0.6200	 6.6070
 0.6210	 6.5780
 0.6220	 6.5540
 0.6230	 6.5370
 0.6240	 6.5230
 0.6250	 6.5090
 0.6260	 6.4960
 0.6270	 6.4870
 0.6280	 6.4790
 0.6290	 6.4700
 0.6300	 6.4700
 0.6310	 6.4670
 0.6320	 6.4600
 0.6330	 6.4510
 0.6340	 6.4370
 0.6350	 6.4180
 0.6360	 6.3950
 0.6370	 6.3700
 0.6380	 6.3380
 0.6390	 6.2980
 0.6400	 6.2570
 0.6410	 6.2120
 0.6420	 6.1640
 0.6430	 6.1150
 0.6440	 6.0660
 0.6450	 6.0180
 0.6460	 5.9700
 0.6470	 5.9220
 0.6480	 5.8810
 0.6490	 5.8430
 0.6500	 5.8070
 0.6510	 5.7770
 0.6520	 5.7500
 0.6530	 5.7240
 0.6540	 5.6970
 0.6550	 5.6680
 0.6560	 5.6380
 0.6570	 5.6060
 0.6580	 5.5690
 0.6590	 5.5330
 0.6600	 5.4950
 0.6610	 5.4560
 0.6620	 5.4200
 0.6630	 5.3830
 0.6640	 5.3460
 0.6650	 5.3110
 0.6660	 5.2850
 0.6670	 5.2640
 0.6680	 5.2470
 0.6690	 5.2320
 0.6700	 5.2220
 0.6710	 5.2170
 0.6720	 5.2160
 0.6730	 5.2170
 0.6740	 5.2210
 0.6750	 5.2280
 0.6760	 5.2400
 0.6770	 5.2520
 0.6780	 5.2680
 0.6790	 5.2890
 0.6800	 5.3090
 0.6810	 5.3360
 0.6820	 5.3690
 0.6830	 5.4110
 0.6840	 5.4680
 0.6850	 5.5310
 0.6860	 5.6060
 0.6870	 5.7000
 0.6880	 5.8150
 0.6890	 5.9570
 0.6900	 6.1310
 0.6910	 6.3360
 0.6920	 6.5850
 0.6930	 6.8760
 0.6940	 7.2090
 0.6950	 7.5850
 0.6960	 8.0070
 0.6970	 8.4680
 0.6980	 8.9630
 0.6990	 9.4920
 0.7000	10.0560
 0.7010	10.6480
 0.7020	11.2580
 0.7030	11.8800
 0.7040	12.5140
 0.7050	13.1600
 0.7060	13.8100
 0.7070	14.4650
 0.7080	15.1210
 0.7090	15.7800
 0.7100	16.4360
 0.7110	17.0950
 0.7120	17.7560
 0.7130	18.4090
 0.7140	19.0580
 0.7150	19.7040
 0.7160	20.3460
 0.7170	20.9780
 0.7180	21.6060
 0.7190	22.2280
 0.7200	22.8360
 0.7210	23.4300
 0.7220	24.0110
 0.7230	24.5800
 0.7240	25.1340
 0.7250	25.6650
 0.7260	26.1800
 0.7270	26.6810
 0.7280	27.1530
 0.7290	27.6060
 0.7300	28.0400
 0.7310	28.4510
 0.7320	28.8380
 0.7330	29.2070
 0.7340	29.5580
 0.7350	29.8880
 0.7360	30.2000
 0.7370	30.4940
 0.7380	30.7710
 0.7390	31.0280
 0.7400	31.2650
 0.7410	31.4900
 0.7420	31.7090
 0.7430	31.9040
 0.7440	32.0830
 0.7450	32.2490
 0.7460	32.3980
 0.7470	32.5360
 0.7480	32.6650
 0.7490	32.7840
 0.7500	32.8930
 0.7510	32.9930
 0.7520	33.0850
 0.7530	33.1670
 0.7540	33.2440
 0.7550	33.3160
 0.7560	33.3790
 0.7570	33.4300
 0.7580	33.4830
 0.7590	33.5310
 0.7600	33.5720
 0.7610	33.6140
 0.7620	33.6510
 0.7630	33.6850
 0.7640	33.7170
 0.7650	33.7500
 0.7660	33.7760
 0.7670	33.7980
 0.7680	33.8270
 0.7690	33.8460
 0.7700	33.8620
 0.7710	33.8790
 0.7720	33.8960
 0.7730	33.9120
 0.7740	33.9280
 0.7750	33.9450
 0.7760	33.9610
 0.7770	33.9740
 0.7780	33.9850
 0.7790	34.0000
 0.7800	34.0130
 0.7810	34.0280
 0.7820	34.0460
 0.7830	34.0580
 0.7840	34.0680
 0.7850	34.0800
 0.7860	34.0950
 0.7870	34.1000
 0.7880	34.1080
 0.7890	34.1190
 0.7900	34.1310
 0.7910	34.1410
 0.7920	34.1490
 0.7930	34.1580
 0.7940	34.1670
 0.7950	34.1750
 0.7960	34.1800
 0.7970	34.1830
 0.7980	34.1930
 0.7990	34.2010
 0.8000	34.2030
 0.8010	34.1990
 0.8020	34.2060
 0.8030	34.2150
 0.8040	34.2160
 0.8050	34.2040
 0.8060	34.2100
 0.8070	34.2150
 0.8080	34.2130
 0.8090	34.2090
 0.8100	34.2060
 0.8110	34.2060
 0.8120	34.2100
 0.8130	34.2100
 0.8140	34.2000
 0.8150	34.1890
 0.8160	34.1870
 0.8170	34.1850
 0.8180	34.1780
 0.8190	34.1720
 0.8200	34.1700
 0.8210	34.1610
 0.8220	34.1550
 0.8230	34.1510
 0.8240	34.1380
 0.8250	34.1310
 0.8260	34.1220
 0.8270	34.1080
 0.8280	34.0990
 0.8290	34.0890
 0.8300	34.0780
 0.8310	34.0700
 0.8320	34.0600
 0.8330	34.0480
 0.8340	34.0370
 0.8350	34.0300
 0.8360	34.0170
 0.8370	34.0090
 0.8380	34.0050
 0.8390	33.9950
 0.8400	33.9880
 0.8410	33.9860
 0.8420	33.9830
 0.8430	33.9750
 0.8440	33.9660
 0.8450	33.9620
 0.8460	33.9640
 0.8470	33.9620
 0.8480	33.9580
 0.8490	33.9530
 0.8500	33.9490
 0.8510	33.9500
 0.8520	33.9500
 0.8530	33.9430
 0.8540	33.9330
 0.8550	33.9300
 0.8560	33.9340
 0.8570	33.9390
 0.8580	33.9380
 0.8590	33.9330
 0.8600	33.9250
 0.8610	33.9200
 0.8620	33.9260
 0.8630	33.9260
 0.8640	33.9230
 0.8650	33.9250
 0.8660	33.9250
 0.8670	33.9270
 0.8680	33.9280
 0.8690	33.9280
 0.8700	33.9300
 0.8710	33.9360
 0.8720	33.9400
 0.8730	33.9420
 0.8740	33.9420
 0.8750	33.9410
 0.8760	33.9420
 0.8770	33.9540
 0.8780	33.9530
 0.8790	33.9550
 0.8800	33.9660
 0.8810	33.9660
 0.8820	33.9600
 0.8830	33.9580
 0.8840	33.9640
 0.8850	33.9670
 0.8860	33.9700
 0.8870	33.9740
 0.8880	33.9790
 0.8890	33.9750
 0.8900	33.9740
 0.8910	33.9760
 0.8920	33.9780
 0.8930	33.9830
 0.8940	33.9820
 0.8950	33.9790
 0.8960	33.9860
 0.8970	33.9780
 0.8980	33.9740
 0.8990	33.9810
 0.9000	33.9840
 0.9010	33.9810
 0.9020	33.9780
 0.9030	33.9780
 0.9040	33.9830
 0.9050	33.9900
 0.9060	33.9920
 0.9070	33.9880
 0.9080	33.9870
 0.9090	33.9870
 0.9100	33.9860
 0.9110	33.9850
 0.9120	33.9900
 0.9130	33.9900
 0.9140	33.9860
 0.9150	33.9830
 0.9160	33.9710
 0.9170	33.9760
 0.9180	33.9830
 0.9190	33.9690
 0.9200	33.9600
 0.9210	33.9590
 0.9220	33.9570
 0.9230	33.9450
 0.9240	33.9460
 0.9250	33.9350
 0.9260	33.9160
 0.9270	33.9060
 0.9280	33.8930
 0.9290	33.8820
 0.9300	33.8700
 0.9310	33.8480
 0.9320	33.8310
 0.9330	33.8120
 0.9340	33.7880
 0.9350	33.7600
 0.9360	33.7470
 0.9370	33.7250
 0.9380	33.6910
 0.9390	33.6740
 0.9400	33.6480
 0.9410	33.6140
 0.9420	33.5800
 0.9430	33.5470
 0.9440	33.5110
 0.9450	33.4760
 0.9460	33.4420
 0.9470	33.3960
 0.9480	33.3460
 0.9490	33.3010
 0.9500	33.2610
 0.9510	33.2090
 0.9520	33.1440
 0.9530	33.0760
 0.9540	33.0130
 0.9550	32.9340
 0.9560	32.8700
 0.9570	32.8200
 0.9580	32.7680
 0.9590	32.7120
 0.9600	32.6600
 0.9610	32.6030
 0.9620	32.5360
 0.9630	32.4880
 0.9640	32.4510
 0.9650	32.4230
 0.9660	32.4030
 0.9670	32.3830
 0.9680	32.3520
 0.9690	32.3170
 0.9700	32.2910
 0.9710	32.2830
 0.9720	32.2680
 0.9730	32.2470
 0.9740	32.2320
 0.9750	32.2210
 0.9760	32.2160
 0.9770	32.2160
 0.9780	32.2120
 0.9790	32.1970
 0.9800	32.1820
 0.9810	32.1710
 0.9820	32.1680
 0.9830	32.1910
 0.9840	32.2110
 0.9850	32.2200
 0.9860	32.2210
 0.9870	32.2280
 0.9880	32.2180
 0.9890	32.2190
 0.9900	32.2650
 0.9910	32.2740
 0.9920	32.3230
 0.9930	32.3720
 0.9940	32.4210
 0.9950	32.4700
 0.9960	32.5190
 0.9970	32.5680
 0.9980	32.6170
 0.9990	32.6660
 1.0000	32.7150
 1.0010	32.7640
 1.0020	32.8130
 1.0030	32.8620
 1.0040	32.9110
 1.0050	32.9600
 1.0060	33.0090
 1.0070	33.0590
 1.0080	33.1080
 1.0090	33.1570
 1.0100	33.1570
 1.0110	33.1810
 1.0120	33.2060
 1.0130	33.2310
 1.0140	33.2540
 1.0150	33.2760
 1.0160	33.3000
 1.0170	33.3180
 1.0180	33.3370
 1.0190	33.3580
 1.0200	33.3790
 1.0210	33.4000
 1.0220	33.4220
 1.0230	33.4430
 1.0240	33.4630
 1.0250	33.4850
 1.0260	33.5090
 1.0270	33.5290
 1.0280	33.5460
 1.0290	33.5650
 1.0300	33.5850
 1.0310	33.6040
 1.0320	33.6240
 1.0330	33.6440
 1.0340	33.6660
 1.0350	33.6790
 1.0360	33.6950
 1.0370	33.7160
 1.0380	33.7330
 1.0390	33.7490
 1.0400	33.7650
 1.0410	33.7810
 1.0420	33.7970
 1.0430	33.8120
 1.0440	33.8270
 1.0450	33.8400
 1.0460	33.8560
 1.0470	33.8770
 1.0480	33.8920
 1.0490	33.9040
 1.0500	33.9170
 1.0510	33.9300
 1.0520	33.9380
 1.0530	33.9510
 1.0540	33.9690
 1.0550	33.9810
 1.0560	33.9910
 1.0570	34.0010
 1.0580	34.0090
 1.0590	34.0180
 1.0600	34.0270
 1.0610	34.0370
 1.0620	34.0490
 1.0630	34.0590
 1.0640	34.0710
 1.0650	34.0780
 1.0660	34.0810
 1.0670	34.0850
 1.0680	34.0870
 1.0690	34.0860
 1.0700	34.0890
 1.0710	34.0950
 1.0720	34.0980
 1.0730	34.1010
 1.0740	34.1030
 1.0750	34.1060
 1.0760	34.1060
 1.0770	34.1030
 1.0780	34.1010
 1.0790	34.0980
 1.0800	34.0950
 1.0810	34.0940
 1.0820	34.0920
 1.0830	34.0880
 1.0840	34.0830
 1.0850	34.0780
 1.0860	34.0720
 1.0870	34.0660
 1.0880	34.0580
 1.0890	34.0520
 1.0900	34.0470
 1.0910	34.0410
 1.0920	34.0340
 1.0930	34.0260
 1.0940	34.0150
 1.0950	34.0070
 1.0960	34.0010
 1.0970	33.9900
 1.0980	33.9770
 1.0990	33.9650
 1.1000	33.9530
 1.1010	33.9390
 1.1020	33.9240
 1.1030	33.9100
 1.1040	33.8950
 1.1050	33.8800
 1.1060	33.8660
 1.1070	33.8570
 1.1080	33.8420
 1.1090	33.8220
 1.1100	33.8050
 1.1110	33.7860
 1.1120	33.7670
 1.1130	33.7470
 1.1140	33.7260
 1.1150	33.7050
 1.1160	33.6790
 1.1170	33.6530
 1.1180	33.6230
 1.1190	33.5890
 1.1200	33.5520
 1.1210	33.5160
 1.1220	33.4770
 1.1230	33.4350
 1.1240	33.3890
 1.1250	33.3400
 1.1260	33.2880
 1.1270	33.2300
 1.1280	33.1690
 1.1290	33.1050
 1.1300	33.0360
 1.1310	32.9620
 1.1320	32.8860
 1.1330	32.8040
 1.1340	32.7160
 1.1350	32.6210
 1.1360	32.5220
 1.1370	32.4170
 1.1380	32.3040
 1.1390	32.1890
 1.1400	32.0700
 1.1410	31.9470
 1.1420	31.8240
 1.1430	31.6970
 1.1440	31.5680
 1.1450	31.4350
 1.1460	31.3060
 1.1470	31.1740
 1.1480	31.0480
 1.1490	30.9230
 1.1500	30.8060
 1.1510	30.6910
 1.1520	30.5840
 1.1530	30.4790
 1.1540	30.3840
 1.1550	30.2960
 1.1560	30.2140
 1.1570	30.1410
 1.1580	30.0760
 1.1590	30.0180
 1.1600	29.9660
 1.1610	29.9200
 1.1620	29.8790
 1.1630	29.8420
 1.1640	29.8120
 1.1650	29.7850
 1.1660	29.7660
 1.1670	29.7460
 1.1680	29.7300
 1.1690	29.7140
 1.1700	29.7000
 1.1710	29.6870
 1.1720	29.6750
 1.1730	29.6640
 1.1740	29.6540
 1.1750	29.6440
 1.1760	29.6340
 1.1770	29.6240
 1.1780	29.6110
 1.1790	29.5990
 1.1800	29.5860
 1.1810	29.5720
 1.1820	29.5610
 1.1830	29.5490
 1.1840	29.5340
 1.1850	29.5220
 1.1860	29.5080
 1.1870	29.4950
 1.1880	29.4840
 1.1890	29.4730
 1.1900	29.4640
 1.1910	29.4570
 1.1920	29.4510
 1.1930	29.4450
 1.1940	29.4410
 1.1950	29.4380
 1.1960	29.4360
 1.1970	29.4350
 1.1980	29.4340
 1.1990	29.4360
 1.2000	29.4390
 1.2010	29.4470
 1.2020	29.4550
 1.2030	29.4640
 1.2040	29.4730
 1.2050	29.4840
 1.2060	29.4980
 1.2070	29.5120
 1.2080	29.5280
 1.2090	29.5450
 1.2100	29.5640
 1.2110	29.5850
 1.2120	29.6100
 1.2130	29.6330
 1.2140	29.6570
 1.2150	29.6830
 1.2160	29.7090
 1.2170	29.7370
 1.2180	29.7670
 1.2190	29.7970
 1.2200	29.8260
 1.2210	29.8550
 1.2220	29.8830
 1.2230	29.9110
 1.2240	29.9400
 1.2250	29.9690
 1.2260	29.9980
 1.2270	30.0280
 1.2280	30.0570
 1.2290	30.0840
 1.2300	30.1100
 1.2310	30.1340
 1.2320	30.1580
 1.2330	30.1810
 1.2340	30.2030
 1.2350	30.2260
 1.2360	30.2490
 1.2370	30.2700
 1.2380	30.2910
 1.2390	30.3120
 1.2400	30.3310
 1.2410	30.3500
 1.2420	30.3700
 1.2430	30.3890
 1.2440	30.4090
 1.2450	30.4280
 1.2460	30.4460
 1.2470	30.4620
 1.2480	30.4770
 1.2490	30.4930
 1.2500	30.5060
 1.2510	30.5190
 1.2520	30.5310
 1.2530	30.5420
 1.2540	30.5540
 1.2550	30.5650
 1.2560	30.5740
 1.2570	30.5810
 1.2580	30.5870
 1.2590	30.5920
 1.2600	30.5960
 1.2610	30.6010
 1.2620	30.6050
 1.2630	30.6090
 1.2640	30.6140
 1.2650	30.6170
 1.2660	30.6180
 1.2670	30.6200
 1.2680	30.6210
 1.2690	30.6200
 1.2700	30.6170
 1.2710	30.6150
 1.2720	30.6090
 1.2730	30.6030
 1.2740	30.6000
 1.2750	30.5930
 1.2760	30.5870
 1.2770	30.5800
 1.2780	30.5710
 1.2790	30.5620
 1.2800	30.5510
 1.2810	30.5390
 1.2820	30.5270
 1.2830	30.5130
 1.2840	30.4970
 1.2850	30.4810
 1.2860	30.4650
 1.2870	30.4460
 1.2880	30.4270
 1.2890	30.4050
 1.2900	30.3820
 1.2910	30.3540
 1.2920	30.3240
 1.2930	30.2940
 1.2940	30.2630
 1.2950	30.2270
 1.2960	30.1880
 1.2970	30.1490
 1.2980	30.1060
 1.2990	30.0600
 1.3000	30.0140
 1.3010	29.9640
 1.3020	29.9090
 1.3030	29.8540
 1.3040	29.7950
 1.3050	29.7320
 1.3060	29.6680
 1.3070	29.5990
 1.3080	29.5270
 1.3090	29.4530
 1.3100	29.3770
 1.3110	29.2980
 1.3120	29.2140
 1.3130	29.1310
 1.3140	29.0440
 1.3150	28.9550
 1.3160	28.8630
 1.3170	28.7710
 1.3180	28.6730
 1.3190	28.5710
 1.3200	28.4680
 1.3210	28.3610
 1.3220	28.2510
 1.3230	28.1390
 1.3240	28.0240
 1.3250	27.9070
 1.3260	27.7880
 1.3270	27.6660
 1.3280	27.5420
 1.3290	27.4160
 1.3300	27.2880
 1.3310	27.1610
 1.3320	27.0320
 1.3330	26.9040
 1.3340	26.7760
 1.3350	26.6470
 1.3360	26.5180
 1.3370	26.3890
 1.3380	26.2590
 1.3390	26.1300
 1.3400	26.0020
 1.3410	25.8760
 1.3420	25.7490
 1.3430	25.6240
 1.3440	25.5020
 1.3450	25.3800
 1.3460	25.2590
 1.3470	25.1400
 1.3480	25.0240
 1.3490	24.9070
 1.3500	24.7920
 1.3510	24.6800
 1.3520	24.5660
 1.3530	24.4530
 1.3540	24.3410
 1.3550	24.2300
 1.3560	24.1200
 1.3570	24.0090
 1.3580	23.8970
 1.3590	23.7830
 1.3600	23.6670
 1.3610	23.5490
 1.3620	23.4260
 1.3630	23.3000
 1.3640	23.1690
 1.3650	23.0330
 1.3660	22.8950
 1.3670	22.7500
 1.3680	22.5990
 1.3690	22.4380
 1.3700	22.2670
 1.3710	22.0860
 1.3720	21.8940
 1.3730	21.6900
 1.3740	21.4770
 1.3750	21.2500
 1.3760	21.0070
 1.3770	20.7490
 1.3780	20.4730
 1.3790	20.1810
 1.3800	19.8770
 1.3810	19.5560
 1.3820	19.2230
 1.3830	18.8770
 1.3840	18.5200
 1.3850	18.1500
 1.3860	17.7740
 1.3870	17.3860
 1.3880	16.9970
 1.3890	16.6020
 1.3900	16.2040
 1.3910	15.8090
 1.3920	15.4130
 1.3930	15.0180
 1.3940	14.6290
 1.3950	14.2400
 1.3960	13.8600
 1.3970	13.4910
 1.3980	13.1320
 1.3990	12.7890
 1.4000	12.4590
 1.4010	12.1390
 1.4020	11.8350
 1.4030	11.5440
 1.4040	11.2690
 1.4050	11.0100
 1.4060	10.7660
 1.4070	10.5380
 1.4080	10.3250
 1.4090	10.1240
 1.4100	 9.9390
 1.4110	 9.7650
 1.4120	 9.6050
 1.4130	 9.4580
 1.4140	 9.3210
 1.4150	 9.1970
 1.4160	 9.0830
 1.4170	 8.9770
 1.4180	 8.8820
 1.4190	 8.7930
 1.4200	 8.7110
 1.4210	 8.6360
 1.4220	 8.5680
 1.4230	 8.5070
 1.4240	 8.4530
 1.4250	 8.4030
 1.4260	 8.3600
 1.4270	 8.3190
 1.4280	 8.2830
 1.4290	 8.2500
 1.4300	 8.2210
 1.4310	 8.1960
 1.4320	 8.1760
 1.4330	 8.1570
 1.4340	 8.1410
 1.4350	 8.1280
 1.4360	 8.1160
 1.4370	 8.1070
 1.4380	 8.1000
 1.4390	 8.0950
 1.4400	 8.0930
 1.4410	 8.0920
 1.4420	 8.0930
 1.4430	 8.0950
 1.4440	 8.0970
 1.4450	 8.1020
 1.4460	 8.1070
 1.4470	 8.1120
 1.4480	 8.1200
 1.4490	 8.1270
 1.4500	 8.1360
 1.4510	 8.1450
 1.4520	 8.1550
 1.4530	 8.1650
 1.4540	 8.1760
 1.4550	 8.1880
 1.4560	 8.2010
 1.4570	 8.2150
 1.4580	 8.2290
 1.4590	 8.2450
 1.4600	 8.2630
 1.4610	 8.2820
 1.4620	 8.3040
 1.4630	 8.3260
 1.4640	 8.3500
 1.4650	 8.3780
 1.4660	 8.4080
 1.4670	 8.4400
 1.4680	 8.4740
 1.4690	 8.5100
