Name: Melaleuca linariifolia
Type: vegetation
Class: Tree
Genus: Melaleuca
Species: linariifolia
Sample No.: JPL199
Owner: JPL
Wavelength Range: VSWIR
Origin: 34.12579; -118.11322; WGS84
Collection Date: 10/3/2016
Description: Samples were collected at the Huntington Garden in San Marino California as part of a JPL Subcontract studying HyTES imagery. Samples were taken to JPL and processed within 48 hours of collection. The same leaves were processed in the Nicolet and then measured using the ASD.
Measurement: Bidirectional reflectance
First Column: X
Second Column: Y
X Units: Wavelength (micrometer)
Y Units: Reflectance (percentage)
First X Value: 0.35
Last X Value: 2.5
Number of X Values: 2151
Additional Information: vegetation.tree.melaleuca.linariifolia.vswir.jpl199.jpl.asd.ancillary.txt

 0.3500	 3.8050
 0.3510	 3.7190
 0.3520	 3.7730
 0.3530	 3.8460
 0.3540	 3.8240
 0.3550	 3.7560
 0.3560	 3.6890
 0.3570	 3.6720
 0.3580	 3.7380
 0.3590	 3.7940
 0.3600	 3.7680
 0.3610	 3.6760
 0.3620	 3.6450
 0.3630	 3.5870
 0.3640	 3.5780
 0.3650	 3.6660
 0.3660	 3.6810
 0.3670	 3.6180
 0.3680	 3.5450
 0.3690	 3.5690
 0.3700	 3.6320
 0.3710	 3.6440
 0.3720	 3.5870
 0.3730	 3.5760
 0.3740	 3.5750
 0.3750	 3.5670
 0.3760	 3.5540
 0.3770	 3.5980
 0.3780	 3.5920
 0.3790	 3.5250
 0.3800	 3.4750
 0.3810	 3.4710
 0.3820	 3.5030
 0.3830	 3.5350
 0.3840	 3.4760
 0.3850	 3.4560
 0.3860	 3.4720
 0.3870	 3.4760
 0.3880	 3.4950
 0.3890	 3.5160
 0.3900	 3.5280
 0.3910	 3.5310
 0.3920	 3.5030
 0.3930	 3.4640
 0.3940	 3.4420
 0.3950	 3.4750
 0.3960	 3.4980
 0.3970	 3.4990
 0.3980	 3.4910
 0.3990	 3.4850
 0.4000	 3.5020
 0.4010	 3.5250
 0.4020	 3.4960
 0.4030	 3.5130
 0.4040	 3.5480
 0.4050	 3.5580
 0.4060	 3.5560
 0.4070	 3.5760
 0.4080	 3.6050
 0.4090	 3.6080
 0.4100	 3.6480
 0.4110	 3.6720
 0.4120	 3.6640
 0.4130	 3.6950
 0.4140	 3.7240
 0.4150	 3.7480
 0.4160	 3.7730
 0.4170	 3.7940
 0.4180	 3.8230
 0.4190	 3.8560
 0.4200	 3.8780
 0.4210	 3.9040
 0.4220	 3.9310
 0.4230	 3.9540
 0.4240	 3.9750
 0.4250	 3.9950
 0.4260	 4.0150
 0.4270	 4.0390
 0.4280	 4.0620
 0.4290	 4.0860
 0.4300	 4.1120
 0.4310	 4.1380
 0.4320	 4.1530
 0.4330	 4.1640
 0.4340	 4.1810
 0.4350	 4.2090
 0.4360	 4.2240
 0.4370	 4.2280
 0.4380	 4.2440
 0.4390	 4.2530
 0.4400	 4.2570
 0.4410	 4.2610
 0.4420	 4.2790
 0.4430	 4.2890
 0.4440	 4.2980
 0.4450	 4.3230
 0.4460	 4.3470
 0.4470	 4.3570
 0.4480	 4.3610
 0.4490	 4.3830
 0.4500	 4.4000
 0.4510	 4.4160
 0.4520	 4.4360
 0.4530	 4.4390
 0.4540	 4.4460
 0.4550	 4.4610
 0.4560	 4.4720
 0.4570	 4.4750
 0.4580	 4.4750
 0.4590	 4.4730
 0.4600	 4.4700
 0.4610	 4.4630
 0.4620	 4.4600
 0.4630	 4.4720
 0.4640	 4.4700
 0.4650	 4.4620
 0.4660	 4.4530
 0.4670	 4.4500
 0.4680	 4.4470
 0.4690	 4.4460
 0.4700	 4.4500
 0.4710	 4.4500
 0.4720	 4.4440
 0.4730	 4.4380
 0.4740	 4.4380
 0.4750	 4.4410
 0.4760	 4.4410
 0.4770	 4.4400
 0.4780	 4.4450
 0.4790	 4.4490
 0.4800	 4.4490
 0.4810	 4.4450
 0.4820	 4.4450
 0.4830	 4.4490
 0.4840	 4.4550
 0.4850	 4.4590
 0.4860	 4.4630
 0.4870	 4.4680
 0.4880	 4.4740
 0.4890	 4.4800
 0.4900	 4.4880
 0.4910	 4.4970
 0.4920	 4.5080
 0.4930	 4.5230
 0.4940	 4.5410
 0.4950	 4.5620
 0.4960	 4.5860
 0.4970	 4.6140
 0.4980	 4.6420
 0.4990	 4.6690
 0.5000	 4.7030
 0.5010	 4.7390
 0.5020	 4.7790
 0.5030	 4.8280
 0.5040	 4.8800
 0.5050	 4.9360
 0.5060	 4.9960
 0.5070	 5.0610
 0.5080	 5.1290
 0.5090	 5.2000
 0.5100	 5.2720
 0.5110	 5.3540
 0.5120	 5.4450
 0.5130	 5.5410
 0.5140	 5.6400
 0.5150	 5.7460
 0.5160	 5.8600
 0.5170	 5.9820
 0.5180	 6.1010
 0.5190	 6.2230
 0.5200	 6.3480
 0.5210	 6.4750
 0.5220	 6.6030
 0.5230	 6.7310
 0.5240	 6.8570
 0.5250	 6.9790
 0.5260	 7.0950
 0.5270	 7.2070
 0.5280	 7.3150
 0.5290	 7.4150
 0.5300	 7.5060
 0.5310	 7.5870
 0.5320	 7.6600
 0.5330	 7.7300
 0.5340	 7.7930
 0.5350	 7.8440
 0.5360	 7.8900
 0.5370	 7.9340
 0.5380	 7.9730
 0.5390	 8.0090
 0.5400	 8.0540
 0.5410	 8.1060
 0.5420	 8.1590
 0.5430	 8.1990
 0.5440	 8.2220
 0.5450	 8.2280
 0.5460	 8.2200
 0.5470	 8.2050
 0.5480	 8.1940
 0.5490	 8.1910
 0.5500	 8.1900
 0.5510	 8.1890
 0.5520	 8.1820
 0.5530	 8.1660
 0.5540	 8.1480
 0.5550	 8.1190
 0.5560	 8.0810
 0.5570	 8.0400
 0.5580	 7.9920
 0.5590	 7.9390
 0.5600	 7.8810
 0.5610	 7.8150
 0.5620	 7.7450
 0.5630	 7.6720
 0.5640	 7.5990
 0.5650	 7.5280
 0.5660	 7.4520
 0.5670	 7.3710
 0.5680	 7.2900
 0.5690	 7.2080
 0.5700	 7.1260
 0.5710	 7.0440
 0.5720	 6.9620
 0.5730	 6.8820
 0.5740	 6.8070
 0.5750	 6.7390
 0.5760	 6.6750
 0.5770	 6.6110
 0.5780	 6.5500
 0.5790	 6.4950
 0.5800	 6.4430
 0.5810	 6.3940
 0.5820	 6.3540
 0.5830	 6.3170
 0.5840	 6.2790
 0.5850	 6.2380
 0.5860	 6.1980
 0.5870	 6.1630
 0.5880	 6.1300
 0.5890	 6.0970
 0.5900	 6.0650
 0.5910	 6.0350
 0.5920	 6.0080
 0.5930	 5.9840
 0.5940	 5.9600
 0.5950	 5.9380
 0.5960	 5.9180
 0.5970	 5.8940
 0.5980	 5.8740
 0.5990	 5.8570
 0.6000	 5.8410
 0.6010	 5.8210
 0.6020	 5.7980
 0.6030	 5.7730
 0.6040	 5.7490
 0.6050	 5.7180
 0.6060	 5.6840
 0.6070	 5.6490
 0.6080	 5.6140
 0.6090	 5.5860
 0.6100	 5.5690
 0.6110	 5.5590
 0.6120	 5.5210
 0.6130	 5.4660
 0.6140	 5.4070
 0.6150	 5.3620
 0.6160	 5.3210
 0.6170	 5.2830
 0.6180	 5.2470
 0.6190	 5.2160
 0.6200	 5.1900
 0.6210	 5.1670
 0.6220	 5.1420
 0.6230	 5.1190
 0.6240	 5.1010
 0.6250	 5.0870
 0.6260	 5.0730
 0.6270	 5.0620
 0.6280	 5.0550
 0.6290	 5.0490
 0.6300	 5.0440
 0.6310	 5.0350
 0.6320	 5.0210
 0.6330	 5.0040
 0.6340	 4.9840
 0.6350	 4.9600
 0.6360	 4.9290
 0.6370	 4.8930
 0.6380	 4.8530
 0.6390	 4.8100
 0.6400	 4.7630
 0.6410	 4.7140
 0.6420	 4.6640
 0.6430	 4.6150
 0.6440	 4.5640
 0.6450	 4.5140
 0.6460	 4.4660
 0.6470	 4.4250
 0.6480	 4.3880
 0.6490	 4.3570
 0.6500	 4.3310
 0.6510	 4.3080
 0.6520	 4.2900
 0.6530	 4.2750
 0.6540	 4.2620
 0.6550	 4.2440
 0.6560	 4.2270
 0.6570	 4.2070
 0.6580	 4.1830
 0.6590	 4.1570
 0.6600	 4.1290
 0.6610	 4.1000
 0.6620	 4.0720
 0.6630	 4.0440
 0.6640	 4.0170
 0.6650	 3.9940
 0.6660	 3.9760
 0.6670	 3.9620
 0.6680	 3.9510
 0.6690	 3.9460
 0.6700	 3.9460
 0.6710	 3.9520
 0.6720	 3.9630
 0.6730	 3.9820
 0.6740	 4.0020
 0.6750	 4.0250
 0.6760	 4.0530
 0.6770	 4.0890
 0.6780	 4.1300
 0.6790	 4.1740
 0.6800	 4.2200
 0.6810	 4.2750
 0.6820	 4.3370
 0.6830	 4.4010
 0.6840	 4.4730
 0.6850	 4.5540
 0.6860	 4.6410
 0.6870	 4.7350
 0.6880	 4.8440
 0.6890	 4.9720
 0.6900	 5.1240
 0.6910	 5.3060
 0.6920	 5.5190
 0.6930	 5.7650
 0.6940	 6.0460
 0.6950	 6.3670
 0.6960	 6.7270
 0.6970	 7.1210
 0.6980	 7.5470
 0.6990	 8.0100
 0.7000	 8.5040
 0.7010	 9.0260
 0.7020	 9.5720
 0.7030	10.1380
 0.7040	10.7210
 0.7050	11.3210
 0.7060	11.9390
 0.7070	12.5710
 0.7080	13.2160
 0.7090	13.8760
 0.7100	14.5480
 0.7110	15.2370
 0.7120	15.9420
 0.7130	16.6610
 0.7140	17.3950
 0.7150	18.1440
 0.7160	18.9050
 0.7170	19.6780
 0.7180	20.4620
 0.7190	21.2540
 0.7200	22.0520
 0.7210	22.8520
 0.7220	23.6540
 0.7230	24.4560
 0.7240	25.2530
 0.7250	26.0400
 0.7260	26.8160
 0.7270	27.5800
 0.7280	28.3260
 0.7290	29.0550
 0.7300	29.7640
 0.7310	30.4480
 0.7320	31.1090
 0.7330	31.7450
 0.7340	32.3540
 0.7350	32.9380
 0.7360	33.4950
 0.7370	34.0230
 0.7380	34.5200
 0.7390	34.9920
 0.7400	35.4370
 0.7410	35.8530
 0.7420	36.2410
 0.7430	36.6020
 0.7440	36.9370
 0.7450	37.2470
 0.7460	37.5290
 0.7470	37.7900
 0.7480	38.0300
 0.7490	38.2470
 0.7500	38.4440
 0.7510	38.6230
 0.7520	38.7860
 0.7530	38.9350
 0.7540	39.0720
 0.7550	39.1960
 0.7560	39.3060
 0.7570	39.4040
 0.7580	39.4950
 0.7590	39.5780
 0.7600	39.6520
 0.7610	39.7200
 0.7620	39.7790
 0.7630	39.8310
 0.7640	39.8800
 0.7650	39.9210
 0.7660	39.9580
 0.7670	39.9930
 0.7680	40.0240
 0.7690	40.0510
 0.7700	40.0770
 0.7710	40.1020
 0.7720	40.1220
 0.7730	40.1420
 0.7740	40.1620
 0.7750	40.1800
 0.7760	40.2000
 0.7770	40.2180
 0.7780	40.2320
 0.7790	40.2470
 0.7800	40.2630
 0.7810	40.2790
 0.7820	40.2930
 0.7830	40.3070
 0.7840	40.3220
 0.7850	40.3340
 0.7860	40.3460
 0.7870	40.3590
 0.7880	40.3690
 0.7890	40.3760
 0.7900	40.3850
 0.7910	40.3940
 0.7920	40.4030
 0.7930	40.4100
 0.7940	40.4170
 0.7950	40.4250
 0.7960	40.4320
 0.7970	40.4360
 0.7980	40.4360
 0.7990	40.4420
 0.8000	40.4450
 0.8010	40.4410
 0.8020	40.4420
 0.8030	40.4440
 0.8040	40.4440
 0.8050	40.4440
 0.8060	40.4420
 0.8070	40.4410
 0.8080	40.4420
 0.8090	40.4380
 0.8100	40.4350
 0.8110	40.4320
 0.8120	40.4290
 0.8130	40.4200
 0.8140	40.4130
 0.8150	40.4090
 0.8160	40.4050
 0.8170	40.3990
 0.8180	40.3950
 0.8190	40.3920
 0.8200	40.3870
 0.8210	40.3800
 0.8220	40.3740
 0.8230	40.3700
 0.8240	40.3670
 0.8250	40.3620
 0.8260	40.3570
 0.8270	40.3540
 0.8280	40.3450
 0.8290	40.3350
 0.8300	40.3290
 0.8310	40.3300
 0.8320	40.3240
 0.8330	40.3180
 0.8340	40.3130
 0.8350	40.3120
 0.8360	40.3110
 0.8370	40.3100
 0.8380	40.3090
 0.8390	40.3110
 0.8400	40.3100
 0.8410	40.3120
 0.8420	40.3180
 0.8430	40.3220
 0.8440	40.3270
 0.8450	40.3330
 0.8460	40.3370
 0.8470	40.3410
 0.8480	40.3450
 0.8490	40.3500
 0.8500	40.3560
 0.8510	40.3640
 0.8520	40.3710
 0.8530	40.3760
 0.8540	40.3800
 0.8550	40.3860
 0.8560	40.3950
 0.8570	40.4050
 0.8580	40.4130
 0.8590	40.4230
 0.8600	40.4330
 0.8610	40.4410
 0.8620	40.4460
 0.8630	40.4570
 0.8640	40.4680
 0.8650	40.4760
 0.8660	40.4860
 0.8670	40.4980
 0.8680	40.5080
 0.8690	40.5130
 0.8700	40.5220
 0.8710	40.5330
 0.8720	40.5440
 0.8730	40.5540
 0.8740	40.5660
 0.8750	40.5770
 0.8760	40.5870
 0.8770	40.5970
 0.8780	40.6090
 0.8790	40.6200
 0.8800	40.6300
 0.8810	40.6400
 0.8820	40.6500
 0.8830	40.6600
 0.8840	40.6700
 0.8850	40.6700
 0.8860	40.6780
 0.8870	40.6890
 0.8880	40.6940
 0.8890	40.6980
 0.8900	40.7030
 0.8910	40.7110
 0.8920	40.7200
 0.8930	40.7270
 0.8940	40.7330
 0.8950	40.7390
 0.8960	40.7420
 0.8970	40.7480
 0.8980	40.7510
 0.8990	40.7520
 0.9000	40.7590
 0.9010	40.7640
 0.9020	40.7660
 0.9030	40.7680
 0.9040	40.7690
 0.9050	40.7730
 0.9060	40.7770
 0.9070	40.7800
 0.9080	40.7820
 0.9090	40.7830
 0.9100	40.7830
 0.9110	40.7860
 0.9120	40.7900
 0.9130	40.7900
 0.9140	40.7890
 0.9150	40.7910
 0.9160	40.7920
 0.9170	40.7900
 0.9180	40.7850
 0.9190	40.7800
 0.9200	40.7790
 0.9210	40.7730
 0.9220	40.7660
 0.9230	40.7660
 0.9240	40.7570
 0.9250	40.7410
 0.9260	40.7240
 0.9270	40.7140
 0.9280	40.6940
 0.9290	40.6720
 0.9300	40.6540
 0.9310	40.6360
 0.9320	40.6130
 0.9330	40.5870
 0.9340	40.5630
 0.9350	40.5360
 0.9360	40.5050
 0.9370	40.4750
 0.9380	40.4480
 0.9390	40.4170
 0.9400	40.3820
 0.9410	40.3460
 0.9420	40.3080
 0.9430	40.2610
 0.9440	40.2150
 0.9450	40.1680
 0.9460	40.1170
 0.9470	40.0650
 0.9480	40.0030
 0.9490	39.9370
 0.9500	39.8740
 0.9510	39.7970
 0.9520	39.7240
 0.9530	39.6490
 0.9540	39.5640
 0.9550	39.4870
 0.9560	39.4100
 0.9570	39.3350
 0.9580	39.2650
 0.9590	39.2080
 0.9600	39.1520
 0.9610	39.0930
 0.9620	39.0340
 0.9630	38.9940
 0.9640	38.9540
 0.9650	38.9170
 0.9660	38.8910
 0.9670	38.8620
 0.9680	38.8350
 0.9690	38.8080
 0.9700	38.7810
 0.9710	38.7680
 0.9720	38.7510
 0.9730	38.7350
 0.9740	38.7310
 0.9750	38.7090
 0.9760	38.7000
 0.9770	38.6950
 0.9780	38.6740
 0.9790	38.6610
 0.9800	38.6610
 0.9810	38.6620
 0.9820	38.6510
 0.9830	38.6400
 0.9840	38.6550
 0.9850	38.6810
 0.9860	38.6890
 0.9870	38.7000
 0.9880	38.7030
 0.9890	38.7080
 0.9900	38.7300
 0.9910	38.7270
 0.9920	38.7530
 0.9930	38.7880
 0.9940	38.7880
 0.9950	38.8050
 0.9960	38.8180
 0.9970	38.8270
 0.9980	38.8420
 0.9990	38.8780
 1.0000	38.8990
 1.0010	39.7060
 1.0020	39.7240
 1.0030	39.7460
 1.0040	39.7730
 1.0050	39.7990
 1.0060	39.8270
 1.0070	39.8510
 1.0080	39.8760
 1.0090	39.8980
 1.0100	39.9210
 1.0110	39.9430
 1.0120	39.9690
 1.0130	39.9960
 1.0140	40.0220
 1.0150	40.0540
 1.0160	40.0820
 1.0170	40.1050
 1.0180	40.1300
 1.0190	40.1550
 1.0200	40.1790
 1.0210	40.2060
 1.0220	40.2350
 1.0230	40.2630
 1.0240	40.2960
 1.0250	40.3220
 1.0260	40.3470
 1.0270	40.3720
 1.0280	40.3940
 1.0290	40.4170
 1.0300	40.4440
 1.0310	40.4680
 1.0320	40.4880
 1.0330	40.5090
 1.0340	40.5310
 1.0350	40.5500
 1.0360	40.5730
 1.0370	40.5970
 1.0380	40.6190
 1.0390	40.6400
 1.0400	40.6610
 1.0410	40.6820
 1.0420	40.7010
 1.0430	40.7190
 1.0440	40.7370
 1.0450	40.7540
 1.0460	40.7700
 1.0470	40.7840
 1.0480	40.8000
 1.0490	40.8170
 1.0500	40.8320
 1.0510	40.8490
 1.0520	40.8630
 1.0530	40.8750
 1.0540	40.8810
 1.0550	40.8930
 1.0560	40.9060
 1.0570	40.9170
 1.0580	40.9300
 1.0590	40.9400
 1.0600	40.9460
 1.0610	40.9530
 1.0620	40.9610
 1.0630	40.9670
 1.0640	40.9710
 1.0650	40.9760
 1.0660	40.9810
 1.0670	40.9840
 1.0680	40.9870
 1.0690	40.9900
 1.0700	40.9910
 1.0710	40.9900
 1.0720	40.9880
 1.0730	40.9850
 1.0740	40.9830
 1.0750	40.9810
 1.0760	40.9800
 1.0770	40.9840
 1.0780	40.9820
 1.0790	40.9770
 1.0800	40.9720
 1.0810	40.9620
 1.0820	40.9550
 1.0830	40.9520
 1.0840	40.9450
 1.0850	40.9370
 1.0860	40.9290
 1.0870	40.9180
 1.0880	40.9050
 1.0890	40.8940
 1.0900	40.8830
 1.0910	40.8710
 1.0920	40.8580
 1.0930	40.8440
 1.0940	40.8300
 1.0950	40.8150
 1.0960	40.8000
 1.0970	40.7850
 1.0980	40.7710
 1.0990	40.7550
 1.1000	40.7390
 1.1010	40.7220
 1.1020	40.7020
 1.1030	40.6830
 1.1040	40.6660
 1.1050	40.6480
 1.1060	40.6290
 1.1070	40.6090
 1.1080	40.5880
 1.1090	40.5670
 1.1100	40.5440
 1.1110	40.5220
 1.1120	40.4970
 1.1130	40.4700
 1.1140	40.4400
 1.1150	40.4070
 1.1160	40.3750
 1.1170	40.3420
 1.1180	40.3060
 1.1190	40.2690
 1.1200	40.2310
 1.1210	40.1880
 1.1220	40.1390
 1.1230	40.0860
 1.1240	40.0300
 1.1250	39.9670
 1.1260	39.9010
 1.1270	39.8260
 1.1280	39.7450
 1.1290	39.6540
 1.1300	39.5570
 1.1310	39.4480
 1.1320	39.3290
 1.1330	39.2030
 1.1340	39.0670
 1.1350	38.9240
 1.1360	38.7730
 1.1370	38.6150
 1.1380	38.4510
 1.1390	38.2810
 1.1400	38.1030
 1.1410	37.9210
 1.1420	37.7340
 1.1430	37.5450
 1.1440	37.3610
 1.1450	37.1760
 1.1460	36.9960
 1.1470	36.8160
 1.1480	36.6450
 1.1490	36.4770
 1.1500	36.3200
 1.1510	36.1690
 1.1520	36.0270
 1.1530	35.8930
 1.1540	35.7680
 1.1550	35.6500
 1.1560	35.5420
 1.1570	35.4400
 1.1580	35.3470
 1.1590	35.2610
 1.1600	35.1830
 1.1610	35.1110
 1.1620	35.0430
 1.1630	34.9790
 1.1640	34.9180
 1.1650	34.8600
 1.1660	34.8070
 1.1670	34.7560
 1.1680	34.7090
 1.1690	34.6630
 1.1700	34.6200
 1.1710	34.5760
 1.1720	34.5330
 1.1730	34.4880
 1.1740	34.4430
 1.1750	34.3980
 1.1760	34.3520
 1.1770	34.3060
 1.1780	34.2590
 1.1790	34.2130
 1.1800	34.1680
 1.1810	34.1220
 1.1820	34.0760
 1.1830	34.0320
 1.1840	33.9900
 1.1850	33.9500
 1.1860	33.9140
 1.1870	33.8820
 1.1880	33.8530
 1.1890	33.8280
 1.1900	33.8070
 1.1910	33.7910
 1.1920	33.7780
 1.1930	33.7700
 1.1940	33.7650
 1.1950	33.7650
 1.1960	33.7670
 1.1970	33.7710
 1.1980	33.7780
 1.1990	33.7900
 1.2000	33.8010
 1.2010	33.8170
 1.2020	33.8360
 1.2030	33.8550
 1.2040	33.8780
 1.2050	33.9010
 1.2060	33.9240
 1.2070	33.9500
 1.2080	33.9770
 1.2090	34.0080
 1.2100	34.0410
 1.2110	34.0740
 1.2120	34.1090
 1.2130	34.1450
 1.2140	34.1810
 1.2150	34.2200
 1.2160	34.2610
 1.2170	34.3010
 1.2180	34.3420
 1.2190	34.3840
 1.2200	34.4260
 1.2210	34.4710
 1.2220	34.5140
 1.2230	34.5570
 1.2240	34.6020
 1.2250	34.6440
 1.2260	34.6860
 1.2270	34.7270
 1.2280	34.7680
 1.2290	34.8060
 1.2300	34.8420
 1.2310	34.8760
 1.2320	34.9100
 1.2330	34.9420
 1.2340	34.9740
 1.2350	35.0080
 1.2360	35.0380
 1.2370	35.0650
 1.2380	35.0930
 1.2390	35.1180
 1.2400	35.1420
 1.2410	35.1680
 1.2420	35.1920
 1.2430	35.2160
 1.2440	35.2410
 1.2450	35.2640
 1.2460	35.2870
 1.2470	35.3090
 1.2480	35.3310
 1.2490	35.3520
 1.2500	35.3700
 1.2510	35.3870
 1.2520	35.4020
 1.2530	35.4150
 1.2540	35.4290
 1.2550	35.4440
 1.2560	35.4560
 1.2570	35.4670
 1.2580	35.4770
 1.2590	35.4860
 1.2600	35.4920
 1.2610	35.4980
 1.2620	35.5050
 1.2630	35.5100
 1.2640	35.5130
 1.2650	35.5140
 1.2660	35.5160
 1.2670	35.5160
 1.2680	35.5140
 1.2690	35.5120
 1.2700	35.5070
 1.2710	35.5020
 1.2720	35.4960
 1.2730	35.4880
 1.2740	35.4780
 1.2750	35.4680
 1.2760	35.4560
 1.2770	35.4430
 1.2780	35.4280
 1.2790	35.4120
 1.2800	35.3930
 1.2810	35.3700
 1.2820	35.3470
 1.2830	35.3210
 1.2840	35.2940
 1.2850	35.2670
 1.2860	35.2370
 1.2870	35.2050
 1.2880	35.1700
 1.2890	35.1330
 1.2900	35.0920
 1.2910	35.0490
 1.2920	35.0040
 1.2930	34.9570
 1.2940	34.9080
 1.2950	34.8550
 1.2960	34.8000
 1.2970	34.7400
 1.2980	34.6780
 1.2990	34.6140
 1.3000	34.5470
 1.3010	34.4770
 1.3020	34.4040
 1.3030	34.3300
 1.3040	34.2530
 1.3050	34.1720
 1.3060	34.0880
 1.3070	33.9990
 1.3080	33.9090
 1.3090	33.8170
 1.3100	33.7210
 1.3110	33.6220
 1.3120	33.5200
 1.3130	33.4140
 1.3140	33.3050
 1.3150	33.1940
 1.3160	33.0790
 1.3170	32.9610
 1.3180	32.8410
 1.3190	32.7160
 1.3200	32.5890
 1.3210	32.4600
 1.3220	32.3280
 1.3230	32.1920
 1.3240	32.0520
 1.3250	31.9100
 1.3260	31.7650
 1.3270	31.6180
 1.3280	31.4700
 1.3290	31.3200
 1.3300	31.1680
 1.3310	31.0150
 1.3320	30.8610
 1.3330	30.7070
 1.3340	30.5510
 1.3350	30.3910
 1.3360	30.2330
 1.3370	30.0740
 1.3380	29.9170
 1.3390	29.7610
 1.3400	29.6050
 1.3410	29.4500
 1.3420	29.2960
 1.3430	29.1430
 1.3440	28.9930
 1.3450	28.8450
 1.3460	28.6980
 1.3470	28.5530
 1.3480	28.4080
 1.3490	28.2660
 1.3500	28.1260
 1.3510	27.9860
 1.3520	27.8490
 1.3530	27.7140
 1.3540	27.5790
 1.3550	27.4440
 1.3560	27.3090
 1.3570	27.1720
 1.3580	27.0350
 1.3590	26.8980
 1.3600	26.7580
 1.3610	26.6150
 1.3620	26.4670
 1.3630	26.3160
 1.3640	26.1620
 1.3650	26.0000
 1.3660	25.8320
 1.3670	25.6560
 1.3680	25.4700
 1.3690	25.2740
 1.3700	25.0660
 1.3710	24.8470
 1.3720	24.6170
 1.3730	24.3710
 1.3740	24.1140
 1.3750	23.8410
 1.3760	23.5500
 1.3770	23.2410
 1.3780	22.9120
 1.3790	22.5650
 1.3800	22.1990
 1.3810	21.8120
 1.3820	21.4130
 1.3830	20.9980
 1.3840	20.5690
 1.3850	20.1250
 1.3860	19.6750
 1.3870	19.2080
 1.3880	18.7440
 1.3890	18.2740
 1.3900	17.8010
 1.3910	17.3340
 1.3920	16.8690
 1.3930	16.4050
 1.3940	15.9490
 1.3950	15.4970
 1.3960	15.0560
 1.3970	14.6300
 1.3980	14.2160
 1.3990	13.8220
 1.4000	13.4420
 1.4010	13.0760
 1.4020	12.7300
 1.4030	12.3960
 1.4040	12.0800
 1.4050	11.7830
 1.4060	11.5010
 1.4070	11.2400
 1.4080	10.9940
 1.4090	10.7620
 1.4100	10.5470
 1.4110	10.3440
 1.4120	10.1550
 1.4130	 9.9800
 1.4140	 9.8170
 1.4150	 9.6670
 1.4160	 9.5270
 1.4170	 9.3980
 1.4180	 9.2770
 1.4190	 9.1630
 1.4200	 9.0590
 1.4210	 8.9610
 1.4220	 8.8720
 1.4230	 8.7900
 1.4240	 8.7140
 1.4250	 8.6430
 1.4260	 8.5770
 1.4270	 8.5150
 1.4280	 8.4590
 1.4290	 8.4070
 1.4300	 8.3590
 1.4310	 8.3150
 1.4320	 8.2760
 1.4330	 8.2390
 1.4340	 8.2070
 1.4350	 8.1770
 1.4360	 8.1500
 1.4370	 8.1250
 1.4380	 8.1030
 1.4390	 8.0850
 1.4400	 8.0680
 1.4410	 8.0550
 1.4420	 8.0430
 1.4430	 8.0330
 1.4440	 8.0240
 1.4450	 8.0150
 1.4460	 8.0090
 1.4470	 8.0040
 1.4480	 8.0010
 1.4490	 8.0000
 1.4500	 8.0020
 1.4510	 8.0040
 1.4520	 8.0070
 1.4530	 8.0110
 1.4540	 8.0150
 1.4550	 8.0210
 1.4560	 8.0290
 1.4570	 8.0370
 1.4580	 8.0490
 1.4590	 8.0620
 1.4600	 8.0780
 1.4610	 8.0960
 1.4620	 8.1170
 1.4630	 8.1400
 1.4640	 8.1670
 1.4650	 8.1960
 1.4660	 8.2280
 1.4670	 8.2630
 1.4680	 8.3000
 1.4690	 8.3400
 1.4700	 8.3820
 1.4710	 8.4280
 1.4720	 8.4750
 1.4730	 8.5250
 1.4740	 8.5780
 1.4750	 8.6320
 1.4760	 8.6880
