Name: Salix babylonica
Type: vegetation
Class: Tree
Genus: Salix
Species: babylonica
Sample No.: JPL185
Owner: JPL
Wavelength Range: VSWIR
Origin: 34.12829; -118.11638; WGS84
Collection Date: 10/3/2016
Description: Samples were collected at the Huntington Garden in San Marino California as part of a JPL Subcontract studying HyTES imagery. Samples were taken to JPL and processed within 48 hours of collection. The same leaves were processed in the Nicolet and then measured using the ASD.
Measurement: Bidirectional reflectance
First Column: X
Second Column: Y
X Units: Wavelength (micrometer)
Y Units: Reflectance (percentage)
First X Value: 0.35
Last X Value: 2.5
Number of X Values: 2151
Additional Information: vegetation.tree.salix.babylonica.vswir.jpl185.jpl.asd.ancillary.txt

 0.3500	 6.9280
 0.3510	 6.9130
 0.3520	 6.8440
 0.3530	 6.7930
 0.3540	 6.8130
 0.3550	 6.7750
 0.3560	 6.7120
 0.3570	 6.6840
 0.3580	 6.7430
 0.3590	 6.7370
 0.3600	 6.6690
 0.3610	 6.5970
 0.3620	 6.6210
 0.3630	 6.6890
 0.3640	 6.7150
 0.3650	 6.6610
 0.3660	 6.7170
 0.3670	 6.6910
 0.3680	 6.6170
 0.3690	 6.6650
 0.3700	 6.6440
 0.3710	 6.5870
 0.3720	 6.5570
 0.3730	 6.6240
 0.3740	 6.6480
 0.3750	 6.6350
 0.3760	 6.6280
 0.3770	 6.5790
 0.3780	 6.5310
 0.3790	 6.5180
 0.3800	 6.5590
 0.3810	 6.5750
 0.3820	 6.5620
 0.3830	 6.5380
 0.3840	 6.5390
 0.3850	 6.5300
 0.3860	 6.5240
 0.3870	 6.5410
 0.3880	 6.5290
 0.3890	 6.5140
 0.3900	 6.5070
 0.3910	 6.4940
 0.3920	 6.5520
 0.3930	 6.5660
 0.3940	 6.4780
 0.3950	 6.4680
 0.3960	 6.4840
 0.3970	 6.4970
 0.3980	 6.4940
 0.3990	 6.4910
 0.4000	 6.4810
 0.4010	 6.4720
 0.4020	 6.4890
 0.4030	 6.4910
 0.4040	 6.5000
 0.4050	 6.5230
 0.4060	 6.4580
 0.4070	 6.4410
 0.4080	 6.4730
 0.4090	 6.4680
 0.4100	 6.4740
 0.4110	 6.4880
 0.4120	 6.5000
 0.4130	 6.5010
 0.4140	 6.4930
 0.4150	 6.4900
 0.4160	 6.5030
 0.4170	 6.5130
 0.4180	 6.5240
 0.4190	 6.5320
 0.4200	 6.5300
 0.4210	 6.5250
 0.4220	 6.5240
 0.4230	 6.5300
 0.4240	 6.5360
 0.4250	 6.5370
 0.4260	 6.5370
 0.4270	 6.5380
 0.4280	 6.5310
 0.4290	 6.5270
 0.4300	 6.5280
 0.4310	 6.5220
 0.4320	 6.5100
 0.4330	 6.4980
 0.4340	 6.4930
 0.4350	 6.4910
 0.4360	 6.4830
 0.4370	 6.4770
 0.4380	 6.4890
 0.4390	 6.5010
 0.4400	 6.5120
 0.4410	 6.5230
 0.4420	 6.5410
 0.4430	 6.5450
 0.4440	 6.5390
 0.4450	 6.5370
 0.4460	 6.5460
 0.4470	 6.5530
 0.4480	 6.5540
 0.4490	 6.5550
 0.4500	 6.5580
 0.4510	 6.5630
 0.4520	 6.5690
 0.4530	 6.5670
 0.4540	 6.5710
 0.4550	 6.5770
 0.4560	 6.5740
 0.4570	 6.5790
 0.4580	 6.5830
 0.4590	 6.5830
 0.4600	 6.5890
 0.4610	 6.5880
 0.4620	 6.5860
 0.4630	 6.5920
 0.4640	 6.5940
 0.4650	 6.5950
 0.4660	 6.5960
 0.4670	 6.5970
 0.4680	 6.5980
 0.4690	 6.5990
 0.4700	 6.5990
 0.4710	 6.5950
 0.4720	 6.6020
 0.4730	 6.6110
 0.4740	 6.6070
 0.4750	 6.6100
 0.4760	 6.6100
 0.4770	 6.6030
 0.4780	 6.6070
 0.4790	 6.6060
 0.4800	 6.6070
 0.4810	 6.6170
 0.4820	 6.6140
 0.4830	 6.6070
 0.4840	 6.6030
 0.4850	 6.6030
 0.4860	 6.6040
 0.4870	 6.6080
 0.4880	 6.6130
 0.4890	 6.6120
 0.4900	 6.6170
 0.4910	 6.6270
 0.4920	 6.6310
 0.4930	 6.6370
 0.4940	 6.6470
 0.4950	 6.6590
 0.4960	 6.6700
 0.4970	 6.6790
 0.4980	 6.6910
 0.4990	 6.7080
 0.5000	 6.7210
 0.5010	 6.7370
 0.5020	 6.7580
 0.5030	 6.7790
 0.5040	 6.8040
 0.5050	 6.8300
 0.5060	 6.8540
 0.5070	 6.8800
 0.5080	 6.9150
 0.5090	 6.9550
 0.5100	 6.9930
 0.5110	 7.0340
 0.5120	 7.0860
 0.5130	 7.1500
 0.5140	 7.2140
 0.5150	 7.2790
 0.5160	 7.3540
 0.5170	 7.4450
 0.5180	 7.5420
 0.5190	 7.6400
 0.5200	 7.7440
 0.5210	 7.8570
 0.5220	 7.9720
 0.5230	 8.0900
 0.5240	 8.2110
 0.5250	 8.3310
 0.5260	 8.4490
 0.5270	 8.5630
 0.5280	 8.6740
 0.5290	 8.7790
 0.5300	 8.8770
 0.5310	 8.9670
 0.5320	 9.0540
 0.5330	 9.1300
 0.5340	 9.1990
 0.5350	 9.2660
 0.5360	 9.3200
 0.5370	 9.3670
 0.5380	 9.4090
 0.5390	 9.4430
 0.5400	 9.4690
 0.5410	 9.4870
 0.5420	 9.5030
 0.5430	 9.5240
 0.5440	 9.5470
 0.5450	 9.5740
 0.5460	 9.6070
 0.5470	 9.6420
 0.5480	 9.6740
 0.5490	 9.7000
 0.5500	 9.7190
 0.5510	 9.7320
 0.5520	 9.7390
 0.5530	 9.7410
 0.5540	 9.7270
 0.5550	 9.7040
 0.5560	 9.6730
 0.5570	 9.6330
 0.5580	 9.5820
 0.5590	 9.5250
 0.5600	 9.4630
 0.5610	 9.3950
 0.5620	 9.3240
 0.5630	 9.2500
 0.5640	 9.1750
 0.5650	 9.0990
 0.5660	 9.0250
 0.5670	 8.9540
 0.5680	 8.8750
 0.5690	 8.7940
 0.5700	 8.7120
 0.5710	 8.6310
 0.5720	 8.5520
 0.5730	 8.4780
 0.5740	 8.4100
 0.5750	 8.3430
 0.5760	 8.2770
 0.5770	 8.2130
 0.5780	 8.1540
 0.5790	 8.0980
 0.5800	 8.0480
 0.5810	 8.0030
 0.5820	 7.9630
 0.5830	 7.9290
 0.5840	 7.8990
 0.5850	 7.8700
 0.5860	 7.8460
 0.5870	 7.8280
 0.5880	 7.8130
 0.5890	 7.8000
 0.5900	 7.7870
 0.5910	 7.7700
 0.5920	 7.7530
 0.5930	 7.7420
 0.5940	 7.7340
 0.5950	 7.7260
 0.5960	 7.7160
 0.5970	 7.7030
 0.5980	 7.6870
 0.5990	 7.6680
 0.6000	 7.6490
 0.6010	 7.6360
 0.6020	 7.6220
 0.6030	 7.6050
 0.6040	 7.5840
 0.6050	 7.5660
 0.6060	 7.5470
 0.6070	 7.5230
 0.6080	 7.4970
 0.6090	 7.4660
 0.6100	 7.4240
 0.6110	 7.3720
 0.6120	 7.3460
 0.6130	 7.3360
 0.6140	 7.3280
 0.6150	 7.3050
 0.6160	 7.2840
 0.6170	 7.2670
 0.6180	 7.2480
 0.6190	 7.2280
 0.6200	 7.2100
 0.6210	 7.1940
 0.6220	 7.1820
 0.6230	 7.1720
 0.6240	 7.1630
 0.6250	 7.1540
 0.6260	 7.1510
 0.6270	 7.1460
 0.6280	 7.1420
 0.6290	 7.1430
 0.6300	 7.1350
 0.6310	 7.1290
 0.6320	 7.1260
 0.6330	 7.1240
 0.6340	 7.1170
 0.6350	 7.1050
 0.6360	 7.0910
 0.6370	 7.0780
 0.6380	 7.0610
 0.6390	 7.0410
 0.6400	 7.0220
 0.6410	 7.0000
 0.6420	 6.9770
 0.6430	 6.9560
 0.6440	 6.9370
 0.6450	 6.9180
 0.6460	 6.9000
 0.6470	 6.8850
 0.6480	 6.8710
 0.6490	 6.8590
 0.6500	 6.8500
 0.6510	 6.8450
 0.6520	 6.8410
 0.6530	 6.8380
 0.6540	 6.8350
 0.6550	 6.8330
 0.6560	 6.8290
 0.6570	 6.8230
 0.6580	 6.8160
 0.6590	 6.8090
 0.6600	 6.8040
 0.6610	 6.8010
 0.6620	 6.7920
 0.6630	 6.7840
 0.6640	 6.7790
 0.6650	 6.7770
 0.6660	 6.7800
 0.6670	 6.7840
 0.6680	 6.7880
 0.6690	 6.7930
 0.6700	 6.8040
 0.6710	 6.8170
 0.6720	 6.8310
 0.6730	 6.8460
 0.6740	 6.8660
 0.6750	 6.8880
 0.6760	 6.9110
 0.6770	 6.9330
 0.6780	 6.9610
 0.6790	 6.9950
 0.6800	 7.0310
 0.6810	 7.0650
 0.6820	 7.1020
 0.6830	 7.1430
 0.6840	 7.1840
 0.6850	 7.2230
 0.6860	 7.2660
 0.6870	 7.3160
 0.6880	 7.3710
 0.6890	 7.4350
 0.6900	 7.5130
 0.6910	 7.6070
 0.6920	 7.7260
 0.6930	 7.8770
 0.6940	 8.0630
 0.6950	 8.2910
 0.6960	 8.5650
 0.6970	 8.8890
 0.6980	 9.2630
 0.6990	 9.6890
 0.7000	10.1630
 0.7010	10.6820
 0.7020	11.2440
 0.7030	11.8440
 0.7040	12.4800
 0.7050	13.1510
 0.7060	13.8480
 0.7070	14.5740
 0.7080	15.3250
 0.7090	16.1020
 0.7100	16.9000
 0.7110	17.7260
 0.7120	18.5750
 0.7130	19.4440
 0.7140	20.3320
 0.7150	21.2390
 0.7160	22.1600
 0.7170	23.0930
 0.7180	24.0370
 0.7190	24.9900
 0.7200	25.9460
 0.7210	26.9040
 0.7220	27.8570
 0.7230	28.8010
 0.7240	29.7340
 0.7250	30.6530
 0.7260	31.5540
 0.7270	32.4320
 0.7280	33.2860
 0.7290	34.1120
 0.7300	34.9070
 0.7310	35.6710
 0.7320	36.4040
 0.7330	37.1050
 0.7340	37.7730
 0.7350	38.4040
 0.7360	39.0040
 0.7370	39.5710
 0.7380	40.1050
 0.7390	40.6060
 0.7400	41.0740
 0.7410	41.5120
 0.7420	41.9200
 0.7430	42.2980
 0.7440	42.6470
 0.7450	42.9690
 0.7460	43.2670
 0.7470	43.5410
 0.7480	43.7920
 0.7490	44.0200
 0.7500	44.2280
 0.7510	44.4180
 0.7520	44.5910
 0.7530	44.7470
 0.7540	44.8910
 0.7550	45.0210
 0.7560	45.1370
 0.7570	45.2430
 0.7580	45.3400
 0.7590	45.4290
 0.7600	45.5100
 0.7610	45.5810
 0.7620	45.6450
 0.7630	45.7030
 0.7640	45.7540
 0.7650	45.8030
 0.7660	45.8460
 0.7670	45.8820
 0.7680	45.9150
 0.7690	45.9450
 0.7700	45.9740
 0.7710	45.9990
 0.7720	46.0210
 0.7730	46.0430
 0.7740	46.0630
 0.7750	46.0780
 0.7760	46.0950
 0.7770	46.1120
 0.7780	46.1280
 0.7790	46.1420
 0.7800	46.1530
 0.7810	46.1650
 0.7820	46.1770
 0.7830	46.1850
 0.7840	46.1930
 0.7850	46.2010
 0.7860	46.2090
 0.7870	46.2150
 0.7880	46.2190
 0.7890	46.2230
 0.7900	46.2250
 0.7910	46.2240
 0.7920	46.2260
 0.7930	46.2300
 0.7940	46.2300
 0.7950	46.2290
 0.7960	46.2270
 0.7970	46.2230
 0.7980	46.2170
 0.7990	46.2130
 0.8000	46.2080
 0.8010	46.1990
 0.8020	46.1910
 0.8030	46.1830
 0.8040	46.1750
 0.8050	46.1660
 0.8060	46.1570
 0.8070	46.1460
 0.8080	46.1330
 0.8090	46.1200
 0.8100	46.1060
 0.8110	46.0940
 0.8120	46.0830
 0.8130	46.0690
 0.8140	46.0520
 0.8150	46.0370
 0.8160	46.0240
 0.8170	46.0080
 0.8180	45.9940
 0.8190	45.9810
 0.8200	45.9660
 0.8210	45.9510
 0.8220	45.9380
 0.8230	45.9240
 0.8240	45.9090
 0.8250	45.8950
 0.8260	45.8830
 0.8270	45.8690
 0.8280	45.8530
 0.8290	45.8370
 0.8300	45.8220
 0.8310	45.8070
 0.8320	45.7930
 0.8330	45.7780
 0.8340	45.7650
 0.8350	45.7570
 0.8360	45.7480
 0.8370	45.7390
 0.8380	45.7310
 0.8390	45.7260
 0.8400	45.7190
 0.8410	45.7120
 0.8420	45.7060
 0.8430	45.6980
 0.8440	45.6950
 0.8450	45.6930
 0.8460	45.6890
 0.8470	45.6810
 0.8480	45.6770
 0.8490	45.6790
 0.8500	45.6820
 0.8510	45.6790
 0.8520	45.6760
 0.8530	45.6780
 0.8540	45.6830
 0.8550	45.6830
 0.8560	45.6850
 0.8570	45.6910
 0.8580	45.6930
 0.8590	45.6940
 0.8600	45.6970
 0.8610	45.7030
 0.8620	45.7140
 0.8630	45.7210
 0.8640	45.7270
 0.8650	45.7360
 0.8660	45.7440
 0.8670	45.7500
 0.8680	45.7550
 0.8690	45.7620
 0.8700	45.7730
 0.8710	45.7850
 0.8720	45.7950
 0.8730	45.8070
 0.8740	45.8160
 0.8750	45.8250
 0.8760	45.8350
 0.8770	45.8460
 0.8780	45.8580
 0.8790	45.8720
 0.8800	45.8840
 0.8810	45.8950
 0.8820	45.9030
 0.8830	45.9130
 0.8840	45.9290
 0.8850	45.9470
 0.8860	45.9570
 0.8870	45.9630
 0.8880	45.9720
 0.8890	45.9880
 0.8900	46.0000
 0.8910	46.0100
 0.8920	46.0240
 0.8930	46.0330
 0.8940	46.0450
 0.8950	46.0590
 0.8960	46.0680
 0.8970	46.0770
 0.8980	46.0860
 0.8990	46.0960
 0.9000	46.1090
 0.9010	46.1190
 0.9020	46.1240
 0.9030	46.1280
 0.9040	46.1400
 0.9050	46.1530
 0.9060	46.1610
 0.9070	46.1630
 0.9080	46.1690
 0.9090	46.1760
 0.9100	46.1800
 0.9110	46.1810
 0.9120	46.1900
 0.9130	46.1970
 0.9140	46.2030
 0.9150	46.2070
 0.9160	46.2090
 0.9170	46.2110
 0.9180	46.2110
 0.9190	46.2100
 0.9200	46.2160
 0.9210	46.2150
 0.9220	46.2100
 0.9230	46.2070
 0.9240	46.2020
 0.9250	46.1980
 0.9260	46.1920
 0.9270	46.1810
 0.9280	46.1690
 0.9290	46.1590
 0.9300	46.1520
 0.9310	46.1390
 0.9320	46.1220
 0.9330	46.1090
 0.9340	46.0980
 0.9350	46.0750
 0.9360	46.0610
 0.9370	46.0440
 0.9380	46.0220
 0.9390	46.0070
 0.9400	45.9860
 0.9410	45.9650
 0.9420	45.9420
 0.9430	45.9060
 0.9440	45.8760
 0.9450	45.8520
 0.9460	45.8260
 0.9470	45.7840
 0.9480	45.7480
 0.9490	45.7130
 0.9500	45.6710
 0.9510	45.6370
 0.9520	45.5960
 0.9530	45.5500
 0.9540	45.5050
 0.9550	45.4560
 0.9560	45.4120
 0.9570	45.3720
 0.9580	45.3320
 0.9590	45.2970
 0.9600	45.2600
 0.9610	45.2290
 0.9620	45.2110
 0.9630	45.1700
 0.9640	45.1400
 0.9650	45.1210
 0.9660	45.1040
 0.9670	45.0820
 0.9680	45.0570
 0.9690	45.0340
 0.9700	45.0230
 0.9710	45.0210
 0.9720	45.0130
 0.9730	44.9940
 0.9740	44.9700
 0.9750	44.9570
 0.9760	44.9500
 0.9770	44.9470
 0.9780	44.9460
 0.9790	44.9450
 0.9800	44.9330
 0.9810	44.9190
 0.9820	44.9170
 0.9830	44.9220
 0.9840	44.9150
 0.9850	44.9090
 0.9860	44.9240
 0.9870	44.9250
 0.9880	44.9180
 0.9890	44.9150
 0.9900	44.9240
 0.9910	44.9280
 0.9920	44.9330
 0.9930	44.9370
 0.9940	44.9320
 0.9950	44.9230
 0.9960	44.9270
 0.9970	44.9410
 0.9980	44.9540
 0.9990	44.9660
 1.0000	44.9700
 1.0010	44.1300
 1.0020	44.1380
 1.0030	44.1460
 1.0040	44.1600
 1.0050	44.1750
 1.0060	44.1860
 1.0070	44.1960
 1.0080	44.2040
 1.0090	44.2050
 1.0100	44.2130
 1.0110	44.2280
 1.0120	44.2370
 1.0130	44.2460
 1.0140	44.2560
 1.0150	44.2660
 1.0160	44.2730
 1.0170	44.2870
 1.0180	44.3020
 1.0190	44.3100
 1.0200	44.3190
 1.0210	44.3270
 1.0220	44.3340
 1.0230	44.3410
 1.0240	44.3470
 1.0250	44.3560
 1.0260	44.3660
 1.0270	44.3760
 1.0280	44.3930
 1.0290	44.4020
 1.0300	44.4050
 1.0310	44.4110
 1.0320	44.4160
 1.0330	44.4220
 1.0340	44.4310
 1.0350	44.4410
 1.0360	44.4440
 1.0370	44.4500
 1.0380	44.4550
 1.0390	44.4570
 1.0400	44.4610
 1.0410	44.4650
 1.0420	44.4720
 1.0430	44.4820
 1.0440	44.4880
 1.0450	44.4940
 1.0460	44.5000
 1.0470	44.5050
 1.0480	44.5100
 1.0490	44.5180
 1.0500	44.5240
 1.0510	44.5280
 1.0520	44.5290
 1.0530	44.5330
 1.0540	44.5360
 1.0550	44.5420
 1.0560	44.5500
 1.0570	44.5550
 1.0580	44.5600
 1.0590	44.5660
 1.0600	44.5670
 1.0610	44.5730
 1.0620	44.5830
 1.0630	44.5900
 1.0640	44.5980
 1.0650	44.6040
 1.0660	44.6060
 1.0670	44.6100
 1.0680	44.6130
 1.0690	44.6160
 1.0700	44.6210
 1.0710	44.6290
 1.0720	44.6330
 1.0730	44.6350
 1.0740	44.6400
 1.0750	44.6450
 1.0760	44.6500
 1.0770	44.6570
 1.0780	44.6620
 1.0790	44.6660
 1.0800	44.6700
 1.0810	44.6730
 1.0820	44.6760
 1.0830	44.6750
 1.0840	44.6770
 1.0850	44.6810
 1.0860	44.6840
 1.0870	44.6850
 1.0880	44.6870
 1.0890	44.6880
 1.0900	44.6850
 1.0910	44.6860
 1.0920	44.6910
 1.0930	44.6920
 1.0940	44.6940
 1.0950	44.6930
 1.0960	44.6880
 1.0970	44.6860
 1.0980	44.6830
 1.0990	44.6810
 1.1000	44.6790
 1.1010	44.6760
 1.1020	44.6710
 1.1030	44.6670
 1.1040	44.6630
 1.1050	44.6570
 1.1060	44.6510
 1.1070	44.6450
 1.1080	44.6380
 1.1090	44.6290
 1.1100	44.6210
 1.1110	44.6120
 1.1120	44.6040
 1.1130	44.5950
 1.1140	44.5850
 1.1150	44.5730
 1.1160	44.5600
 1.1170	44.5440
 1.1180	44.5290
 1.1190	44.5130
 1.1200	44.4960
 1.1210	44.4800
 1.1220	44.4610
 1.1230	44.4380
 1.1240	44.4140
 1.1250	44.3850
 1.1260	44.3520
 1.1270	44.3160
 1.1280	44.2770
 1.1290	44.2330
 1.1300	44.1860
 1.1310	44.1350
 1.1320	44.0800
 1.1330	44.0210
 1.1340	43.9550
 1.1350	43.8860
 1.1360	43.8130
 1.1370	43.7360
 1.1380	43.6540
 1.1390	43.5690
 1.1400	43.4810
 1.1410	43.3910
 1.1420	43.3010
 1.1430	43.2110
 1.1440	43.1190
 1.1450	43.0250
 1.1460	42.9340
 1.1470	42.8410
 1.1480	42.7540
 1.1490	42.6690
 1.1500	42.5890
 1.1510	42.5130
 1.1520	42.4420
 1.1530	42.3730
 1.1540	42.3120
 1.1550	42.2580
 1.1560	42.2050
 1.1570	42.1580
 1.1580	42.1140
 1.1590	42.0720
 1.1600	42.0370
 1.1610	42.0020
 1.1620	41.9710
 1.1630	41.9450
 1.1640	41.9190
 1.1650	41.8970
 1.1660	41.8800
 1.1670	41.8630
 1.1680	41.8470
 1.1690	41.8330
 1.1700	41.8230
 1.1710	41.8100
 1.1720	41.7970
 1.1730	41.7840
 1.1740	41.7710
 1.1750	41.7570
 1.1760	41.7440
 1.1770	41.7310
 1.1780	41.7170
 1.1790	41.7030
 1.1800	41.6900
 1.1810	41.6800
 1.1820	41.6680
 1.1830	41.6550
 1.1840	41.6410
 1.1850	41.6250
 1.1860	41.6110
 1.1870	41.5970
 1.1880	41.5840
 1.1890	41.5710
 1.1900	41.5610
 1.1910	41.5500
 1.1920	41.5420
 1.1930	41.5380
 1.1940	41.5330
 1.1950	41.5280
 1.1960	41.5250
 1.1970	41.5220
 1.1980	41.5210
 1.1990	41.5200
 1.2000	41.5200
 1.2010	41.5210
 1.2020	41.5210
 1.2030	41.5230
 1.2040	41.5280
 1.2050	41.5330
 1.2060	41.5380
 1.2070	41.5440
 1.2080	41.5500
 1.2090	41.5580
 1.2100	41.5680
 1.2110	41.5780
 1.2120	41.5890
 1.2130	41.6010
 1.2140	41.6130
 1.2150	41.6250
 1.2160	41.6380
 1.2170	41.6520
 1.2180	41.6640
 1.2190	41.6770
 1.2200	41.6910
 1.2210	41.7070
 1.2220	41.7220
 1.2230	41.7380
 1.2240	41.7560
 1.2250	41.7720
 1.2260	41.7860
 1.2270	41.8000
 1.2280	41.8110
 1.2290	41.8210
 1.2300	41.8320
 1.2310	41.8450
 1.2320	41.8580
 1.2330	41.8700
 1.2340	41.8810
 1.2350	41.8940
 1.2360	41.9040
 1.2370	41.9130
 1.2380	41.9210
 1.2390	41.9290
 1.2400	41.9380
 1.2410	41.9460
 1.2420	41.9560
 1.2430	41.9650
 1.2440	41.9710
 1.2450	41.9760
 1.2460	41.9830
 1.2470	41.9880
 1.2480	41.9930
 1.2490	41.9980
 1.2500	42.0030
 1.2510	42.0080
 1.2520	42.0120
 1.2530	42.0170
 1.2540	42.0220
 1.2550	42.0240
 1.2560	42.0260
 1.2570	42.0270
 1.2580	42.0280
 1.2590	42.0290
 1.2600	42.0320
 1.2610	42.0320
 1.2620	42.0310
 1.2630	42.0280
 1.2640	42.0260
 1.2650	42.0230
 1.2660	42.0190
 1.2670	42.0140
 1.2680	42.0070
 1.2690	42.0000
 1.2700	41.9920
 1.2710	41.9820
 1.2720	41.9710
 1.2730	41.9580
 1.2740	41.9420
 1.2750	41.9280
 1.2760	41.9140
 1.2770	41.8980
 1.2780	41.8850
 1.2790	41.8700
 1.2800	41.8530
 1.2810	41.8370
 1.2820	41.8180
 1.2830	41.8000
 1.2840	41.7810
 1.2850	41.7620
 1.2860	41.7400
 1.2870	41.7190
 1.2880	41.6970
 1.2890	41.6760
 1.2900	41.6540
 1.2910	41.6310
 1.2920	41.6080
 1.2930	41.5820
 1.2940	41.5570
 1.2950	41.5330
 1.2960	41.5080
 1.2970	41.4820
 1.2980	41.4520
 1.2990	41.4220
 1.3000	41.3910
 1.3010	41.3590
 1.3020	41.3260
 1.3030	41.2910
 1.3040	41.2550
 1.3050	41.2160
 1.3060	41.1760
 1.3070	41.1330
 1.3080	41.0890
 1.3090	41.0440
 1.3100	40.9950
 1.3110	40.9450
 1.3120	40.8930
 1.3130	40.8350
 1.3140	40.7770
 1.3150	40.7180
 1.3160	40.6550
 1.3170	40.5890
 1.3180	40.5240
 1.3190	40.4540
 1.3200	40.3820
 1.3210	40.3080
 1.3220	40.2310
 1.3230	40.1510
 1.3240	40.0700
 1.3250	39.9870
 1.3260	39.9020
 1.3270	39.8140
 1.3280	39.7230
 1.3290	39.6310
 1.3300	39.5360
 1.3310	39.4400
 1.3320	39.3420
 1.3330	39.2450
 1.3340	39.1460
 1.3350	39.0470
 1.3360	38.9470
 1.3370	38.8430
 1.3380	38.7400
 1.3390	38.6360
 1.3400	38.5310
 1.3410	38.4300
 1.3420	38.3290
 1.3430	38.2280
 1.3440	38.1260
 1.3450	38.0250
 1.3460	37.9250
 1.3470	37.8260
 1.3480	37.7260
 1.3490	37.6280
 1.3500	37.5300
 1.3510	37.4330
 1.3520	37.3360
 1.3530	37.2390
 1.3540	37.1410
 1.3550	37.0420
 1.3560	36.9420
 1.3570	36.8430
 1.3580	36.7440
 1.3590	36.6420
 1.3600	36.5380
 1.3610	36.4320
 1.3620	36.3220
 1.3630	36.2090
 1.3640	36.0900
 1.3650	35.9640
 1.3660	35.8340
 1.3670	35.6960
 1.3680	35.5510
 1.3690	35.3980
 1.3700	35.2330
 1.3710	35.0560
 1.3720	34.8680
 1.3730	34.6650
 1.3740	34.4490
 1.3750	34.2160
 1.3760	33.9650
 1.3770	33.6940
 1.3780	33.4000
 1.3790	33.0890
 1.3800	32.7590
 1.3810	32.4040
 1.3820	32.0320
 1.3830	31.6400
 1.3840	31.2270
 1.3850	30.7940
 1.3860	30.3460
 1.3870	29.8760
 1.3880	29.3990
 1.3890	28.9090
 1.3900	28.4050
 1.3910	27.8990
 1.3920	27.3850
 1.3930	26.8630
 1.3940	26.3420
 1.3950	25.8160
 1.3960	25.2950
 1.3970	24.7840
 1.3980	24.2800
 1.3990	23.7920
 1.4000	23.3160
 1.4010	22.8490
 1.4020	22.4010
 1.4030	21.9660
 1.4040	21.5490
 1.4050	21.1530
 1.4060	20.7740
 1.4070	20.4180
 1.4080	20.0810
 1.4090	19.7610
 1.4100	19.4610
 1.4110	19.1770
 1.4120	18.9110
 1.4130	18.6640
 1.4140	18.4330
 1.4150	18.2200
 1.4160	18.0210
 1.4170	17.8360
 1.4180	17.6640
 1.4190	17.5040
 1.4200	17.3560
 1.4210	17.2190
 1.4220	17.0910
 1.4230	16.9770
 1.4240	16.8700
 1.4250	16.7710
 1.4260	16.6810
 1.4270	16.5970
 1.4280	16.5200
 1.4290	16.4500
 1.4300	16.3870
 1.4310	16.3300
 1.4320	16.2790
 1.4330	16.2330
 1.4340	16.1930
 1.4350	16.1570
 1.4360	16.1250
 1.4370	16.0990
 1.4380	16.0750
 1.4390	16.0560
 1.4400	16.0400
 1.4410	16.0260
 1.4420	16.0160
 1.4430	16.0100
 1.4440	16.0060
 1.4450	16.0040
 1.4460	16.0060
 1.4470	16.0080
 1.4480	16.0130
 1.4490	16.0210
 1.4500	16.0280
 1.4510	16.0370
 1.4520	16.0480
 1.4530	16.0590
 1.4540	16.0740
 1.4550	16.0910
 1.4560	16.1110
 1.4570	16.1350
 1.4580	16.1610
 1.4590	16.1910
 1.4600	16.2240
 1.4610	16.2600
 1.4620	16.3000
 1.4630	16.3460
 1.4640	16.3940
 1.4650	16.4480
 1.4660	16.5070
 1.4670	16.5710
 1.4680	16.6400
 1.4690	16.7130
 1.4700	16.7900
 1.4710	16.8700
 1.4720	16.9540
 1.4730	17.0420
 1.4740	17.1330
 1.4750	17.2270
 1.4760	17.3260
 1.4770	17.4280
 1.4780	17.5320
