Name: Heteromeles arbutifolia 2
Type: vegetation
Class: Shrub
Genus: Heteromeles
Species: arbutifolia
Sample No.: VH136
Owner: UCSB
Wavelength Range: TIR
Origin: 34.4907; -119.7912; WGS84
Collection Date: 6/3/2013
Description: Samples were collected as part of the HyspIRI Airborne Campaign. 48 individual plants were sampled in three times in 2013 - spring  summer  and fall. The name of the sample includes a 1  2  or 3 which references a different individual of the species. Samples were taken to JPL and processed within 48 hours of collection. The same leaves were processed in the Nicolet and then measured using the ASD.
Measurement: Hemispherical reflectance
First Column: X
Second Column: Y
X Units: Wavelength (micrometers)
Y Units: Reflectance (percentage)
First X Value: 2.501
Last X Value: 15.387
Number of X Values: 1737
Additional Information: vegetation.shrub.heteromeles.arbutifolia.tir.vh136.ucsb.nicolet.ancillary.txt

 2.5010	 7.2340
 2.5030	 7.1450
 2.5040	 7.1030
 2.5050	 7.0370
 2.5060	 7.0630
 2.5070	 7.0490
 2.5090	 7.1250
 2.5100	 7.0810
 2.5110	 7.0120
 2.5120	 6.9330
 2.5140	 6.8680
 2.5150	 6.8980
 2.5160	 7.0950
 2.5170	 7.0590
 2.5180	 6.9590
 2.5200	 6.8220
 2.5210	 6.9280
 2.5220	 6.8330
 2.5230	 6.7340
 2.5250	 6.9070
 2.5260	 7.0420
 2.5270	 6.8730
 2.5280	 6.8100
 2.5290	 6.7440
 2.5310	 6.7940
 2.5320	 6.8010
 2.5330	 6.8630
 2.5340	 6.8370
 2.5360	 6.8880
 2.5370	 6.8690
 2.5380	 6.9680
 2.5390	 6.9160
 2.5410	 6.8710
 2.5420	 6.8880
 2.5430	 7.0810
 2.5440	 7.1080
 2.5460	 7.0110
 2.5470	 6.8420
 2.5480	 6.9100
 2.5490	 6.8850
 2.5510	 6.9620
 2.5520	 7.0230
 2.5530	 7.0220
 2.5540	 6.9230
 2.5560	 6.9540
 2.5570	 6.9420
 2.5580	 6.9750
 2.5590	 6.9600
 2.5610	 6.9280
 2.5620	 6.9200
 2.5630	 6.9470
 2.5640	 6.8790
 2.5660	 6.9060
 2.5670	 6.7990
 2.5680	 6.8110
 2.5700	 6.8720
 2.5710	 6.9150
 2.5720	 6.8540
 2.5730	 6.8960
 2.5750	 6.9340
 2.5760	 6.9430
 2.5770	 6.8580
 2.5790	 6.9000
 2.5800	 6.8590
 2.5810	 6.8250
 2.5820	 6.7940
 2.5840	 6.8390
 2.5850	 6.8690
 2.5860	 6.8550
 2.5880	 6.7620
 2.5890	 6.7920
 2.5900	 6.7050
 2.5910	 6.8210
 2.5930	 6.7860
 2.5940	 6.7740
 2.5950	 6.6910
 2.5970	 6.6300
 2.5980	 6.5960
 2.5990	 6.6980
 2.6000	 6.7720
 2.6020	 6.6630
 2.6030	 6.4700
 2.6040	 6.5540
 2.6060	 6.6430
 2.6070	 6.6830
 2.6080	 6.5520
 2.6100	 6.5030
 2.6110	 6.5010
 2.6120	 6.5300
 2.6140	 6.4300
 2.6150	 6.4300
 2.6160	 6.3610
 2.6180	 6.3600
 2.6190	 6.2720
 2.6200	 6.3390
 2.6220	 6.3710
 2.6230	 6.3940
 2.6240	 6.3120
 2.6260	 6.3650
 2.6270	 6.3090
 2.6280	 6.2690
 2.6300	 6.1490
 2.6310	 6.1050
 2.6320	 6.1450
 2.6340	 6.2020
 2.6350	 6.0670
 2.6360	 6.1590
 2.6380	 6.1690
 2.6390	 6.0450
 2.6400	 5.9640
 2.6420	 6.0780
 2.6430	 5.9360
 2.6440	 5.9090
 2.6460	 5.9620
 2.6470	 5.9540
 2.6480	 5.8040
 2.6500	 5.7760
 2.6510	 5.7880
 2.6520	 5.8220
 2.6540	 5.7180
 2.6550	 5.7790
 2.6560	 5.7820
 2.6580	 5.7160
 2.6590	 5.6690
 2.6610	 5.8060
 2.6620	 5.7890
 2.6630	 5.7520
 2.6650	 5.7800
 2.6660	 5.8160
 2.6670	 5.7520
 2.6690	 5.7790
 2.6700	 5.6890
 2.6720	 5.6260
 2.6730	 5.5600
 2.6740	 5.5810
 2.6760	 5.5940
 2.6770	 5.5370
 2.6780	 5.4480
 2.6800	 5.5590
 2.6810	 5.5770
 2.6830	 5.5710
 2.6840	 5.6000
 2.6850	 5.5980
 2.6870	 5.5340
 2.6880	 5.5570
 2.6900	 5.4790
 2.6910	 5.4660
 2.6920	 5.4590
 2.6940	 5.4720
 2.6950	 5.5190
 2.6970	 5.7130
 2.6980	 5.6260
 2.6990	 5.6120
 2.7010	 5.6130
 2.7020	 5.7020
 2.7040	 5.6430
 2.7050	 5.6330
 2.7060	 5.5610
 2.7080	 5.6400
 2.7090	 5.6790
 2.7110	 5.7630
 2.7120	 5.6880
 2.7130	 5.6460
 2.7150	 5.6590
 2.7160	 5.7290
 2.7180	 5.7670
 2.7190	 5.7810
 2.7210	 5.7440
 2.7220	 5.7960
 2.7230	 5.6190
 2.7250	 5.5610
 2.7260	 5.5680
 2.7280	 5.5540
 2.7290	 5.5640
 2.7310	 5.6570
 2.7320	 5.7070
 2.7330	 5.7260
 2.7350	 5.6600
 2.7360	 5.8090
 2.7380	 5.7940
 2.7390	 5.7930
 2.7410	 5.8400
 2.7420	 5.8860
 2.7440	 5.7860
 2.7450	 5.8460
 2.7470	 5.7530
 2.7480	 5.7730
 2.7490	 5.7930
 2.7510	 5.8310
 2.7520	 5.8230
 2.7540	 5.7840
 2.7550	 5.6990
 2.7570	 5.7930
 2.7580	 5.8720
 2.7600	 5.9230
 2.7610	 5.8320
 2.7630	 5.8030
 2.7640	 5.7830
 2.7660	 5.8550
 2.7670	 5.7770
 2.7680	 5.8480
 2.7700	 5.8110
 2.7710	 5.7870
 2.7730	 5.7770
 2.7740	 5.9360
 2.7760	 5.8480
 2.7770	 5.7380
 2.7790	 5.6850
 2.7800	 5.7160
 2.7820	 5.7320
 2.7830	 5.8290
 2.7850	 5.8470
 2.7860	 5.9510
 2.7880	 5.9430
 2.7890	 5.9130
 2.7910	 5.8620
 2.7920	 5.8680
 2.7940	 5.8150
 2.7950	 5.9390
 2.7970	 6.0000
 2.7980	 6.0840
 2.8000	 5.9210
 2.8010	 5.8290
 2.8030	 5.8370
 2.8040	 5.8860
 2.8060	 5.8300
 2.8070	 5.9180
 2.8090	 5.8750
 2.8110	 5.9510
 2.8120	 5.9590
 2.8140	 5.9460
 2.8150	 5.8680
 2.8170	 5.9220
 2.8180	 6.0060
 2.8200	 5.9300
 2.8210	 5.7500
 2.8230	 5.8620
 2.8240	 5.8890
 2.8260	 6.0320
 2.8270	 6.0430
 2.8290	 6.0900
 2.8300	 5.8360
 2.8320	 5.8070
 2.8340	 6.0200
 2.8350	 6.1530
 2.8370	 5.9960
 2.8380	 5.9230
 2.8400	 5.8890
 2.8410	 5.9800
 2.8430	 5.9450
 2.8440	 5.9650
 2.8460	 5.9220
 2.8480	 6.0050
 2.8490	 5.9630
 2.8510	 5.9080
 2.8520	 5.8500
 2.8540	 5.8530
 2.8550	 5.9560
 2.8570	 6.0860
 2.8590	 5.9510
 2.8600	 5.9080
 2.8620	 5.9090
 2.8630	 5.9450
 2.8650	 5.9290
 2.8660	 6.1010
 2.8680	 6.1370
 2.8700	 6.1900
 2.8710	 6.0370
 2.8730	 5.9890
 2.8740	 5.8740
 2.8760	 5.9250
 2.8780	 6.0820
 2.8790	 6.1680
 2.8810	 6.1010
 2.8820	 6.0170
 2.8840	 5.9040
 2.8860	 5.9360
 2.8870	 5.8220
 2.8890	 5.8200
 2.8900	 5.8620
 2.8920	 6.0100
 2.8940	 6.0200
 2.8950	 6.0640
 2.8970	 5.8230
 2.8980	 5.8830
 2.9000	 5.9500
 2.9020	 5.9820
 2.9030	 5.9310
 2.9050	 6.0270
 2.9070	 5.9340
 2.9080	 5.8170
 2.9100	 5.7840
 2.9120	 5.9740
 2.9130	 5.9980
 2.9150	 6.0420
 2.9160	 6.0520
 2.9180	 6.1360
 2.9200	 6.0560
 2.9210	 5.9780
 2.9230	 5.9250
 2.9250	 5.8860
 2.9260	 5.8260
 2.9280	 5.9070
 2.9300	 5.8880
 2.9310	 5.9300
 2.9330	 5.8390
 2.9350	 5.7990
 2.9360	 5.8680
 2.9380	 6.0670
 2.9400	 6.1070
 2.9410	 6.0380
 2.9430	 5.8940
 2.9450	 5.9400
 2.9460	 5.9550
 2.9480	 6.0460
 2.9500	 5.9780
 2.9510	 5.9890
 2.9530	 6.0610
 2.9550	 6.1110
 2.9560	 6.0340
 2.9580	 6.0130
 2.9600	 6.0040
 2.9610	 6.0440
 2.9630	 5.8860
 2.9650	 5.8900
 2.9660	 5.9220
 2.9680	 6.0280
 2.9700	 5.9420
 2.9720	 5.8750
 2.9730	 5.8480
 2.9750	 5.9480
 2.9770	 5.9940
 2.9780	 6.0850
 2.9800	 5.9480
 2.9820	 5.8140
 2.9840	 5.7040
 2.9850	 5.8140
 2.9870	 5.8810
 2.9890	 5.9350
 2.9900	 5.9140
 2.9920	 5.9320
 2.9940	 5.8670
 2.9960	 5.9400
 2.9970	 5.9060
 2.9990	 5.8900
 3.0010	 5.8720
 3.0030	 5.9350
 3.0040	 5.8560
 3.0060	 5.8260
 3.0080	 5.8080
 3.0100	 5.8610
 3.0110	 5.9070
 3.0130	 6.0280
 3.0150	 5.9130
 3.0170	 5.8950
 3.0180	 5.8490
 3.0200	 5.8280
 3.0220	 5.7450
 3.0240	 5.7820
 3.0250	 5.7840
 3.0270	 5.8390
 3.0290	 5.8470
 3.0310	 5.9590
 3.0320	 5.9550
 3.0340	 5.8770
 3.0360	 5.8230
 3.0380	 5.8390
 3.0400	 5.7770
 3.0410	 5.8520
 3.0430	 5.9080
 3.0450	 6.0140
 3.0470	 5.9450
 3.0480	 5.9000
 3.0500	 5.8290
 3.0520	 5.8900
 3.0540	 5.7640
 3.0560	 5.7040
 3.0570	 5.7360
 3.0590	 5.8080
 3.0610	 5.6850
 3.0630	 5.6530
 3.0650	 5.7150
 3.0660	 5.8080
 3.0680	 5.7580
 3.0700	 5.7950
 3.0720	 5.7800
 3.0740	 5.8070
 3.0760	 5.7690
 3.0770	 5.8750
 3.0790	 5.7300
 3.0810	 5.6860
 3.0830	 5.7450
 3.0850	 5.7800
 3.0870	 5.5930
 3.0880	 5.6100
 3.0900	 5.7510
 3.0920	 5.7240
 3.0940	 5.6290
 3.0960	 5.7270
 3.0980	 5.7390
 3.0990	 5.7780
 3.1010	 5.6620
 3.1030	 5.6090
 3.1050	 5.5920
 3.1070	 5.6560
 3.1090	 5.6210
 3.1110	 5.5740
 3.1120	 5.5840
 3.1140	 5.7140
 3.1160	 5.7360
 3.1180	 5.7500
 3.1200	 5.7210
 3.1220	 5.6840
 3.1240	 5.6050
 3.1260	 5.6620
 3.1270	 5.6250
 3.1290	 5.6080
 3.1310	 5.6680
 3.1330	 5.7570
 3.1350	 5.6580
 3.1370	 5.6270
 3.1390	 5.5560
 3.1410	 5.5710
 3.1430	 5.5660
 3.1450	 5.5810
 3.1460	 5.5160
 3.1480	 5.6130
 3.1500	 5.6210
 3.1520	 5.6570
 3.1540	 5.7100
 3.1560	 5.7440
 3.1580	 5.6750
 3.1600	 5.6160
 3.1620	 5.5180
 3.1640	 5.5910
 3.1660	 5.6150
 3.1680	 5.6040
 3.1700	 5.4200
 3.1710	 5.4160
 3.1730	 5.4690
 3.1750	 5.5670
 3.1770	 5.4910
 3.1790	 5.4770
 3.1810	 5.4770
 3.1830	 5.5350
 3.1850	 5.5420
 3.1870	 5.5700
 3.1890	 5.5210
 3.1910	 5.5590
 3.1930	 5.5140
 3.1950	 5.5030
 3.1970	 5.5270
 3.1990	 5.5340
 3.2010	 5.4860
 3.2030	 5.5650
 3.2050	 5.5340
 3.2070	 5.4940
 3.2090	 5.4050
 3.2110	 5.5030
 3.2130	 5.5510
 3.2150	 5.5370
 3.2170	 5.4710
 3.2190	 5.4750
 3.2210	 5.4380
 3.2230	 5.4010
 3.2250	 5.3590
 3.2270	 5.4980
 3.2290	 5.5840
 3.2310	 5.5050
 3.2330	 5.3180
 3.2350	 5.2760
 3.2370	 5.3160
 3.2390	 5.4750
 3.2410	 5.4960
 3.2430	 5.4440
 3.2450	 5.3580
 3.2470	 5.3990
 3.2490	 5.3790
 3.2510	 5.4190
 3.2530	 5.5290
 3.2550	 5.5410
 3.2570	 5.3770
 3.2590	 5.3590
 3.2610	 5.3700
 3.2630	 5.3570
 3.2650	 5.3510
 3.2670	 5.4420
 3.2690	 5.4160
 3.2720	 5.3400
 3.2740	 5.3490
 3.2760	 5.3950
 3.2780	 5.3300
 3.2800	 5.2880
 3.2820	 5.2540
 3.2840	 5.3130
 3.2860	 5.2600
 3.2880	 5.3390
 3.2900	 5.3060
 3.2920	 5.2930
 3.2940	 5.3360
 3.2960	 5.4120
 3.2990	 5.3080
 3.3010	 5.2190
 3.3030	 5.2370
 3.3050	 5.2530
 3.3070	 5.1530
 3.3090	 5.2400
 3.3110	 5.2220
 3.3130	 5.1910
 3.3150	 5.1650
 3.3180	 5.1730
 3.3200	 5.1620
 3.3220	 5.1930
 3.3240	 5.1580
 3.3260	 5.1370
 3.3280	 5.0210
 3.3300	 5.0660
 3.3330	 5.0330
 3.3350	 5.0710
 3.3370	 5.0900
 3.3390	 5.1600
 3.3410	 5.1730
 3.3430	 5.1830
 3.3450	 5.1040
 3.3480	 5.0380
 3.3500	 4.9930
 3.3520	 5.0320
 3.3540	 4.9660
 3.3560	 4.9870
 3.3580	 4.9770
 3.3610	 4.9980
 3.3630	 4.9410
 3.3650	 4.9150
 3.3670	 4.8770
 3.3690	 4.9440
 3.3720	 4.9360
 3.3740	 5.0010
 3.3760	 5.0070
 3.3780	 4.9840
 3.3800	 4.9460
 3.3830	 4.9820
 3.3850	 5.0040
 3.3870	 4.9970
 3.3890	 4.8250
 3.3910	 4.8570
 3.3940	 4.9520
 3.3960	 4.9860
 3.3980	 5.0200
 3.4000	 5.1420
 3.4020	 5.2820
 3.4050	 5.4090
 3.4070	 5.5680
 3.4090	 5.8470
 3.4110	 6.1130
 3.4140	 6.5340
 3.4160	 6.8430
 3.4180	 7.2720
 3.4200	 7.8190
 3.4230	 8.6610
 3.4250	 9.6590
 3.4270	10.6350
 3.4290	11.0180
 3.4320	10.4260
 3.4340	 9.2900
 3.4360	 8.4510
 3.4390	 7.9550
 3.4410	 7.6620
 3.4430	 7.3260
 3.4450	 7.1440
 3.4480	 7.0960
 3.4500	 7.0420
 3.4520	 6.9570
 3.4550	 6.9950
 3.4570	 6.8670
 3.4590	 6.7560
 3.4620	 6.6430
 3.4640	 6.6140
 3.4660	 6.5960
 3.4680	 6.5230
 3.4710	 6.3590
 3.4730	 6.2700
 3.4750	 6.1790
 3.4780	 6.1800
 3.4800	 6.1630
 3.4820	 6.2470
 3.4850	 6.1170
 3.4870	 5.9870
 3.4890	 5.9730
 3.4920	 6.0500
 3.4940	 5.9920
 3.4970	 6.0610
 3.4990	 6.2470
 3.5010	 6.6190
 3.5040	 7.0700
 3.5060	 7.8250
 3.5080	 9.0640
 3.5110	10.0260
 3.5130	 9.5800
 3.5160	 8.5510
 3.5180	 7.8010
 3.5200	 7.4250
 3.5230	 7.1550
 3.5250	 6.9200
 3.5270	 6.7730
 3.5300	 6.7190
 3.5320	 6.6110
 3.5350	 6.5320
 3.5370	 6.4570
 3.5400	 6.5000
 3.5420	 6.4200
 3.5440	 6.2960
 3.5470	 6.2720
 3.5490	 6.3520
 3.5520	 6.3680
 3.5540	 6.3720
 3.5570	 6.3000
 3.5590	 6.2290
 3.5610	 6.1620
 3.5640	 6.1840
 3.5660	 6.1740
 3.5690	 6.1910
 3.5710	 6.1340
 3.5740	 6.1670
 3.5760	 6.1770
 3.5790	 6.1790
 3.5810	 6.1220
 3.5840	 6.1300
 3.5860	 6.0520
 3.5890	 6.0080
 3.5910	 5.9190
 3.5930	 6.0170
 3.5960	 6.0450
 3.5980	 6.0990
 3.6010	 6.0900
 3.6030	 6.1010
 3.6060	 6.0820
 3.6080	 6.0400
 3.6110	 5.9930
 3.6140	 5.9970
 3.6160	 5.9770
 3.6190	 6.0340
 3.6210	 6.0360
 3.6240	 6.0260
 3.6260	 6.0320
 3.6290	 6.0290
 3.6310	 5.9650
 3.6340	 6.0540
 3.6360	 6.0230
 3.6390	 5.9760
 3.6410	 5.9620
 3.6440	 5.9950
 3.6470	 5.9390
 3.6490	 5.9360
 3.6520	 5.9210
 3.6540	 5.9640
 3.6570	 5.9200
 3.6590	 5.9100
 3.6620	 5.8960
 3.6650	 5.8580
 3.6670	 5.8570
 3.6700	 5.9460
 3.6720	 5.9170
 3.6750	 5.9330
 3.6780	 5.8840
 3.6800	 5.8740
 3.6830	 5.8820
 3.6850	 5.8730
 3.6880	 5.8520
 3.6910	 5.9760
 3.6930	 5.9930
 3.6960	 5.9270
 3.6990	 5.8580
 3.7010	 5.8220
 3.7040	 5.7490
 3.7060	 5.8190
 3.7090	 5.8470
 3.7120	 5.8370
 3.7140	 5.8210
 3.7170	 5.8740
 3.7200	 5.8810
 3.7220	 5.8720
 3.7250	 5.8730
 3.7280	 5.9070
 3.7300	 5.8460
 3.7330	 5.8130
 3.7360	 5.8380
 3.7390	 5.8640
 3.7410	 5.7990
 3.7440	 5.8110
 3.7470	 5.8440
 3.7490	 5.8650
 3.7520	 5.9270
 3.7550	 6.0130
 3.7580	 5.9120
 3.7600	 5.7840
 3.7630	 5.8150
 3.7660	 5.8940
 3.7680	 5.8630
 3.7710	 5.8330
 3.7740	 5.8350
 3.7770	 5.8780
 3.7790	 5.8360
 3.7820	 5.8130
 3.7850	 5.7510
 3.7880	 5.7600
 3.7900	 5.8150
 3.7930	 5.8650
 3.7960	 5.8690
 3.7990	 5.9070
 3.8020	 5.9110
 3.8040	 5.8900
 3.8070	 5.8350
 3.8100	 5.8180
 3.8130	 5.8360
 3.8160	 5.8220
 3.8180	 5.7850
 3.8210	 5.8080
 3.8240	 5.8210
 3.8270	 5.8360
 3.8300	 5.8240
 3.8330	 5.8660
 3.8350	 5.8540
 3.8380	 5.8080
 3.8410	 5.7690
 3.8440	 5.8020
 3.8470	 5.8450
 3.8500	 5.9050
 3.8520	 5.9050
 3.8550	 5.9200
 3.8580	 5.8640
 3.8610	 5.7950
 3.8640	 5.8160
 3.8670	 5.8700
 3.8700	 5.8910
 3.8730	 5.9250
 3.8750	 5.9060
 3.8780	 5.8430
 3.8810	 5.8400
 3.8840	 5.8800
 3.8870	 5.8890
 3.8900	 5.9080
 3.8930	 5.8210
 3.8960	 5.8340
 3.8990	 5.8650
 3.9020	 5.8950
 3.9050	 5.8200
 3.9080	 5.7470
 3.9110	 5.7500
 3.9140	 5.7830
 3.9160	 5.7560
 3.9190	 5.7250
 3.9220	 5.6810
 3.9250	 5.7650
 3.9280	 5.8090
 3.9310	 5.8490
 3.9340	 5.8310
 3.9370	 5.8120
 3.9400	 5.7640
 3.9430	 5.8370
 3.9460	 5.8910
 3.9490	 5.9120
 3.9520	 5.8450
 3.9550	 5.8270
 3.9580	 5.8140
 3.9610	 5.7750
 3.9640	 5.7660
 3.9670	 5.8100
 3.9700	 5.8380
 3.9730	 5.8570
 3.9770	 5.8250
 3.9800	 5.7930
 3.9830	 5.7500
 3.9860	 5.7980
 3.9890	 5.7900
 3.9920	 5.7710
 3.9950	 5.7630
 3.9980	 5.8390
 4.0010	 5.8490
 4.0040	 5.8070
 4.0070	 5.8150
 4.0100	 5.8160
 4.0130	 5.8180
 4.0170	 5.8450
 4.0200	 5.7980
 4.0230	 5.7340
 4.0260	 5.6750
 4.0290	 5.7340
 4.0320	 5.7740
 4.0350	 5.7870
 4.0380	 5.7630
 4.0420	 5.7870
 4.0450	 5.7620
 4.0480	 5.7640
 4.0510	 5.7630
 4.0540	 5.8070
 4.0570	 5.8150
 4.0610	 5.7930
 4.0640	 5.7880
 4.0670	 5.7990
 4.0700	 5.7850
 4.0730	 5.7720
 4.0770	 5.7640
 4.0800	 5.8040
 4.0830	 5.7920
 4.0860	 5.7380
 4.0890	 5.7050
 4.0930	 5.7270
 4.0960	 5.7200
 4.0990	 5.7310
 4.1020	 5.7840
 4.1060	 5.8710
 4.1090	 5.8270
 4.1120	 5.7330
 4.1150	 5.6580
 4.1190	 5.6320
 4.1220	 5.6740
 4.1250	 5.7800
 4.1280	 5.8120
 4.1320	 5.8310
 4.1350	 5.8340
 4.1380	 5.8330
 4.1420	 5.8190
 4.1450	 5.7930
 4.1480	 5.7670
 4.1520	 5.7310
 4.1550	 5.7110
 4.1580	 5.7740
 4.1620	 5.7550
 4.1650	 5.7300
 4.1680	 5.7230
 4.1720	 5.7210
 4.1750	 5.7120
 4.1780	 5.7340
 4.1820	 5.7320
 4.1850	 5.7230
 4.1890	 5.6630
 4.1920	 5.7050
 4.1950	 5.7860
 4.1990	 5.7510
 4.2020	 5.6680
 4.2060	 5.6670
 4.2090	 5.6260
 4.2120	 5.5640
 4.2160	 5.6390
 4.2190	 5.8200
 4.2230	 5.8410
 4.2260	 5.7970
 4.2300	 5.7690
 4.2330	 5.7940
 4.2360	 5.8130
 4.2400	 5.8350
 4.2430	 5.7950
 4.2470	 5.8030
 4.2500	 5.7420
 4.2540	 5.6850
 4.2570	 5.6150
 4.2610	 5.6680
 4.2640	 5.6980
 4.2680	 5.8180
 4.2710	 5.8040
 4.2750	 5.6800
 4.2780	 5.6860
 4.2820	 5.8020
 4.2850	 5.7220
 4.2890	 5.7230
 4.2930	 5.8540
 4.2960	 5.8050
 4.3000	 5.7340
 4.3030	 5.7040
 4.3070	 5.6790
 4.3100	 5.7110
 4.3140	 5.6610
 4.3180	 5.6560
 4.3210	 5.6630
 4.3250	 5.6620
 4.3280	 5.6560
 4.3320	 5.6530
 4.3360	 5.6500
 4.3390	 5.7470
 4.3430	 5.7520
 4.3470	 5.7330
 4.3500	 5.7040
 4.3540	 5.6760
 4.3570	 5.6670
 4.3610	 5.6090
 4.3650	 5.6170
 4.3680	 5.7510
 4.3720	 5.7320
 4.3760	 5.6460
 4.3800	 5.6380
 4.3830	 5.6420
 4.3870	 5.5880
 4.3910	 5.6080
 4.3940	 5.7330
 4.3980	 5.7270
 4.4020	 5.6460
 4.4060	 5.6450
 4.4090	 5.6180
 4.4130	 5.6000
 4.4170	 5.6390
 4.4210	 5.6690
 4.4240	 5.6760
 4.4280	 5.6940
 4.4320	 5.6760
 4.4360	 5.6630
 4.4400	 5.6590
 4.4430	 5.6880
 4.4470	 5.7180
 4.4510	 5.6580
 4.4550	 5.6110
 4.4590	 5.6520
 4.4620	 5.7040
 4.4660	 5.6960
 4.4700	 5.6760
 4.4740	 5.6800
 4.4780	 5.6830
 4.4820	 5.6650
 4.4860	 5.6390
 4.4900	 5.6010
 4.4930	 5.6110
 4.4970	 5.6360
 4.5010	 5.6220
 4.5050	 5.6140
 4.5090	 5.6110
 4.5130	 5.6570
 4.5170	 5.7000
 4.5210	 5.7030
 4.5250	 5.6750
 4.5290	 5.7400
 4.5330	 5.7760
 4.5370	 5.6670
 4.5410	 5.6170
 4.5450	 5.6250
 4.5490	 5.6620
 4.5530	 5.6760
 4.5570	 5.6350
 4.5610	 5.5850
 4.5650	 5.5850
 4.5690	 5.6790
 4.5730	 5.7590
 4.5770	 5.7230
 4.5810	 5.6760
 4.5850	 5.6690
 4.5890	 5.6470
 4.5930	 5.6350
 4.5970	 5.6360
 4.6010	 5.6140
 4.6050	 5.6060
 4.6090	 5.6680
 4.6130	 5.6770
 4.6170	 5.6590
 4.6220	 5.6330
 4.6260	 5.6430
 4.6300	 5.7260
 4.6340	 5.7240
 4.6380	 5.6990
 4.6420	 5.6380
 4.6460	 5.5850
 4.6510	 5.6000
 4.6550	 5.6560
 4.6590	 5.7040
 4.6630	 5.7570
 4.6670	 5.7390
 4.6720	 5.6820
 4.6760	 5.6750
 4.6800	 5.7070
 4.6840	 5.7030
 4.6880	 5.6700
 4.6930	 5.6980
 4.6970	 5.7320
 4.7010	 5.6770
 4.7050	 5.6520
 4.7100	 5.7140
 4.7140	 5.7580
 4.7180	 5.7360
 4.7230	 5.6550
 4.7270	 5.6180
 4.7310	 5.7020
 4.7360	 5.7960
 4.7400	 5.7320
 4.7440	 5.6700
 4.7490	 5.7070
 4.7530	 5.7470
 4.7570	 5.7030
 4.7620	 5.6790
 4.7660	 5.6650
 4.7700	 5.6690
 4.7750	 5.6600
 4.7790	 5.6610
 4.7840	 5.6430
 4.7880	 5.6700
 4.7920	 5.6830
 4.7970	 5.6750
 4.8010	 5.6820
 4.8060	 5.6650
 4.8100	 5.7050
 4.8150	 5.7120
 4.8190	 5.6790
 4.8240	 5.7060
 4.8280	 5.7140
 4.8330	 5.6750
 4.8370	 5.7360
 4.8420	 5.7750
 4.8460	 5.7730
 4.8510	 5.7280
 4.8550	 5.7410
 4.8600	 5.7900
 4.8640	 5.7430
 4.8690	 5.6930
 4.8730	 5.7210
 4.8780	 5.7270
 4.8830	 5.7670
 4.8870	 5.7790
 4.8920	 5.7250
 4.8960	 5.6780
 4.9010	 5.6420
 4.9060	 5.6650
 4.9100	 5.7470
 4.9150	 5.7490
 4.9200	 5.7630
 4.9240	 5.8450
 4.9290	 5.7920
 4.9340	 5.7660
 4.9380	 5.7670
 4.9430	 5.6760
 4.9480	 5.7180
 4.9530	 5.8260
 4.9570	 5.8770
 4.9620	 5.7670
 4.9670	 5.7380
 4.9720	 5.7110
 4.9760	 5.7030
 4.9810	 5.7530
 4.9860	 5.7770
 4.9910	 5.7150
 4.9960	 5.7060
 5.0000	 5.7050
 5.0050	 5.7550
 5.0100	 5.7770
 5.0150	 5.7550
 5.0200	 5.7250
 5.0250	 5.7300
 5.0290	 5.7550
 5.0340	 5.8250
 5.0390	 5.8400
 5.0440	 5.8740
 5.0490	 5.9020
 5.0540	 5.8330
 5.0590	 5.8000
 5.0640	 5.8180
 5.0690	 5.7730
 5.0740	 5.7870
 5.0790	 5.7650
 5.0840	 5.7320
 5.0890	 5.7630
 5.0940	 5.7830
 5.0990	 5.7250
 5.1040	 5.7660
 5.1090	 5.7790
 5.1140	 5.7890
 5.1190	 5.7780
 5.1240	 5.7730
 5.1290	 5.7330
 5.1340	 5.8180
 5.1390	 5.8810
 5.1440	 5.9080
 5.1490	 5.8450
 5.1540	 5.8060
 5.1600	 5.8330
 5.1650	 5.8850
 5.1700	 5.8310
 5.1750	 5.7260
 5.1800	 5.7090
 5.1850	 5.7820
 5.1910	 5.7710
 5.1960	 5.7880
 5.2010	 5.8040
 5.2060	 5.8080
 5.2110	 5.7960
 5.2170	 5.8250
 5.2220	 5.8180
 5.2270	 5.8270
 5.2320	 5.7710
 5.2380	 5.7860
 5.2430	 5.8150
 5.2480	 5.8240
 5.2540	 5.7660
 5.2590	 5.7470
 5.2640	 5.7680
 5.2700	 5.7730
 5.2750	 5.7840
 5.2800	 5.8000
 5.2860	 5.7710
 5.2910	 5.7850
 5.2970	 5.7780
 5.3020	 5.7870
 5.3070	 5.7740
 5.3130	 5.7950
 5.3180	 5.7590
 5.3240	 5.7010
 5.3290	 5.6750
 5.3350	 5.7840
 5.3400	 5.8480
 5.3460	 5.8220
 5.3510	 5.7890
 5.3570	 5.7920
 5.3620	 5.7810
 5.3680	 5.7750
 5.3730	 5.6950
 5.3790	 5.7230
 5.3850	 5.7140
 5.3900	 5.7340
 5.3960	 5.7330
 5.4010	 5.6990
 5.4070	 5.6810
 5.4130	 5.6930
 5.4180	 5.6680
 5.4240	 5.7230
 5.4300	 5.7710
 5.4350	 5.7590
