Name: Pinus ponderosa 2
Type: vegetation
Class: Tree
Genus: Pinus
Species: ponderosa
Sample No.: VH157
Owner: UCSB
Wavelength Range: VSWIR
Origin: 37.044; -119.3023; WGS84
Collection Date: 6/8/2013
Description: Samples were collected as part of the HyspIRI Airborne Campaign. 48 individual plants were sampled in three times in 2013 - spring  summer  and fall. The name of the sample includes a 1  2  or 3 which references a different individual of the species. Samples were taken to JPL and processed within 48 hours of collection. The same leaves were processed in the Nicolet and then measured using the ASD.
Measurement: Bidirectional reflectance
First Column: X
Second Column: Y
X Units: Wavelength (micrometers)
Y Units: Reflectance (percentage)
First X Value: 0.35
Last X Value: 2.5
Number of X Values: 2151
Additional Information: vegetation.tree.pinus.ponderosa.vswir.vh157.ucsb.asd.ancillary.txt

 0.3500	 5.4460
 0.3510	 5.3810
 0.3520	 5.3110
 0.3530	 5.3420
 0.3540	 5.4660
 0.3550	 5.3920
 0.3560	 5.3050
 0.3570	 5.2880
 0.3580	 5.3430
 0.3590	 5.3270
 0.3600	 5.3000
 0.3610	 5.3160
 0.3620	 5.4140
 0.3630	 5.3860
 0.3640	 5.3290
 0.3650	 5.3450
 0.3660	 5.2540
 0.3670	 5.2530
 0.3680	 5.3080
 0.3690	 5.2380
 0.3700	 5.1600
 0.3710	 5.1480
 0.3720	 5.1940
 0.3730	 5.1550
 0.3740	 5.1620
 0.3750	 5.2040
 0.3760	 5.2210
 0.3770	 5.1480
 0.3780	 5.1730
 0.3790	 5.2590
 0.3800	 5.1930
 0.3810	 5.1490
 0.3820	 5.1640
 0.3830	 5.2190
 0.3840	 5.2050
 0.3850	 5.1930
 0.3860	 5.2050
 0.3870	 5.2300
 0.3880	 5.1810
 0.3890	 5.1880
 0.3900	 5.2460
 0.3910	 5.1960
 0.3920	 5.2220
 0.3930	 5.2630
 0.3940	 5.2420
 0.3950	 5.2030
 0.3960	 5.1900
 0.3970	 5.2090
 0.3980	 5.2400
 0.3990	 5.2050
 0.4000	 5.1740
 0.4010	 5.1800
 0.4020	 5.1700
 0.4030	 5.1760
 0.4040	 5.1940
 0.4050	 5.2130
 0.4060	 5.2080
 0.4070	 5.2190
 0.4080	 5.2650
 0.4090	 5.3460
 0.4100	 5.3840
 0.4110	 5.3960
 0.4120	 5.4070
 0.4130	 5.4610
 0.4140	 5.4920
 0.4150	 5.5250
 0.4160	 5.5940
 0.4170	 5.6570
 0.4180	 5.7320
 0.4190	 5.8080
 0.4200	 5.8620
 0.4210	 5.9090
 0.4220	 5.9660
 0.4230	 6.0420
 0.4240	 6.1230
 0.4250	 6.1930
 0.4260	 6.2650
 0.4270	 6.3470
 0.4280	 6.4110
 0.4290	 6.4740
 0.4300	 6.5450
 0.4310	 6.5910
 0.4320	 6.6320
 0.4330	 6.6840
 0.4340	 6.7460
 0.4350	 6.8140
 0.4360	 6.8710
 0.4370	 6.9120
 0.4380	 6.9550
 0.4390	 7.0260
 0.4400	 7.0880
 0.4410	 7.1200
 0.4420	 7.1570
 0.4430	 7.1990
 0.4440	 7.2400
 0.4450	 7.2700
 0.4460	 7.3180
 0.4470	 7.3660
 0.4480	 7.4040
 0.4490	 7.4310
 0.4500	 7.4610
 0.4510	 7.4940
 0.4520	 7.5300
 0.4530	 7.5600
 0.4540	 7.5900
 0.4550	 7.6150
 0.4560	 7.6330
 0.4570	 7.6510
 0.4580	 7.6730
 0.4590	 7.6950
 0.4600	 7.7130
 0.4610	 7.7290
 0.4620	 7.7430
 0.4630	 7.7640
 0.4640	 7.7750
 0.4650	 7.7880
 0.4660	 7.8040
 0.4670	 7.8160
 0.4680	 7.8190
 0.4690	 7.8180
 0.4700	 7.8200
 0.4710	 7.8320
 0.4720	 7.8440
 0.4730	 7.8540
 0.4740	 7.8630
 0.4750	 7.8580
 0.4760	 7.8590
 0.4770	 7.8730
 0.4780	 7.8780
 0.4790	 7.8860
 0.4800	 7.8940
 0.4810	 7.8950
 0.4820	 7.9000
 0.4830	 7.9070
 0.4840	 7.9210
 0.4850	 7.9330
 0.4860	 7.9400
 0.4870	 7.9530
 0.4880	 7.9790
 0.4890	 7.9910
 0.4900	 8.0070
 0.4910	 8.0320
 0.4920	 8.0600
 0.4930	 8.0900
 0.4940	 8.1280
 0.4950	 8.1740
 0.4960	 8.2170
 0.4970	 8.2580
 0.4980	 8.3040
 0.4990	 8.3540
 0.5000	 8.4100
 0.5010	 8.4730
 0.5020	 8.5440
 0.5030	 8.6150
 0.5040	 8.6960
 0.5050	 8.7860
 0.5060	 8.8800
 0.5070	 8.9800
 0.5080	 9.0880
 0.5090	 9.2050
 0.5100	 9.3260
 0.5110	 9.4560
 0.5120	 9.5960
 0.5130	 9.7450
 0.5140	 9.9040
 0.5150	10.0640
 0.5160	10.2320
 0.5170	10.4140
 0.5180	10.5960
 0.5190	10.7820
 0.5200	10.9700
 0.5210	11.1540
 0.5220	11.3480
 0.5230	11.5400
 0.5240	11.7180
 0.5250	11.8930
 0.5260	12.0630
 0.5270	12.2220
 0.5280	12.3660
 0.5290	12.5000
 0.5300	12.6260
 0.5310	12.7450
 0.5320	12.8510
 0.5330	12.9490
 0.5340	13.0370
 0.5350	13.1140
 0.5360	13.1860
 0.5370	13.2470
 0.5380	13.2990
 0.5390	13.3470
 0.5400	13.3850
 0.5410	13.4130
 0.5420	13.4370
 0.5430	13.4640
 0.5440	13.4960
 0.5450	13.5350
 0.5460	13.5820
 0.5470	13.6410
 0.5480	13.6960
 0.5490	13.7400
 0.5500	13.7700
 0.5510	13.7900
 0.5520	13.8020
 0.5530	13.8060
 0.5540	13.7990
 0.5550	13.7780
 0.5560	13.7430
 0.5570	13.7010
 0.5580	13.6440
 0.5590	13.5780
 0.5600	13.5080
 0.5610	13.4370
 0.5620	13.3600
 0.5630	13.2780
 0.5640	13.1960
 0.5650	13.1050
 0.5660	13.0110
 0.5670	12.9160
 0.5680	12.8140
 0.5690	12.7020
 0.5700	12.5890
 0.5710	12.4800
 0.5720	12.3760
 0.5730	12.2700
 0.5740	12.1670
 0.5750	12.0730
 0.5760	11.9910
 0.5770	11.9170
 0.5780	11.8480
 0.5790	11.7830
 0.5800	11.7260
 0.5810	11.6720
 0.5820	11.6140
 0.5830	11.5560
 0.5840	11.4970
 0.5850	11.4410
 0.5860	11.3920
 0.5870	11.3440
 0.5880	11.2990
 0.5890	11.2530
 0.5900	11.2130
 0.5910	11.1810
 0.5920	11.1570
 0.5930	11.1390
 0.5940	11.1250
 0.5950	11.1140
 0.5960	11.1030
 0.5970	11.0890
 0.5980	11.0750
 0.5990	11.0590
 0.6000	11.0410
 0.6010	11.0220
 0.6020	10.9970
 0.6030	10.9660
 0.6040	10.9270
 0.6050	10.8910
 0.6060	10.8480
 0.6070	10.7950
 0.6080	10.7370
 0.6090	10.6700
 0.6100	10.5930
 0.6110	10.5100
 0.6120	10.4510
 0.6130	10.4040
 0.6140	10.3580
 0.6150	10.3100
 0.6160	10.2600
 0.6170	10.2130
 0.6180	10.1680
 0.6190	10.1210
 0.6200	10.0800
 0.6210	10.0480
 0.6220	10.0220
 0.6230	 9.9960
 0.6240	 9.9770
 0.6250	 9.9630
 0.6260	 9.9480
 0.6270	 9.9340
 0.6280	 9.9240
 0.6290	 9.9180
 0.6300	 9.9140
 0.6310	 9.9080
 0.6320	 9.8970
 0.6330	 9.8890
 0.6340	 9.8770
 0.6350	 9.8550
 0.6360	 9.8260
 0.6370	 9.7910
 0.6380	 9.7490
 0.6390	 9.6980
 0.6400	 9.6490
 0.6410	 9.5970
 0.6420	 9.5400
 0.6430	 9.4800
 0.6440	 9.4220
 0.6450	 9.3630
 0.6460	 9.2980
 0.6470	 9.2390
 0.6480	 9.1820
 0.6490	 9.1310
 0.6500	 9.0860
 0.6510	 9.0450
 0.6520	 9.0070
 0.6530	 8.9700
 0.6540	 8.9320
 0.6550	 8.8930
 0.6560	 8.8480
 0.6570	 8.7960
 0.6580	 8.7400
 0.6590	 8.6810
 0.6600	 8.6180
 0.6610	 8.5540
 0.6620	 8.4890
 0.6630	 8.4290
 0.6640	 8.3740
 0.6650	 8.3240
 0.6660	 8.2810
 0.6670	 8.2430
 0.6680	 8.2120
 0.6690	 8.1890
 0.6700	 8.1700
 0.6710	 8.1610
 0.6720	 8.1590
 0.6730	 8.1610
 0.6740	 8.1680
 0.6750	 8.1830
 0.6760	 8.2000
 0.6770	 8.2200
 0.6780	 8.2480
 0.6790	 8.2800
 0.6800	 8.3210
 0.6810	 8.3730
 0.6820	 8.4360
 0.6830	 8.5110
 0.6840	 8.5970
 0.6850	 8.7060
 0.6860	 8.8360
 0.6870	 8.9920
 0.6880	 9.1750
 0.6890	 9.3930
 0.6900	 9.6530
 0.6910	 9.9480
 0.6920	10.2960
 0.6930	10.6910
 0.6940	11.1310
 0.6950	11.6190
 0.6960	12.1530
 0.6970	12.7290
 0.6980	13.3470
 0.6990	14.0070
 0.7000	14.7030
 0.7010	15.4310
 0.7020	16.1830
 0.7030	16.9590
 0.7040	17.7570
 0.7050	18.5730
 0.7060	19.4040
 0.7070	20.2480
 0.7080	21.1090
 0.7090	21.9940
 0.7100	22.8970
 0.7110	23.8160
 0.7120	24.7510
 0.7130	25.7050
 0.7140	26.6760
 0.7150	27.6650
 0.7160	28.6710
 0.7170	29.6930
 0.7180	30.7270
 0.7190	31.7730
 0.7200	32.8340
 0.7210	33.9030
 0.7220	34.9790
 0.7230	36.0610
 0.7240	37.1430
 0.7250	38.2170
 0.7260	39.2860
 0.7270	40.3490
 0.7280	41.3870
 0.7290	42.4120
 0.7300	43.4220
 0.7310	44.4110
 0.7320	45.3820
 0.7330	46.3240
 0.7340	47.2340
 0.7350	48.1170
 0.7360	48.9780
 0.7370	49.8060
 0.7380	50.5970
 0.7390	51.3610
 0.7400	52.0920
 0.7410	52.7890
 0.7420	53.4540
 0.7430	54.0810
 0.7440	54.6740
 0.7450	55.2370
 0.7460	55.7670
 0.7470	56.2600
 0.7480	56.7200
 0.7490	57.1480
 0.7500	57.5480
 0.7510	57.9180
 0.7520	58.2600
 0.7530	58.5800
 0.7540	58.8690
 0.7550	59.1320
 0.7560	59.3780
 0.7570	59.6140
 0.7580	59.8200
 0.7590	60.0100
 0.7600	60.1930
 0.7610	60.3530
 0.7620	60.5010
 0.7630	60.6360
 0.7640	60.7570
 0.7650	60.8750
 0.7660	60.9850
 0.7670	61.0860
 0.7680	61.1790
 0.7690	61.2670
 0.7700	61.3480
 0.7710	61.4210
 0.7720	61.4920
 0.7730	61.5600
 0.7740	61.6240
 0.7750	61.6840
 0.7760	61.7400
 0.7770	61.7980
 0.7780	61.8530
 0.7790	61.9010
 0.7800	61.9510
 0.7810	62.0020
 0.7820	62.0510
 0.7830	62.0970
 0.7840	62.1430
 0.7850	62.1890
 0.7860	62.2340
 0.7870	62.2760
 0.7880	62.3140
 0.7890	62.3490
 0.7900	62.3870
 0.7910	62.4250
 0.7920	62.4650
 0.7930	62.5030
 0.7940	62.5350
 0.7950	62.5690
 0.7960	62.6000
 0.7970	62.6280
 0.7980	62.6600
 0.7990	62.6900
 0.8000	62.7160
 0.8010	62.7410
 0.8020	62.7680
 0.8030	62.7930
 0.8040	62.8170
 0.8050	62.8430
 0.8060	62.8650
 0.8070	62.8850
 0.8080	62.9030
 0.8090	62.9200
 0.8100	62.9420
 0.8110	62.9630
 0.8120	62.9810
 0.8130	63.0030
 0.8140	63.0210
 0.8150	63.0390
 0.8160	63.0620
 0.8170	63.0840
 0.8180	63.1020
 0.8190	63.1170
 0.8200	63.1330
 0.8210	63.1510
 0.8220	63.1690
 0.8230	63.1870
 0.8240	63.2030
 0.8250	63.2170
 0.8260	63.2290
 0.8270	63.2390
 0.8280	63.2450
 0.8290	63.2530
 0.8300	63.2640
 0.8310	63.2760
 0.8320	63.2860
 0.8330	63.2920
 0.8340	63.3020
 0.8350	63.3240
 0.8360	63.3360
 0.8370	63.3530
 0.8380	63.3760
 0.8390	63.4010
 0.8400	63.4220
 0.8410	63.4440
 0.8420	63.4710
 0.8430	63.5010
 0.8440	63.5210
 0.8450	63.5410
 0.8460	63.5680
 0.8470	63.5950
 0.8480	63.6210
 0.8490	63.6450
 0.8500	63.6690
 0.8510	63.6940
 0.8520	63.7170
 0.8530	63.7390
 0.8540	63.7630
 0.8550	63.7930
 0.8560	63.8160
 0.8570	63.8340
 0.8580	63.8580
 0.8590	63.8760
 0.8600	63.8930
 0.8610	63.9130
 0.8620	63.9300
 0.8630	63.9460
 0.8640	63.9590
 0.8650	63.9730
 0.8660	64.0010
 0.8670	64.0180
 0.8680	64.0310
 0.8690	64.0510
 0.8700	64.0650
 0.8710	64.0780
 0.8720	64.0930
 0.8730	64.1100
 0.8740	64.1290
 0.8750	64.1390
 0.8760	64.1450
 0.8770	64.1610
 0.8780	64.1680
 0.8790	64.1730
 0.8800	64.1790
 0.8810	64.1900
 0.8820	64.1950
 0.8830	64.1960
 0.8840	64.1980
 0.8850	64.2060
 0.8860	64.2090
 0.8870	64.2080
 0.8880	64.2030
 0.8890	64.1950
 0.8900	64.1920
 0.8910	64.1930
 0.8920	64.1900
 0.8930	64.1840
 0.8940	64.1740
 0.8950	64.1660
 0.8960	64.1650
 0.8970	64.1560
 0.8980	64.1490
 0.8990	64.1430
 0.9000	64.1250
 0.9010	64.1200
 0.9020	64.1150
 0.9030	64.1030
 0.9040	64.0850
 0.9050	64.0690
 0.9060	64.0560
 0.9070	64.0430
 0.9080	64.0310
 0.9090	64.0210
 0.9100	64.0090
 0.9110	63.9920
 0.9120	63.9860
 0.9130	63.9790
 0.9140	63.9670
 0.9150	63.9520
 0.9160	63.9390
 0.9170	63.9150
 0.9180	63.8900
 0.9190	63.8750
 0.9200	63.8630
 0.9210	63.8440
 0.9220	63.8160
 0.9230	63.7850
 0.9240	63.7460
 0.9250	63.7090
 0.9260	63.6760
 0.9270	63.6400
 0.9280	63.5960
 0.9290	63.5500
 0.9300	63.5030
 0.9310	63.4440
 0.9320	63.3890
 0.9330	63.3270
 0.9340	63.2560
 0.9350	63.1890
 0.9360	63.1250
 0.9370	63.0480
 0.9380	62.9580
 0.9390	62.8760
 0.9400	62.7980
 0.9410	62.7120
 0.9420	62.6090
 0.9430	62.4950
 0.9440	62.3770
 0.9450	62.2530
 0.9460	62.1220
 0.9470	61.9800
 0.9480	61.8250
 0.9490	61.6570
 0.9500	61.4780
 0.9510	61.2810
 0.9520	61.0720
 0.9530	60.8610
 0.9540	60.6540
 0.9550	60.4530
 0.9560	60.2410
 0.9570	60.0350
 0.9580	59.8530
 0.9590	59.6760
 0.9600	59.5130
 0.9610	59.3720
 0.9620	59.2500
 0.9630	59.1070
 0.9640	58.9850
 0.9650	58.8870
 0.9660	58.8020
 0.9670	58.7330
 0.9680	58.6670
 0.9690	58.5990
 0.9700	58.5350
 0.9710	58.4800
 0.9720	58.4290
 0.9730	58.3740
 0.9740	58.3180
 0.9750	58.2910
 0.9760	58.2670
 0.9770	58.2400
 0.9780	58.2170
 0.9790	58.1960
 0.9800	58.1820
 0.9810	58.1870
 0.9820	58.2130
 0.9830	58.2070
 0.9840	58.2020
 0.9850	58.2200
 0.9860	58.2610
 0.9870	58.2910
 0.9880	58.3230
 0.9890	58.3630
 0.9900	58.4120
 0.9910	58.4640
 0.9920	58.5190
 0.9930	58.5740
 0.9940	58.6270
 0.9950	58.6950
 0.9960	58.7560
 0.9970	58.8150
 0.9980	58.8830
 0.9990	58.9600
 1.0000	59.4290
 1.0010	60.2210
 1.0020	60.6930
 1.0030	60.7700
 1.0040	60.8450
 1.0050	60.9250
 1.0060	61.0160
 1.0070	61.1050
 1.0080	61.1910
 1.0090	61.2760
 1.0100	61.3620
 1.0110	61.4460
 1.0120	61.5350
 1.0130	61.6280
 1.0140	61.7200
 1.0150	61.8150
 1.0160	61.9080
 1.0170	61.9990
 1.0180	62.0910
 1.0190	62.1870
 1.0200	62.2760
 1.0210	62.3600
 1.0220	62.4510
 1.0230	62.5410
 1.0240	62.6280
 1.0250	62.7200
 1.0260	62.8230
 1.0270	62.9150
 1.0280	63.0050
 1.0290	63.0930
 1.0300	63.1750
 1.0310	63.2600
 1.0320	63.3470
 1.0330	63.4320
 1.0340	63.5170
 1.0350	63.6000
 1.0360	63.6820
 1.0370	63.7640
 1.0380	63.8390
 1.0390	63.9080
 1.0400	63.9820
 1.0410	64.0520
 1.0420	64.1250
 1.0430	64.2050
 1.0440	64.2780
 1.0450	64.3490
 1.0460	64.4150
 1.0470	64.4700
 1.0480	64.5320
 1.0490	64.5950
 1.0500	64.6550
 1.0510	64.7200
 1.0520	64.7800
 1.0530	64.8330
 1.0540	64.8770
 1.0550	64.9280
 1.0560	64.9780
 1.0570	65.0250
 1.0580	65.0750
 1.0590	65.1180
 1.0600	65.1540
 1.0610	65.1920
 1.0620	65.2290
 1.0630	65.2630
 1.0640	65.2970
 1.0650	65.3270
 1.0660	65.3510
 1.0670	65.3760
 1.0680	65.3990
 1.0690	65.4200
 1.0700	65.4450
 1.0710	65.4740
 1.0720	65.4950
 1.0730	65.5160
 1.0740	65.5300
 1.0750	65.5360
 1.0760	65.5410
 1.0770	65.5400
 1.0780	65.5430
 1.0790	65.5480
 1.0800	65.5470
 1.0810	65.5440
 1.0820	65.5400
 1.0830	65.5340
 1.0840	65.5220
 1.0850	65.5090
 1.0860	65.4900
 1.0870	65.4700
 1.0880	65.4420
 1.0890	65.4190
 1.0900	65.4000
 1.0910	65.3730
 1.0920	65.3430
 1.0930	65.3110
 1.0940	65.2740
 1.0950	65.2380
 1.0960	65.2020
 1.0970	65.1650
 1.0980	65.1290
 1.0990	65.0880
 1.1000	65.0440
 1.1010	65.0000
 1.1020	64.9570
 1.1030	64.9090
 1.1040	64.8620
 1.1050	64.8110
 1.1060	64.7560
 1.1070	64.6950
 1.1080	64.6350
 1.1090	64.5770
 1.1100	64.5120
 1.1110	64.4430
 1.1120	64.3710
 1.1130	64.2920
 1.1140	64.2110
 1.1150	64.1300
 1.1160	64.0410
 1.1170	63.9510
 1.1180	63.8490
 1.1190	63.7400
 1.1200	63.6260
 1.1210	63.5040
 1.1220	63.3650
 1.1230	63.2130
 1.1240	63.0450
 1.1250	62.8590
 1.1260	62.6570
 1.1270	62.4370
 1.1280	62.2050
 1.1290	61.9480
 1.1300	61.6740
 1.1310	61.3750
 1.1320	61.0510
 1.1330	60.7120
 1.1340	60.3480
 1.1350	59.9720
 1.1360	59.5820
 1.1370	59.1740
 1.1380	58.7570
 1.1390	58.3330
 1.1400	57.8940
 1.1410	57.4530
 1.1420	57.0150
 1.1430	56.5720
 1.1440	56.1390
 1.1450	55.7060
 1.1460	55.2880
 1.1470	54.8710
 1.1480	54.4760
 1.1490	54.0920
 1.1500	53.7330
 1.1510	53.3910
 1.1520	53.0690
 1.1530	52.7660
 1.1540	52.4830
 1.1550	52.2160
 1.1560	51.9710
 1.1570	51.7460
 1.1580	51.5360
 1.1590	51.3410
 1.1600	51.1640
 1.1610	50.9990
 1.1620	50.8460
 1.1630	50.7070
 1.1640	50.5750
 1.1650	50.4530
 1.1660	50.3450
 1.1670	50.2400
 1.1680	50.1440
 1.1690	50.0510
 1.1700	49.9660
 1.1710	49.8810
 1.1720	49.8020
 1.1730	49.7220
 1.1740	49.6450
 1.1750	49.5670
 1.1760	49.4850
 1.1770	49.4020
 1.1780	49.3180
 1.1790	49.2340
 1.1800	49.1510
 1.1810	49.0690
 1.1820	48.9840
 1.1830	48.8980
 1.1840	48.8100
 1.1850	48.7230
 1.1860	48.6400
 1.1870	48.5610
 1.1880	48.4890
 1.1890	48.4230
 1.1900	48.3590
 1.1910	48.2990
 1.1920	48.2450
 1.1930	48.1920
 1.1940	48.1470
 1.1950	48.1080
 1.1960	48.0740
 1.1970	48.0480
 1.1980	48.0270
 1.1990	48.0120
 1.2000	48.0020
 1.2010	47.9990
 1.2020	48.0020
 1.2030	48.0140
 1.2040	48.0350
 1.2050	48.0620
 1.2060	48.0930
 1.2070	48.1320
 1.2080	48.1740
 1.2090	48.2240
 1.2100	48.2820
 1.2110	48.3440
 1.2120	48.4140
 1.2130	48.4870
 1.2140	48.5630
 1.2150	48.6470
 1.2160	48.7380
 1.2170	48.8310
 1.2180	48.9300
 1.2190	49.0340
 1.2200	49.1370
 1.2210	49.2450
 1.2220	49.3550
 1.2230	49.4650
 1.2240	49.5760
 1.2250	49.6850
 1.2260	49.7890
 1.2270	49.8930
 1.2280	49.9960
 1.2290	50.0960
 1.2300	50.1960
 1.2310	50.2930
 1.2320	50.3870
 1.2330	50.4800
 1.2340	50.5700
 1.2350	50.6590
 1.2360	50.7450
 1.2370	50.8280
 1.2380	50.9070
 1.2390	50.9830
 1.2400	51.0600
 1.2410	51.1310
 1.2420	51.2010
 1.2430	51.2690
 1.2440	51.3340
 1.2450	51.3980
 1.2460	51.4610
 1.2470	51.5190
 1.2480	51.5770
 1.2490	51.6310
 1.2500	51.6850
 1.2510	51.7370
 1.2520	51.7840
 1.2530	51.8310
 1.2540	51.8770
 1.2550	51.9190
 1.2560	51.9590
 1.2570	51.9970
 1.2580	52.0300
 1.2590	52.0620
 1.2600	52.0950
 1.2610	52.1230
 1.2620	52.1490
 1.2630	52.1750
 1.2640	52.1950
 1.2650	52.2130
 1.2660	52.2290
 1.2670	52.2430
 1.2680	52.2530
 1.2690	52.2620
 1.2700	52.2680
 1.2710	52.2720
 1.2720	52.2740
 1.2730	52.2750
 1.2740	52.2730
 1.2750	52.2680
 1.2760	52.2600
 1.2770	52.2480
 1.2780	52.2350
 1.2790	52.2180
 1.2800	52.1980
 1.2810	52.1770
 1.2820	52.1500
 1.2830	52.1180
 1.2840	52.0810
 1.2850	52.0380
 1.2860	51.9920
 1.2870	51.9410
 1.2880	51.8880
 1.2890	51.8300
 1.2900	51.7670
 1.2910	51.6960
 1.2920	51.6210
 1.2930	51.5410
 1.2940	51.4540
 1.2950	51.3640
 1.2960	51.2690
 1.2970	51.1660
 1.2980	51.0560
 1.2990	50.9380
 1.3000	50.8150
 1.3010	50.6860
 1.3020	50.5510
 1.3030	50.4140
 1.3040	50.2690
 1.3050	50.1190
 1.3060	49.9630
 1.3070	49.7990
 1.3080	49.6310
 1.3090	49.4560
 1.3100	49.2730
 1.3110	49.0860
 1.3120	48.8900
 1.3130	48.6890
 1.3140	48.4820
 1.3150	48.2710
 1.3160	48.0530
 1.3170	47.8310
 1.3180	47.6030
 1.3190	47.3680
 1.3200	47.1310
 1.3210	46.8890
 1.3220	46.6420
 1.3230	46.3930
 1.3240	46.1380
 1.3250	45.8810
 1.3260	45.6200
 1.3270	45.3570
 1.3280	45.0930
 1.3290	44.8240
 1.3300	44.5550
 1.3310	44.2840
 1.3320	44.0090
 1.3330	43.7390
 1.3340	43.4700
 1.3350	43.1990
 1.3360	42.9320
 1.3370	42.6640
 1.3380	42.4000
 1.3390	42.1380
 1.3400	41.8790
 1.3410	41.6270
 1.3420	41.3780
 1.3430	41.1320
 1.3440	40.8910
 1.3450	40.6540
 1.3460	40.4180
 1.3470	40.1890
 1.3480	39.9640
 1.3490	39.7450
 1.3500	39.5320
 1.3510	39.3200
 1.3520	39.1080
 1.3530	38.9020
 1.3540	38.6960
 1.3550	38.4920
 1.3560	38.2910
 1.3570	38.0900
 1.3580	37.8880
 1.3590	37.6830
 1.3600	37.4770
 1.3610	37.2680
 1.3620	37.0530
 1.3630	36.8360
 1.3640	36.6140
 1.3650	36.3820
 1.3660	36.1460
 1.3670	35.8990
 1.3680	35.6410
 1.3690	35.3750
 1.3700	35.0940
 1.3710	34.8010
 1.3720	34.4950
 1.3730	34.1700
 1.3740	33.8300
 1.3750	33.4730
 1.3760	33.0940
 1.3770	32.6970
 1.3780	32.2760
 1.3790	31.8340
 1.3800	31.3740
 1.3810	30.8890
 1.3820	30.3910
 1.3830	29.8750
 1.3840	29.3460
 1.3850	28.7990
 1.3860	28.2490
 1.3870	27.6830
 1.3880	27.1220
 1.3890	26.5550
 1.3900	25.9860
 1.3910	25.4250
 1.3920	24.8650
 1.3930	24.3080
 1.3940	23.7630
 1.3950	23.2230
 1.3960	22.6960
 1.3970	22.1860
 1.3980	21.6910
 1.3990	21.2180
 1.4000	20.7610
 1.4010	20.3180
 1.4020	19.8960
 1.4030	19.4900
 1.4040	19.1040
 1.4050	18.7400
 1.4060	18.3910
 1.4070	18.0640
 1.4080	17.7550
 1.4090	17.4630
 1.4100	17.1900
 1.4110	16.9320
 1.4120	16.6890
 1.4130	16.4610
 1.4140	16.2490
 1.4150	16.0530
 1.4160	15.8700
 1.4170	15.6980
 1.4180	15.5370
 1.4190	15.3850
 1.4200	15.2430
 1.4210	15.1100
 1.4220	14.9870
 1.4230	14.8740
 1.4240	14.7690
 1.4250	14.6700
 1.4260	14.5800
 1.4270	14.4950
 1.4280	14.4170
 1.4290	14.3440
 1.4300	14.2790
 1.4310	14.2180
 1.4320	14.1640
 1.4330	14.1130
 1.4340	14.0670
 1.4350	14.0250
 1.4360	13.9880
 1.4370	13.9540
 1.4380	13.9250
 1.4390	13.9000
 1.4400	13.8770
 1.4410	13.8570
 1.4420	13.8380
 1.4430	13.8230
 1.4440	13.8110
 1.4450	13.8010
 1.4460	13.7930
 1.4470	13.7870
 1.4480	13.7820
 1.4490	13.7790
 1.4500	13.7780
 1.4510	13.7790
 1.4520	13.7820
 1.4530	13.7860
 1.4540	13.7920
 1.4550	13.8000
 1.4560	13.8090
 1.4570	13.8200
 1.4580	13.8350
 1.4590	13.8510
 1.4600	13.8690
 1.4610	13.8900
 1.4620	13.9140
 1.4630	13.9410
 1.4640	13.9710
 1.4650	14.0030
 1.4660	14.0390
 1.4670	14.0780
 1.4680	14.1200
 1.4690	14.1650
 1.4700	14.2130
