Name: Phyllostachys vivax
Type: vegetation
Class: Tree
Genus: Phyllostachys
Species: vivax
Sample No.: JPL125
Owner: JPL
Wavelength Range: VSWIR
Origin: 34.12505; -118.11546;; WGS84
Collection Date: 9/7/2016
Description: Samples were collected at the Huntington Garden in San Marino California as part of a JPL Subcontract studying HyTES imagery. Samples were taken to JPL and processed within 48 hours of collection. The same leaves were processed in the Nicolet and then measured using the ASD.
Measurement: Bidirectional reflectance
First Column: X
Second Column: Y
X Units: Wavelength (micrometer)
Y Units: Reflectance (percentage)
First X Value: 0.35
Last X Value: 2.5
Number of X Values: 2151
Additional Information: vegetation.tree.phyllostachys.vivax.vswir.jpl125.jpl.asd.ancillary.txt

 0.3500	 9.8490
 0.3510	 9.9980
 0.3520	10.0420
 0.3530	 9.9850
 0.3540	 9.9030
 0.3550	 9.8190
 0.3560	 9.7900
 0.3570	 9.8160
 0.3580	 9.8620
 0.3590	 9.8350
 0.3600	 9.8720
 0.3610	 9.9570
 0.3620	 9.8290
 0.3630	 9.7550
 0.3640	 9.7580
 0.3650	 9.7970
 0.3660	 9.8510
 0.3670	 9.8240
 0.3680	 9.7370
 0.3690	 9.6960
 0.3700	 9.7190
 0.3710	 9.7560
 0.3720	 9.7650
 0.3730	 9.7340
 0.3740	 9.7200
 0.3750	 9.7230
 0.3760	 9.7230
 0.3770	 9.7010
 0.3780	 9.6830
 0.3790	 9.6920
 0.3800	 9.7370
 0.3810	 9.7220
 0.3820	 9.7120
 0.3830	 9.7360
 0.3840	 9.6770
 0.3850	 9.6460
 0.3860	 9.6640
 0.3870	 9.7020
 0.3880	 9.6720
 0.3890	 9.6740
 0.3900	 9.7160
 0.3910	 9.7000
 0.3920	 9.6970
 0.3930	 9.6970
 0.3940	 9.6840
 0.3950	 9.6950
 0.3960	 9.7050
 0.3970	 9.7140
 0.3980	 9.7300
 0.3990	 9.7070
 0.4000	 9.6770
 0.4010	 9.6630
 0.4020	 9.6720
 0.4030	 9.6730
 0.4040	 9.6720
 0.4050	 9.6830
 0.4060	 9.6960
 0.4070	 9.7130
 0.4080	 9.7350
 0.4090	 9.7570
 0.4100	 9.7430
 0.4110	 9.7360
 0.4120	 9.7550
 0.4130	 9.7720
 0.4140	 9.7730
 0.4150	 9.7690
 0.4160	 9.7740
 0.4170	 9.7700
 0.4180	 9.7730
 0.4190	 9.7810
 0.4200	 9.7750
 0.4210	 9.7940
 0.4220	 9.8040
 0.4230	 9.7860
 0.4240	 9.7780
 0.4250	 9.7800
 0.4260	 9.7830
 0.4270	 9.7760
 0.4280	 9.7730
 0.4290	 9.7700
 0.4300	 9.7610
 0.4310	 9.7340
 0.4320	 9.7080
 0.4330	 9.6860
 0.4340	 9.6700
 0.4350	 9.6540
 0.4360	 9.6500
 0.4370	 9.6590
 0.4380	 9.6730
 0.4390	 9.6980
 0.4400	 9.7330
 0.4410	 9.7700
 0.4420	 9.7860
 0.4430	 9.7920
 0.4440	 9.7960
 0.4450	 9.8050
 0.4460	 9.8100
 0.4470	 9.8110
 0.4480	 9.8120
 0.4490	 9.8230
 0.4500	 9.8320
 0.4510	 9.8400
 0.4520	 9.8490
 0.4530	 9.8470
 0.4540	 9.8510
 0.4550	 9.8610
 0.4560	 9.8650
 0.4570	 9.8660
 0.4580	 9.8660
 0.4590	 9.8690
 0.4600	 9.8710
 0.4610	 9.8760
 0.4620	 9.8790
 0.4630	 9.8780
 0.4640	 9.8820
 0.4650	 9.8830
 0.4660	 9.8800
 0.4670	 9.8760
 0.4680	 9.8790
 0.4690	 9.8860
 0.4700	 9.8900
 0.4710	 9.8850
 0.4720	 9.8860
 0.4730	 9.8920
 0.4740	 9.8960
 0.4750	 9.9070
 0.4760	 9.9110
 0.4770	 9.9050
 0.4780	 9.9150
 0.4790	 9.9170
 0.4800	 9.9150
 0.4810	 9.9150
 0.4820	 9.9030
 0.4830	 9.8900
 0.4840	 9.8800
 0.4850	 9.8760
 0.4860	 9.8650
 0.4870	 9.8580
 0.4880	 9.8610
 0.4890	 9.8720
 0.4900	 9.8840
 0.4910	 9.8990
 0.4920	 9.9220
 0.4930	 9.9380
 0.4940	 9.9550
 0.4950	 9.9760
 0.4960	10.0040
 0.4970	10.0270
 0.4980	10.0500
 0.4990	10.0810
 0.5000	10.1130
 0.5010	10.1500
 0.5020	10.1920
 0.5030	10.2350
 0.5040	10.2810
 0.5050	10.3340
 0.5060	10.3950
 0.5070	10.4620
 0.5080	10.5350
 0.5090	10.6150
 0.5100	10.7040
 0.5110	10.8000
 0.5120	10.9110
 0.5130	11.0360
 0.5140	11.1710
 0.5150	11.3160
 0.5160	11.4690
 0.5170	11.6320
 0.5180	11.8110
 0.5190	11.9930
 0.5200	12.1790
 0.5210	12.3730
 0.5220	12.5670
 0.5230	12.7580
 0.5240	12.9470
 0.5250	13.1320
 0.5260	13.3120
 0.5270	13.4830
 0.5280	13.6420
 0.5290	13.7860
 0.5300	13.9190
 0.5310	14.0410
 0.5320	14.1510
 0.5330	14.2480
 0.5340	14.3340
 0.5350	14.4100
 0.5360	14.4730
 0.5370	14.5200
 0.5380	14.5530
 0.5390	14.5680
 0.5400	14.5590
 0.5410	14.5270
 0.5420	14.4860
 0.5430	14.4640
 0.5440	14.4690
 0.5450	14.5050
 0.5460	14.5670
 0.5470	14.6380
 0.5480	14.7000
 0.5490	14.7410
 0.5500	14.7600
 0.5510	14.7720
 0.5520	14.7780
 0.5530	14.7750
 0.5540	14.7690
 0.5550	14.7550
 0.5560	14.7280
 0.5570	14.6800
 0.5580	14.6190
 0.5590	14.5470
 0.5600	14.4650
 0.5610	14.3680
 0.5620	14.2600
 0.5630	14.1450
 0.5640	14.0230
 0.5650	13.8990
 0.5660	13.7720
 0.5670	13.6430
 0.5680	13.5110
 0.5690	13.3810
 0.5700	13.2560
 0.5710	13.1360
 0.5720	13.0190
 0.5730	12.9090
 0.5740	12.8070
 0.5750	12.7150
 0.5760	12.6300
 0.5770	12.5460
 0.5780	12.4590
 0.5790	12.3710
 0.5800	12.2900
 0.5810	12.2180
 0.5820	12.1510
 0.5830	12.0880
 0.5840	12.0370
 0.5850	11.9950
 0.5860	11.9540
 0.5870	11.9080
 0.5880	11.8660
 0.5890	11.8350
 0.5900	11.8140
 0.5910	11.7920
 0.5920	11.7670
 0.5930	11.7400
 0.5940	11.7190
 0.5950	11.7030
 0.5960	11.6920
 0.5970	11.6770
 0.5980	11.6560
 0.5990	11.6350
 0.6000	11.6170
 0.6010	11.6010
 0.6020	11.5820
 0.6030	11.5560
 0.6040	11.5230
 0.6050	11.4870
 0.6060	11.4490
 0.6070	11.4080
 0.6080	11.3580
 0.6090	11.2840
 0.6100	11.1760
 0.6110	11.0420
 0.6120	10.9980
 0.6130	11.0060
 0.6140	11.0220
 0.6150	11.0020
 0.6160	10.9780
 0.6170	10.9520
 0.6180	10.9210
 0.6190	10.8820
 0.6200	10.8480
 0.6210	10.8220
 0.6220	10.8040
 0.6230	10.7880
 0.6240	10.7740
 0.6250	10.7630
 0.6260	10.7540
 0.6270	10.7480
 0.6280	10.7410
 0.6290	10.7310
 0.6300	10.7140
 0.6310	10.7030
 0.6320	10.7010
 0.6330	10.6990
 0.6340	10.6890
 0.6350	10.6700
 0.6360	10.6460
 0.6370	10.6160
 0.6380	10.5820
 0.6390	10.5430
 0.6400	10.5030
 0.6410	10.4650
 0.6420	10.4270
 0.6430	10.3880
 0.6440	10.3500
 0.6450	10.3140
 0.6460	10.2820
 0.6470	10.2550
 0.6480	10.2320
 0.6490	10.2110
 0.6500	10.1930
 0.6510	10.1840
 0.6520	10.1800
 0.6530	10.1770
 0.6540	10.1740
 0.6550	10.1720
 0.6560	10.1680
 0.6570	10.1630
 0.6580	10.1560
 0.6590	10.1500
 0.6600	10.1440
 0.6610	10.1350
 0.6620	10.1250
 0.6630	10.1210
 0.6640	10.1210
 0.6650	10.1240
 0.6660	10.1270
 0.6670	10.1340
 0.6680	10.1450
 0.6690	10.1570
 0.6700	10.1750
 0.6710	10.1950
 0.6720	10.2180
 0.6730	10.2420
 0.6740	10.2720
 0.6750	10.3040
 0.6760	10.3370
 0.6770	10.3750
 0.6780	10.4120
 0.6790	10.4500
 0.6800	10.4940
 0.6810	10.5420
 0.6820	10.5890
 0.6830	10.6340
 0.6840	10.6810
 0.6850	10.7300
 0.6860	10.7820
 0.6870	10.8370
 0.6880	10.9050
 0.6890	10.9900
 0.6900	11.0990
 0.6910	11.2320
 0.6920	11.4040
 0.6930	11.6180
 0.6940	11.8810
 0.6950	12.2050
 0.6960	12.5860
 0.6970	13.0260
 0.6980	13.5210
 0.6990	14.0680
 0.7000	14.6640
 0.7010	15.3000
 0.7020	15.9650
 0.7030	16.6580
 0.7040	17.3680
 0.7050	18.0870
 0.7060	18.8120
 0.7070	19.5420
 0.7080	20.2760
 0.7090	21.0180
 0.7100	21.7640
 0.7110	22.5080
 0.7120	23.2500
 0.7130	23.9960
 0.7140	24.7460
 0.7150	25.4960
 0.7160	26.2410
 0.7170	26.9850
 0.7180	27.7260
 0.7190	28.4650
 0.7200	29.2000
 0.7210	29.9260
 0.7220	30.6450
 0.7230	31.3560
 0.7240	32.0570
 0.7250	32.7430
 0.7260	33.4140
 0.7270	34.0720
 0.7280	34.7090
 0.7290	35.3280
 0.7300	35.9290
 0.7310	36.5090
 0.7320	37.0680
 0.7330	37.6050
 0.7340	38.1210
 0.7350	38.6120
 0.7360	39.0810
 0.7370	39.5270
 0.7380	39.9500
 0.7390	40.3490
 0.7400	40.7250
 0.7410	41.0790
 0.7420	41.4130
 0.7430	41.7190
 0.7440	42.0040
 0.7450	42.2710
 0.7460	42.5160
 0.7470	42.7400
 0.7480	42.9460
 0.7490	43.1340
 0.7500	43.3040
 0.7510	43.4600
 0.7520	43.6030
 0.7530	43.7330
 0.7540	43.8510
 0.7550	43.9570
 0.7560	44.0520
 0.7570	44.1360
 0.7580	44.2130
 0.7590	44.2840
 0.7600	44.3490
 0.7610	44.4040
 0.7620	44.4520
 0.7630	44.4970
 0.7640	44.5400
 0.7650	44.5770
 0.7660	44.6060
 0.7670	44.6310
 0.7680	44.6530
 0.7690	44.6720
 0.7700	44.6880
 0.7710	44.7040
 0.7720	44.7140
 0.7730	44.7250
 0.7740	44.7350
 0.7750	44.7440
 0.7760	44.7520
 0.7770	44.7580
 0.7780	44.7640
 0.7790	44.7690
 0.7800	44.7750
 0.7810	44.7810
 0.7820	44.7850
 0.7830	44.7870
 0.7840	44.7870
 0.7850	44.7880
 0.7860	44.7890
 0.7870	44.7850
 0.7880	44.7820
 0.7890	44.7810
 0.7900	44.7800
 0.7910	44.7760
 0.7920	44.7710
 0.7930	44.7660
 0.7940	44.7610
 0.7950	44.7540
 0.7960	44.7450
 0.7970	44.7360
 0.7980	44.7270
 0.7990	44.7150
 0.8000	44.7020
 0.8010	44.6900
 0.8020	44.6800
 0.8030	44.6680
 0.8040	44.6530
 0.8050	44.6390
 0.8060	44.6270
 0.8070	44.6120
 0.8080	44.5930
 0.8090	44.5730
 0.8100	44.5570
 0.8110	44.5430
 0.8120	44.5270
 0.8130	44.5080
 0.8140	44.4880
 0.8150	44.4680
 0.8160	44.4520
 0.8170	44.4340
 0.8180	44.4160
 0.8190	44.3990
 0.8200	44.3790
 0.8210	44.3620
 0.8220	44.3420
 0.8230	44.3220
 0.8240	44.3030
 0.8250	44.2850
 0.8260	44.2660
 0.8270	44.2450
 0.8280	44.2290
 0.8290	44.2110
 0.8300	44.1910
 0.8310	44.1730
 0.8320	44.1610
 0.8330	44.1470
 0.8340	44.1290
 0.8350	44.1100
 0.8360	44.0970
 0.8370	44.0850
 0.8380	44.0720
 0.8390	44.0570
 0.8400	44.0400
 0.8410	44.0280
 0.8420	44.0200
 0.8430	44.0090
 0.8440	43.9980
 0.8450	43.9880
 0.8460	43.9810
 0.8470	43.9720
 0.8480	43.9630
 0.8490	43.9550
 0.8500	43.9470
 0.8510	43.9380
 0.8520	43.9320
 0.8530	43.9290
 0.8540	43.9250
 0.8550	43.9210
 0.8560	43.9180
 0.8570	43.9130
 0.8580	43.9100
 0.8590	43.9110
 0.8600	43.9130
 0.8610	43.9130
 0.8620	43.9150
 0.8630	43.9160
 0.8640	43.9150
 0.8650	43.9140
 0.8660	43.9150
 0.8670	43.9200
 0.8680	43.9260
 0.8690	43.9260
 0.8700	43.9300
 0.8710	43.9350
 0.8720	43.9390
 0.8730	43.9450
 0.8740	43.9560
 0.8750	43.9640
 0.8760	43.9680
 0.8770	43.9780
 0.8780	43.9880
 0.8790	43.9940
 0.8800	43.9990
 0.8810	44.0100
 0.8820	44.0200
 0.8830	44.0290
 0.8840	44.0380
 0.8850	44.0460
 0.8860	44.0520
 0.8870	44.0600
 0.8880	44.0710
 0.8890	44.0830
 0.8900	44.0920
 0.8910	44.1020
 0.8920	44.1150
 0.8930	44.1240
 0.8940	44.1330
 0.8950	44.1430
 0.8960	44.1540
 0.8970	44.1640
 0.8980	44.1710
 0.8990	44.1780
 0.9000	44.1910
 0.9010	44.1990
 0.9020	44.2050
 0.9030	44.2140
 0.9040	44.2270
 0.9050	44.2360
 0.9060	44.2420
 0.9070	44.2490
 0.9080	44.2580
 0.9090	44.2630
 0.9100	44.2700
 0.9110	44.2810
 0.9120	44.2870
 0.9130	44.2910
 0.9140	44.2950
 0.9150	44.3010
 0.9160	44.3020
 0.9170	44.3020
 0.9180	44.3070
 0.9190	44.3140
 0.9200	44.3130
 0.9210	44.3130
 0.9220	44.3140
 0.9230	44.3120
 0.9240	44.3130
 0.9250	44.3110
 0.9260	44.3060
 0.9270	44.3040
 0.9280	44.3000
 0.9290	44.2940
 0.9300	44.2870
 0.9310	44.2770
 0.9320	44.2700
 0.9330	44.2650
 0.9340	44.2590
 0.9350	44.2480
 0.9360	44.2400
 0.9370	44.2300
 0.9380	44.2160
 0.9390	44.2030
 0.9400	44.1890
 0.9410	44.1760
 0.9420	44.1670
 0.9430	44.1600
 0.9440	44.1420
 0.9450	44.1200
 0.9460	44.1030
 0.9470	44.0810
 0.9480	44.0670
 0.9490	44.0540
 0.9500	44.0310
 0.9510	44.0000
 0.9520	43.9750
 0.9530	43.9540
 0.9540	43.9330
 0.9550	43.9150
 0.9560	43.8870
 0.9570	43.8580
 0.9580	43.8370
 0.9590	43.8140
 0.9600	43.7930
 0.9610	43.7730
 0.9620	43.7510
 0.9630	43.7400
 0.9640	43.7210
 0.9650	43.7040
 0.9660	43.6970
 0.9670	43.6820
 0.9680	43.6730
 0.9690	43.6650
 0.9700	43.6500
 0.9710	43.6340
 0.9720	43.6240
 0.9730	43.6180
 0.9740	43.6130
 0.9750	43.6040
 0.9760	43.6000
 0.9770	43.5960
 0.9780	43.5870
 0.9790	43.5860
 0.9800	43.5830
 0.9810	43.5800
 0.9820	43.5810
 0.9830	43.5720
 0.9840	43.5650
 0.9850	43.5660
 0.9860	43.5710
 0.9870	43.5670
 0.9880	43.5580
 0.9890	43.5480
 0.9900	43.5460
 0.9910	43.5510
 0.9920	43.5520
 0.9930	43.5510
 0.9940	43.5500
 0.9950	43.5520
 0.9960	43.5520
 0.9970	43.5450
 0.9980	43.5320
 0.9990	43.5480
 1.0000	43.5570
 1.0010	44.4300
 1.0020	44.4270
 1.0030	44.4260
 1.0040	44.4250
 1.0050	44.4260
 1.0060	44.4270
 1.0070	44.4250
 1.0080	44.4230
 1.0090	44.4200
 1.0100	44.4200
 1.0110	44.4210
 1.0120	44.4210
 1.0130	44.4230
 1.0140	44.4220
 1.0150	44.4190
 1.0160	44.4130
 1.0170	44.4090
 1.0180	44.4110
 1.0190	44.4120
 1.0200	44.4130
 1.0210	44.4130
 1.0220	44.4140
 1.0230	44.4160
 1.0240	44.4180
 1.0250	44.4210
 1.0260	44.4240
 1.0270	44.4260
 1.0280	44.4250
 1.0290	44.4250
 1.0300	44.4240
 1.0310	44.4250
 1.0320	44.4270
 1.0330	44.4320
 1.0340	44.4390
 1.0350	44.4440
 1.0360	44.4430
 1.0370	44.4420
 1.0380	44.4430
 1.0390	44.4390
 1.0400	44.4410
 1.0410	44.4500
 1.0420	44.4520
 1.0430	44.4550
 1.0440	44.4560
 1.0450	44.4540
 1.0460	44.4550
 1.0470	44.4610
 1.0480	44.4630
 1.0490	44.4650
 1.0500	44.4660
 1.0510	44.4640
 1.0520	44.4610
 1.0530	44.4590
 1.0540	44.4570
 1.0550	44.4560
 1.0560	44.4550
 1.0570	44.4540
 1.0580	44.4550
 1.0590	44.4530
 1.0600	44.4510
 1.0610	44.4470
 1.0620	44.4400
 1.0630	44.4350
 1.0640	44.4290
 1.0650	44.4240
 1.0660	44.4230
 1.0670	44.4190
 1.0680	44.4150
 1.0690	44.4110
 1.0700	44.4060
 1.0710	44.4000
 1.0720	44.3950
 1.0730	44.3910
 1.0740	44.3870
 1.0750	44.3820
 1.0760	44.3770
 1.0770	44.3700
 1.0780	44.3650
 1.0790	44.3600
 1.0800	44.3550
 1.0810	44.3510
 1.0820	44.3470
 1.0830	44.3410
 1.0840	44.3370
 1.0850	44.3330
 1.0860	44.3300
 1.0870	44.3270
 1.0880	44.3250
 1.0890	44.3220
 1.0900	44.3200
 1.0910	44.3180
 1.0920	44.3160
 1.0930	44.3130
 1.0940	44.3110
 1.0950	44.3080
 1.0960	44.3060
 1.0970	44.3030
 1.0980	44.3000
 1.0990	44.2980
 1.1000	44.2950
 1.1010	44.2930
 1.1020	44.2920
 1.1030	44.2920
 1.1040	44.2910
 1.1050	44.2920
 1.1060	44.2920
 1.1070	44.2940
 1.1080	44.2940
 1.1090	44.2930
 1.1100	44.2930
 1.1110	44.2930
 1.1120	44.2920
 1.1130	44.2920
 1.1140	44.2900
 1.1150	44.2870
 1.1160	44.2850
 1.1170	44.2830
 1.1180	44.2800
 1.1190	44.2750
 1.1200	44.2710
 1.1210	44.2670
 1.1220	44.2610
 1.1230	44.2530
 1.1240	44.2460
 1.1250	44.2360
 1.1260	44.2230
 1.1270	44.2100
 1.1280	44.1960
 1.1290	44.1790
 1.1300	44.1630
 1.1310	44.1420
 1.1320	44.1190
 1.1330	44.0920
 1.1340	44.0600
 1.1350	44.0270
 1.1360	43.9910
 1.1370	43.9530
 1.1380	43.9160
 1.1390	43.8750
 1.1400	43.8330
 1.1410	43.7910
 1.1420	43.7460
 1.1430	43.7010
 1.1440	43.6550
 1.1450	43.6090
 1.1460	43.5620
 1.1470	43.5140
 1.1480	43.4700
 1.1490	43.4260
 1.1500	43.3870
 1.1510	43.3510
 1.1520	43.3160
 1.1530	43.2810
 1.1540	43.2490
 1.1550	43.2180
 1.1560	43.1900
 1.1570	43.1640
 1.1580	43.1400
 1.1590	43.1200
 1.1600	43.1030
 1.1610	43.0880
 1.1620	43.0750
 1.1630	43.0620
 1.1640	43.0500
 1.1650	43.0400
 1.1660	43.0320
 1.1670	43.0240
 1.1680	43.0170
 1.1690	43.0100
 1.1700	43.0030
 1.1710	42.9980
 1.1720	42.9950
 1.1730	42.9900
 1.1740	42.9840
 1.1750	42.9770
 1.1760	42.9700
 1.1770	42.9620
 1.1780	42.9530
 1.1790	42.9470
 1.1800	42.9380
 1.1810	42.9270
 1.1820	42.9190
 1.1830	42.9090
 1.1840	42.9000
 1.1850	42.8920
 1.1860	42.8840
 1.1870	42.8760
 1.1880	42.8690
 1.1890	42.8620
 1.1900	42.8550
 1.1910	42.8490
 1.1920	42.8430
 1.1930	42.8370
 1.1940	42.8320
 1.1950	42.8260
 1.1960	42.8220
 1.1970	42.8170
 1.1980	42.8140
 1.1990	42.8120
 1.2000	42.8100
 1.2010	42.8100
 1.2020	42.8070
 1.2030	42.8050
 1.2040	42.8040
 1.2050	42.8040
 1.2060	42.8040
 1.2070	42.8040
 1.2080	42.8040
 1.2090	42.8050
 1.2100	42.8070
 1.2110	42.8090
 1.2120	42.8130
 1.2130	42.8160
 1.2140	42.8180
 1.2150	42.8210
 1.2160	42.8250
 1.2170	42.8270
 1.2180	42.8310
 1.2190	42.8340
 1.2200	42.8370
 1.2210	42.8420
 1.2220	42.8460
 1.2230	42.8520
 1.2240	42.8570
 1.2250	42.8630
 1.2260	42.8690
 1.2270	42.8750
 1.2280	42.8790
 1.2290	42.8820
 1.2300	42.8860
 1.2310	42.8910
 1.2320	42.8960
 1.2330	42.9000
 1.2340	42.9050
 1.2350	42.9080
 1.2360	42.9110
 1.2370	42.9130
 1.2380	42.9160
 1.2390	42.9200
 1.2400	42.9220
 1.2410	42.9240
 1.2420	42.9270
 1.2430	42.9280
 1.2440	42.9300
 1.2450	42.9320
 1.2460	42.9350
 1.2470	42.9370
 1.2480	42.9360
 1.2490	42.9370
 1.2500	42.9380
 1.2510	42.9360
 1.2520	42.9350
 1.2530	42.9340
 1.2540	42.9320
 1.2550	42.9310
 1.2560	42.9300
 1.2570	42.9270
 1.2580	42.9230
 1.2590	42.9200
 1.2600	42.9170
 1.2610	42.9140
 1.2620	42.9110
 1.2630	42.9090
 1.2640	42.9050
 1.2650	42.8990
 1.2660	42.8940
 1.2670	42.8880
 1.2680	42.8820
 1.2690	42.8770
 1.2700	42.8730
 1.2710	42.8670
 1.2720	42.8610
 1.2730	42.8560
 1.2740	42.8490
 1.2750	42.8440
 1.2760	42.8370
 1.2770	42.8290
 1.2780	42.8210
 1.2790	42.8130
 1.2800	42.8030
 1.2810	42.7950
 1.2820	42.7850
 1.2830	42.7720
 1.2840	42.7600
 1.2850	42.7460
 1.2860	42.7310
 1.2870	42.7140
 1.2880	42.6980
 1.2890	42.6770
 1.2900	42.6560
 1.2910	42.6330
 1.2920	42.6080
 1.2930	42.5830
 1.2940	42.5570
 1.2950	42.5310
 1.2960	42.5050
 1.2970	42.4750
 1.2980	42.4450
 1.2990	42.4150
 1.3000	42.3820
 1.3010	42.3500
 1.3020	42.3180
 1.3030	42.2840
 1.3040	42.2500
 1.3050	42.2150
 1.3060	42.1790
 1.3070	42.1440
 1.3080	42.1110
 1.3090	42.0770
 1.3100	42.0440
 1.3110	42.0100
 1.3120	41.9730
 1.3130	41.9350
 1.3140	41.8980
 1.3150	41.8600
 1.3160	41.8220
 1.3170	41.7840
 1.3180	41.7470
 1.3190	41.7070
 1.3200	41.6680
 1.3210	41.6300
 1.3220	41.5900
 1.3230	41.5500
 1.3240	41.5090
 1.3250	41.4670
 1.3260	41.4250
 1.3270	41.3800
 1.3280	41.3350
 1.3290	41.2890
 1.3300	41.2430
 1.3310	41.1970
 1.3320	41.1520
 1.3330	41.1060
 1.3340	41.0580
 1.3350	41.0110
 1.3360	40.9640
 1.3370	40.9170
 1.3380	40.8700
 1.3390	40.8210
 1.3400	40.7720
 1.3410	40.7230
 1.3420	40.6750
 1.3430	40.6260
 1.3440	40.5780
 1.3450	40.5300
 1.3460	40.4800
 1.3470	40.4320
 1.3480	40.3830
 1.3490	40.3360
 1.3500	40.2890
 1.3510	40.2420
 1.3520	40.1940
 1.3530	40.1460
 1.3540	40.0960
 1.3550	40.0470
 1.3560	39.9980
 1.3570	39.9470
 1.3580	39.8950
 1.3590	39.8410
 1.3600	39.7850
 1.3610	39.7280
 1.3620	39.6680
 1.3630	39.6060
 1.3640	39.5410
 1.3650	39.4720
 1.3660	39.4000
 1.3670	39.3240
 1.3680	39.2430
 1.3690	39.1570
 1.3700	39.0620
 1.3710	38.9620
 1.3720	38.8550
 1.3730	38.7370
 1.3740	38.6120
 1.3750	38.4750
 1.3760	38.3250
 1.3770	38.1620
 1.3780	37.9850
 1.3790	37.7930
 1.3800	37.5880
 1.3810	37.3660
 1.3820	37.1300
 1.3830	36.8810
 1.3840	36.6160
 1.3850	36.3360
 1.3860	36.0430
 1.3870	35.7330
 1.3880	35.4140
 1.3890	35.0830
 1.3900	34.7390
 1.3910	34.3890
 1.3920	34.0290
 1.3930	33.6600
 1.3940	33.2860
 1.3950	32.9060
 1.3960	32.5240
 1.3970	32.1440
 1.3980	31.7670
 1.3990	31.3980
 1.4000	31.0340
 1.4010	30.6750
 1.4020	30.3260
 1.4030	29.9840
 1.4040	29.6530
 1.4050	29.3360
 1.4060	29.0310
 1.4070	28.7430
 1.4080	28.4690
 1.4090	28.2070
 1.4100	27.9610
 1.4110	27.7280
 1.4120	27.5100
 1.4130	27.3070
 1.4140	27.1170
 1.4150	26.9420
 1.4160	26.7800
 1.4170	26.6300
 1.4180	26.4920
 1.4190	26.3650
 1.4200	26.2470
 1.4210	26.1390
 1.4220	26.0410
 1.4230	25.9530
 1.4240	25.8720
 1.4250	25.7990
 1.4260	25.7350
 1.4270	25.6760
 1.4280	25.6240
 1.4290	25.5770
 1.4300	25.5360
 1.4310	25.5000
 1.4320	25.4710
 1.4330	25.4460
 1.4340	25.4280
 1.4350	25.4120
 1.4360	25.4010
 1.4370	25.3940
 1.4380	25.3900
 1.4390	25.3880
 1.4400	25.3900
 1.4410	25.3950
 1.4420	25.4010
 1.4430	25.4110
 1.4440	25.4210
 1.4450	25.4330
 1.4460	25.4470
 1.4470	25.4630
 1.4480	25.4780
 1.4490	25.4950
 1.4500	25.5140
 1.4510	25.5340
 1.4520	25.5550
 1.4530	25.5770
 1.4540	25.6010
 1.4550	25.6270
 1.4560	25.6540
 1.4570	25.6830
 1.4580	25.7150
 1.4590	25.7500
 1.4600	25.7880
 1.4610	25.8300
 1.4620	25.8760
 1.4630	25.9260
 1.4640	25.9800
 1.4650	26.0390
 1.4660	26.1020
 1.4670	26.1690
 1.4680	26.2400
 1.4690	26.3140
 1.4700	26.3920
 1.4710	26.4740
 1.4720	26.5580
 1.4730	26.6450
 1.4740	26.7350
 1.4750	26.8270
 1.4760	26.9220
 1.4770	27.0190
