Name: Ceanothus megacarpus 1
Type: vegetation
Class: Shrub
Genus: Ceanothus
Species: megacarpus
Sample No.: VH020
Owner: UCSB
Wavelength Range: VSWIR
Origin: 34.4908; -119.7914; WGS84
Collection Date: 4/1/2013
Description: Samples were collected as part of the HyspIRI Airborne Campaign. 48 individual plants were sampled in three times in 2013 - spring  summer  and fall. The name of the sample includes a 1  2  or 3 which references a different individual of the species. Samples were taken to JPL and processed within 48 hours of collection. The same leaves were processed in the Nicolet and then measured using the ASD.
Measurement: Bidirectional reflectance
First Column: X
Second Column: Y
X Units: Wavelength (micrometers)
Y Units: Reflectance (percentage)
First X Value: 0.35
Last X Value: 2.5
Number of X Values: 2151
Additional Information: vegetation.shrub.ceanothus.megacarpus.vswir.vh020.ucsb.asd.ancillary.txt

 0.3500	 2.0450
 0.3510	 2.1060
 0.3520	 2.2750
 0.3530	 2.3850
 0.3540	 2.3480
 0.3550	 2.2320
 0.3560	 2.2060
 0.3570	 2.2200
 0.3580	 2.1350
 0.3590	 2.1320
 0.3600	 2.1880
 0.3610	 2.2230
 0.3620	 2.1020
 0.3630	 2.1310
 0.3640	 2.2470
 0.3650	 2.2980
 0.3660	 2.1870
 0.3670	 2.1060
 0.3680	 2.0960
 0.3690	 2.0820
 0.3700	 2.1030
 0.3710	 2.1350
 0.3720	 2.1450
 0.3730	 2.0820
 0.3740	 2.1020
 0.3750	 2.1540
 0.3760	 2.1430
 0.3770	 2.1130
 0.3780	 2.1200
 0.3790	 2.1430
 0.3800	 2.1090
 0.3810	 2.0510
 0.3820	 2.0160
 0.3830	 2.0220
 0.3840	 2.0420
 0.3850	 2.0720
 0.3860	 2.0870
 0.3870	 2.0690
 0.3880	 2.1090
 0.3890	 2.0920
 0.3900	 2.0380
 0.3910	 2.1150
 0.3920	 2.0940
 0.3930	 2.0390
 0.3940	 2.0270
 0.3950	 2.0120
 0.3960	 2.0210
 0.3970	 2.0430
 0.3980	 2.0470
 0.3990	 2.0230
 0.4000	 2.0090
 0.4010	 2.0220
 0.4020	 2.0470
 0.4030	 2.0660
 0.4040	 2.0630
 0.4050	 2.0380
 0.4060	 2.0650
 0.4070	 2.0590
 0.4080	 2.0310
 0.4090	 2.0470
 0.4100	 2.0340
 0.4110	 2.0330
 0.4120	 2.0630
 0.4130	 2.0780
 0.4140	 2.0690
 0.4150	 2.0500
 0.4160	 2.0460
 0.4170	 2.0880
 0.4180	 2.1070
 0.4190	 2.1000
 0.4200	 2.1200
 0.4210	 2.1460
 0.4220	 2.1520
 0.4230	 2.1360
 0.4240	 2.1560
 0.4250	 2.1800
 0.4260	 2.1920
 0.4270	 2.1920
 0.4280	 2.2090
 0.4290	 2.2230
 0.4300	 2.2270
 0.4310	 2.2410
 0.4320	 2.2540
 0.4330	 2.2710
 0.4340	 2.2900
 0.4350	 2.2890
 0.4360	 2.2970
 0.4370	 2.3110
 0.4380	 2.3070
 0.4390	 2.3100
 0.4400	 2.3210
 0.4410	 2.3330
 0.4420	 2.3250
 0.4430	 2.3210
 0.4440	 2.3280
 0.4450	 2.3480
 0.4460	 2.3660
 0.4470	 2.3790
 0.4480	 2.3870
 0.4490	 2.3950
 0.4500	 2.4030
 0.4510	 2.4060
 0.4520	 2.4060
 0.4530	 2.4160
 0.4540	 2.4250
 0.4550	 2.4350
 0.4560	 2.4530
 0.4570	 2.4570
 0.4580	 2.4550
 0.4590	 2.4550
 0.4600	 2.4600
 0.4610	 2.4560
 0.4620	 2.4490
 0.4630	 2.4530
 0.4640	 2.4670
 0.4650	 2.4770
 0.4660	 2.4780
 0.4670	 2.4740
 0.4680	 2.4750
 0.4690	 2.4720
 0.4700	 2.4620
 0.4710	 2.4670
 0.4720	 2.4790
 0.4730	 2.4870
 0.4740	 2.4800
 0.4750	 2.4810
 0.4760	 2.4860
 0.4770	 2.4900
 0.4780	 2.4820
 0.4790	 2.4850
 0.4800	 2.4950
 0.4810	 2.5030
 0.4820	 2.5020
 0.4830	 2.5070
 0.4840	 2.5190
 0.4850	 2.5220
 0.4860	 2.5280
 0.4870	 2.5320
 0.4880	 2.5330
 0.4890	 2.5430
 0.4900	 2.5550
 0.4910	 2.5650
 0.4920	 2.5730
 0.4930	 2.5860
 0.4940	 2.6020
 0.4950	 2.6190
 0.4960	 2.6360
 0.4970	 2.6500
 0.4980	 2.6650
 0.4990	 2.6830
 0.5000	 2.7020
 0.5010	 2.7320
 0.5020	 2.7680
 0.5030	 2.7940
 0.5040	 2.8320
 0.5050	 2.8770
 0.5060	 2.9240
 0.5070	 2.9760
 0.5080	 3.0270
 0.5090	 3.0840
 0.5100	 3.1550
 0.5110	 3.2280
 0.5120	 3.3080
 0.5130	 3.3940
 0.5140	 3.4780
 0.5150	 3.5820
 0.5160	 3.6970
 0.5170	 3.8110
 0.5180	 3.9360
 0.5190	 4.0640
 0.5200	 4.1970
 0.5210	 4.3380
 0.5220	 4.4760
 0.5230	 4.6130
 0.5240	 4.7530
 0.5250	 4.8970
 0.5260	 5.0340
 0.5270	 5.1640
 0.5280	 5.2880
 0.5290	 5.3990
 0.5300	 5.5090
 0.5310	 5.6180
 0.5320	 5.7150
 0.5330	 5.8030
 0.5340	 5.8850
 0.5350	 5.9620
 0.5360	 6.0260
 0.5370	 6.0920
 0.5380	 6.1580
 0.5390	 6.2140
 0.5400	 6.2740
 0.5410	 6.3370
 0.5420	 6.3980
 0.5430	 6.4530
 0.5440	 6.5020
 0.5450	 6.5420
 0.5460	 6.5710
 0.5470	 6.5840
 0.5480	 6.5950
 0.5490	 6.6120
 0.5500	 6.6290
 0.5510	 6.6430
 0.5520	 6.6490
 0.5530	 6.6450
 0.5540	 6.6330
 0.5550	 6.6120
 0.5560	 6.5820
 0.5570	 6.5470
 0.5580	 6.5030
 0.5590	 6.4540
 0.5600	 6.4010
 0.5610	 6.3400
 0.5620	 6.2770
 0.5630	 6.2100
 0.5640	 6.1350
 0.5650	 6.0520
 0.5660	 5.9680
 0.5670	 5.8830
 0.5680	 5.7920
 0.5690	 5.6960
 0.5700	 5.6040
 0.5710	 5.5180
 0.5720	 5.4240
 0.5730	 5.3310
 0.5740	 5.2460
 0.5750	 5.1710
 0.5760	 5.1120
 0.5770	 5.0570
 0.5780	 5.0010
 0.5790	 4.9500
 0.5800	 4.8980
 0.5810	 4.8480
 0.5820	 4.8020
 0.5830	 4.7580
 0.5840	 4.7170
 0.5850	 4.6770
 0.5860	 4.6380
 0.5870	 4.6000
 0.5880	 4.5670
 0.5890	 4.5400
 0.5900	 4.5150
 0.5910	 4.4930
 0.5920	 4.4730
 0.5930	 4.4540
 0.5940	 4.4430
 0.5950	 4.4330
 0.5960	 4.4220
 0.5970	 4.4080
 0.5980	 4.3980
 0.5990	 4.3870
 0.6000	 4.3700
 0.6010	 4.3480
 0.6020	 4.3240
 0.6030	 4.3010
 0.6040	 4.2740
 0.6050	 4.2410
 0.6060	 4.2040
 0.6070	 4.1670
 0.6080	 4.1280
 0.6090	 4.0910
 0.6100	 4.0590
 0.6110	 4.0290
 0.6120	 3.9850
 0.6130	 3.9310
 0.6140	 3.8760
 0.6150	 3.8330
 0.6160	 3.7880
 0.6170	 3.7470
 0.6180	 3.7140
 0.6190	 3.6860
 0.6200	 3.6610
 0.6210	 3.6390
 0.6220	 3.6200
 0.6230	 3.6030
 0.6240	 3.5870
 0.6250	 3.5740
 0.6260	 3.5630
 0.6270	 3.5530
 0.6280	 3.5470
 0.6290	 3.5470
 0.6300	 3.5450
 0.6310	 3.5420
 0.6320	 3.5390
 0.6330	 3.5340
 0.6340	 3.5260
 0.6350	 3.5150
 0.6360	 3.5000
 0.6370	 3.4790
 0.6380	 3.4590
 0.6390	 3.4380
 0.6400	 3.4090
 0.6410	 3.3770
 0.6420	 3.3450
 0.6430	 3.3140
 0.6440	 3.2800
 0.6450	 3.2420
 0.6460	 3.2040
 0.6470	 3.1740
 0.6480	 3.1430
 0.6490	 3.1130
 0.6500	 3.0870
 0.6510	 3.0640
 0.6520	 3.0380
 0.6530	 3.0120
 0.6540	 2.9890
 0.6550	 2.9630
 0.6560	 2.9350
 0.6570	 2.9050
 0.6580	 2.8770
 0.6590	 2.8470
 0.6600	 2.8160
 0.6610	 2.7840
 0.6620	 2.7500
 0.6630	 2.7200
 0.6640	 2.6940
 0.6650	 2.6710
 0.6660	 2.6540
 0.6670	 2.6350
 0.6680	 2.6170
 0.6690	 2.6090
 0.6700	 2.6010
 0.6710	 2.5950
 0.6720	 2.5900
 0.6730	 2.5880
 0.6740	 2.5890
 0.6750	 2.5910
 0.6760	 2.5930
 0.6770	 2.5970
 0.6780	 2.6060
 0.6790	 2.6180
 0.6800	 2.6300
 0.6810	 2.6490
 0.6820	 2.6670
 0.6830	 2.6870
 0.6840	 2.7240
 0.6850	 2.7680
 0.6860	 2.8190
 0.6870	 2.8790
 0.6880	 2.9590
 0.6890	 3.0580
 0.6900	 3.1780
 0.6910	 3.3270
 0.6920	 3.5060
 0.6930	 3.7180
 0.6940	 3.9650
 0.6950	 4.2550
 0.6960	 4.5810
 0.6970	 4.9420
 0.6980	 5.3370
 0.6990	 5.7730
 0.7000	 6.2440
 0.7010	 6.7440
 0.7020	 7.2720
 0.7030	 7.8260
 0.7040	 8.4050
 0.7050	 9.0020
 0.7060	 9.6170
 0.7070	10.2480
 0.7080	10.8950
 0.7090	11.5610
 0.7100	12.2340
 0.7110	12.9200
 0.7120	13.6220
 0.7130	14.3350
 0.7140	15.0550
 0.7150	15.7840
 0.7160	16.5210
 0.7170	17.2670
 0.7180	18.0180
 0.7190	18.7700
 0.7200	19.5240
 0.7210	20.2770
 0.7220	21.0240
 0.7230	21.7650
 0.7240	22.5000
 0.7250	23.2220
 0.7260	23.9290
 0.7270	24.6160
 0.7280	25.2840
 0.7290	25.9330
 0.7300	26.5610
 0.7310	27.1640
 0.7320	27.7440
 0.7330	28.3000
 0.7340	28.8300
 0.7350	29.3350
 0.7360	29.8190
 0.7370	30.2780
 0.7380	30.7130
 0.7390	31.1280
 0.7400	31.5170
 0.7410	31.8810
 0.7420	32.2220
 0.7430	32.5440
 0.7440	32.8510
 0.7450	33.1380
 0.7460	33.3970
 0.7470	33.6400
 0.7480	33.8690
 0.7490	34.0840
 0.7500	34.2780
 0.7510	34.4570
 0.7520	34.6230
 0.7530	34.7750
 0.7540	34.9100
 0.7550	35.0360
 0.7560	35.1570
 0.7570	35.2670
 0.7580	35.3650
 0.7590	35.4530
 0.7600	35.5320
 0.7610	35.6130
 0.7620	35.6860
 0.7630	35.7510
 0.7640	35.8090
 0.7650	35.8590
 0.7660	35.9090
 0.7670	35.9570
 0.7680	36.0020
 0.7690	36.0400
 0.7700	36.0740
 0.7710	36.1060
 0.7720	36.1390
 0.7730	36.1690
 0.7740	36.1950
 0.7750	36.2200
 0.7760	36.2430
 0.7770	36.2680
 0.7780	36.2940
 0.7790	36.3180
 0.7800	36.3310
 0.7810	36.3450
 0.7820	36.3680
 0.7830	36.3940
 0.7840	36.4150
 0.7850	36.4280
 0.7860	36.4370
 0.7870	36.4560
 0.7880	36.4670
 0.7890	36.4740
 0.7900	36.4920
 0.7910	36.5100
 0.7920	36.5240
 0.7930	36.5330
 0.7940	36.5410
 0.7950	36.5490
 0.7960	36.5560
 0.7970	36.5630
 0.7980	36.5720
 0.7990	36.5790
 0.8000	36.5830
 0.8010	36.5870
 0.8020	36.5970
 0.8030	36.6040
 0.8040	36.6050
 0.8050	36.6040
 0.8060	36.6040
 0.8070	36.6060
 0.8080	36.6060
 0.8090	36.6020
 0.8100	36.6050
 0.8110	36.6090
 0.8120	36.6070
 0.8130	36.6050
 0.8140	36.6010
 0.8150	36.5950
 0.8160	36.5870
 0.8170	36.5830
 0.8180	36.5790
 0.8190	36.5760
 0.8200	36.5760
 0.8210	36.5640
 0.8220	36.5550
 0.8230	36.5530
 0.8240	36.5520
 0.8250	36.5380
 0.8260	36.5290
 0.8270	36.5270
 0.8280	36.5140
 0.8290	36.5000
 0.8300	36.4870
 0.8310	36.4760
 0.8320	36.4570
 0.8330	36.4490
 0.8340	36.4490
 0.8350	36.4400
 0.8360	36.4300
 0.8370	36.4220
 0.8380	36.4180
 0.8390	36.4150
 0.8400	36.4130
 0.8410	36.4130
 0.8420	36.4130
 0.8430	36.4100
 0.8440	36.4080
 0.8450	36.4100
 0.8460	36.4150
 0.8470	36.4140
 0.8480	36.4100
 0.8490	36.4100
 0.8500	36.4170
 0.8510	36.4190
 0.8520	36.4170
 0.8530	36.4170
 0.8540	36.4280
 0.8550	36.4280
 0.8560	36.4290
 0.8570	36.4330
 0.8580	36.4330
 0.8590	36.4380
 0.8600	36.4410
 0.8610	36.4410
 0.8620	36.4470
 0.8630	36.4500
 0.8640	36.4510
 0.8650	36.4540
 0.8660	36.4630
 0.8670	36.4640
 0.8680	36.4640
 0.8690	36.4710
 0.8700	36.4870
 0.8710	36.4900
 0.8720	36.4840
 0.8730	36.4880
 0.8740	36.5030
 0.8750	36.5160
 0.8760	36.5220
 0.8770	36.5240
 0.8780	36.5350
 0.8790	36.5420
 0.8800	36.5420
 0.8810	36.5460
 0.8820	36.5540
 0.8830	36.5560
 0.8840	36.5530
 0.8850	36.5580
 0.8860	36.5710
 0.8870	36.5810
 0.8880	36.5790
 0.8890	36.5790
 0.8900	36.5840
 0.8910	36.5880
 0.8920	36.5860
 0.8930	36.5910
 0.8940	36.5980
 0.8950	36.6000
 0.8960	36.5960
 0.8970	36.6000
 0.8980	36.6030
 0.8990	36.6000
 0.9000	36.5940
 0.9010	36.5990
 0.9020	36.6040
 0.9030	36.6010
 0.9040	36.6010
 0.9050	36.6060
 0.9060	36.6090
 0.9070	36.6090
 0.9080	36.6110
 0.9090	36.6080
 0.9100	36.6040
 0.9110	36.6040
 0.9120	36.6040
 0.9130	36.6080
 0.9140	36.6050
 0.9150	36.5920
 0.9160	36.5940
 0.9170	36.5910
 0.9180	36.5770
 0.9190	36.5610
 0.9200	36.5580
 0.9210	36.5500
 0.9220	36.5360
 0.9230	36.5210
 0.9240	36.5030
 0.9250	36.4840
 0.9260	36.4670
 0.9270	36.4510
 0.9280	36.4310
 0.9290	36.3970
 0.9300	36.3550
 0.9310	36.3260
 0.9320	36.2920
 0.9330	36.2580
 0.9340	36.2260
 0.9350	36.1900
 0.9360	36.1510
 0.9370	36.1060
 0.9380	36.0560
 0.9390	36.0180
 0.9400	35.9820
 0.9410	35.9320
 0.9420	35.8650
 0.9430	35.8040
 0.9440	35.7430
 0.9450	35.6840
 0.9460	35.6220
 0.9470	35.5330
 0.9480	35.4490
 0.9490	35.3660
 0.9500	35.2750
 0.9510	35.1820
 0.9520	35.0940
 0.9530	34.9920
 0.9540	34.8680
 0.9550	34.7680
 0.9560	34.6630
 0.9570	34.5550
 0.9580	34.4550
 0.9590	34.3790
 0.9600	34.2940
 0.9610	34.2100
 0.9620	34.1450
 0.9630	34.0900
 0.9640	34.0370
 0.9650	33.9910
 0.9660	33.9580
 0.9670	33.9190
 0.9680	33.8970
 0.9690	33.8770
 0.9700	33.8420
 0.9710	33.8240
 0.9720	33.8080
 0.9730	33.7940
 0.9740	33.7850
 0.9750	33.7680
 0.9760	33.7640
 0.9770	33.7650
 0.9780	33.7550
 0.9790	33.7590
 0.9800	33.7760
 0.9810	33.7950
 0.9820	33.8030
 0.9830	33.8060
 0.9840	33.8240
 0.9850	33.8460
 0.9860	33.8540
 0.9870	33.8820
 0.9880	33.9240
 0.9890	33.9590
 0.9900	33.9710
 0.9910	34.0080
 0.9920	34.1210
 0.9930	34.2340
 0.9940	34.3470
 0.9950	34.4590
 0.9960	34.5720
 0.9970	34.6850
 0.9980	34.7980
 0.9990	34.9110
 1.0000	35.0240
 1.0010	35.1370
 1.0020	35.2500
 1.0030	35.3620
 1.0040	35.4750
 1.0050	35.5880
 1.0060	35.7010
 1.0070	35.8140
 1.0080	35.9270
 1.0090	36.0400
 1.0100	36.0400
 1.0110	36.0750
 1.0120	36.1140
 1.0130	36.1540
 1.0140	36.1930
 1.0150	36.2340
 1.0160	36.2740
 1.0170	36.3120
 1.0180	36.3450
 1.0190	36.3790
 1.0200	36.4160
 1.0210	36.4510
 1.0220	36.4870
 1.0230	36.5210
 1.0240	36.5550
 1.0250	36.5900
 1.0260	36.6230
 1.0270	36.6580
 1.0280	36.6960
 1.0290	36.7300
 1.0300	36.7660
 1.0310	36.7980
 1.0320	36.8250
 1.0330	36.8530
 1.0340	36.8830
 1.0350	36.9120
 1.0360	36.9430
 1.0370	36.9760
 1.0380	37.0070
 1.0390	37.0390
 1.0400	37.0650
 1.0410	37.0860
 1.0420	37.1090
 1.0430	37.1260
 1.0440	37.1480
 1.0450	37.1760
 1.0460	37.1990
 1.0470	37.2200
 1.0480	37.2410
 1.0490	37.2600
 1.0500	37.2780
 1.0510	37.2950
 1.0520	37.3120
 1.0530	37.3270
 1.0540	37.3390
 1.0550	37.3530
 1.0560	37.3660
 1.0570	37.3780
 1.0580	37.3910
 1.0590	37.4010
 1.0600	37.4090
 1.0610	37.4160
 1.0620	37.4200
 1.0630	37.4260
 1.0640	37.4350
 1.0650	37.4390
 1.0660	37.4420
 1.0670	37.4440
 1.0680	37.4440
 1.0690	37.4390
 1.0700	37.4370
 1.0710	37.4370
 1.0720	37.4360
 1.0730	37.4340
 1.0740	37.4310
 1.0750	37.4250
 1.0760	37.4200
 1.0770	37.4150
 1.0780	37.4070
 1.0790	37.3960
 1.0800	37.3860
 1.0810	37.3730
 1.0820	37.3620
 1.0830	37.3570
 1.0840	37.3470
 1.0850	37.3360
 1.0860	37.3230
 1.0870	37.3090
 1.0880	37.2940
 1.0890	37.2780
 1.0900	37.2630
 1.0910	37.2480
 1.0920	37.2310
 1.0930	37.2140
 1.0940	37.1990
 1.0950	37.1800
 1.0960	37.1570
 1.0970	37.1360
 1.0980	37.1120
 1.0990	37.0910
 1.1000	37.0770
 1.1010	37.0570
 1.1020	37.0330
 1.1030	37.0110
 1.1040	36.9890
 1.1050	36.9630
 1.1060	36.9400
 1.1070	36.9210
 1.1080	36.8960
 1.1090	36.8680
 1.1100	36.8390
 1.1110	36.8050
 1.1120	36.7740
 1.1130	36.7430
 1.1140	36.7090
 1.1150	36.6750
 1.1160	36.6350
 1.1170	36.5920
 1.1180	36.5450
 1.1190	36.4960
 1.1200	36.4440
 1.1210	36.3870
 1.1220	36.3250
 1.1230	36.2590
 1.1240	36.1880
 1.1250	36.1080
 1.1260	36.0230
 1.1270	35.9280
 1.1280	35.8250
 1.1290	35.7120
 1.1300	35.5920
 1.1310	35.4610
 1.1320	35.3180
 1.1330	35.1670
 1.1340	35.0070
 1.1350	34.8350
 1.1360	34.6540
 1.1370	34.4620
 1.1380	34.2640
 1.1390	34.0580
 1.1400	33.8420
 1.1410	33.6260
 1.1420	33.4060
 1.1430	33.1830
 1.1440	32.9640
 1.1450	32.7450
 1.1460	32.5310
 1.1470	32.3140
 1.1480	32.1110
 1.1490	31.9110
 1.1500	31.7270
 1.1510	31.5520
 1.1520	31.3890
 1.1530	31.2370
 1.1540	31.0980
 1.1550	30.9710
 1.1560	30.8560
 1.1570	30.7550
 1.1580	30.6680
 1.1590	30.5890
 1.1600	30.5200
 1.1610	30.4610
 1.1620	30.4080
 1.1630	30.3620
 1.1640	30.3250
 1.1650	30.2910
 1.1660	30.2650
 1.1670	30.2410
 1.1680	30.2240
 1.1690	30.2070
 1.1700	30.1930
 1.1710	30.1800
 1.1720	30.1700
 1.1730	30.1590
 1.1740	30.1500
 1.1750	30.1390
 1.1760	30.1270
 1.1770	30.1140
 1.1780	30.0990
 1.1790	30.0850
 1.1800	30.0720
 1.1810	30.0580
 1.1820	30.0420
 1.1830	30.0250
 1.1840	30.0090
 1.1850	29.9920
 1.1860	29.9770
 1.1870	29.9630
 1.1880	29.9510
 1.1890	29.9390
 1.1900	29.9280
 1.1910	29.9170
 1.1920	29.9080
 1.1930	29.9010
 1.1940	29.8970
 1.1950	29.8960
 1.1960	29.8970
 1.1970	29.9000
 1.1980	29.9020
 1.1990	29.9070
 1.2000	29.9160
 1.2010	29.9270
 1.2020	29.9390
 1.2030	29.9530
 1.2040	29.9690
 1.2050	29.9860
 1.2060	30.0070
 1.2070	30.0300
 1.2080	30.0540
 1.2090	30.0800
 1.2100	30.1080
 1.2110	30.1380
 1.2120	30.1690
 1.2130	30.2010
 1.2140	30.2360
 1.2150	30.2710
 1.2160	30.3080
 1.2170	30.3440
 1.2180	30.3810
 1.2190	30.4190
 1.2200	30.4580
 1.2210	30.4980
 1.2220	30.5390
 1.2230	30.5790
 1.2240	30.6170
 1.2250	30.6530
 1.2260	30.6890
 1.2270	30.7250
 1.2280	30.7620
 1.2290	30.7980
 1.2300	30.8320
 1.2310	30.8630
 1.2320	30.8950
 1.2330	30.9250
 1.2340	30.9540
 1.2350	30.9840
 1.2360	31.0120
 1.2370	31.0380
 1.2380	31.0650
 1.2390	31.0920
 1.2400	31.1160
 1.2410	31.1400
 1.2420	31.1630
 1.2430	31.1860
 1.2440	31.2090
 1.2450	31.2300
 1.2460	31.2520
 1.2470	31.2720
 1.2480	31.2910
 1.2490	31.3110
 1.2500	31.3280
 1.2510	31.3430
 1.2520	31.3560
 1.2530	31.3680
 1.2540	31.3790
 1.2550	31.3920
 1.2560	31.4020
 1.2570	31.4120
 1.2580	31.4200
 1.2590	31.4250
 1.2600	31.4270
 1.2610	31.4310
 1.2620	31.4320
 1.2630	31.4320
 1.2640	31.4330
 1.2650	31.4310
 1.2660	31.4270
 1.2670	31.4190
 1.2680	31.4130
 1.2690	31.4070
 1.2700	31.3990
 1.2710	31.3910
 1.2720	31.3820
 1.2730	31.3680
 1.2740	31.3530
 1.2750	31.3370
 1.2760	31.3170
 1.2770	31.3010
 1.2780	31.2810
 1.2790	31.2570
 1.2800	31.2340
 1.2810	31.2060
 1.2820	31.1760
 1.2830	31.1460
 1.2840	31.1140
 1.2850	31.0780
 1.2860	31.0400
 1.2870	30.9980
 1.2880	30.9530
 1.2890	30.9030
 1.2900	30.8520
 1.2910	30.7970
 1.2920	30.7400
 1.2930	30.6790
 1.2940	30.6140
 1.2950	30.5450
 1.2960	30.4740
 1.2970	30.4000
 1.2980	30.3230
 1.2990	30.2400
 1.3000	30.1540
 1.3010	30.0640
 1.3020	29.9720
 1.3030	29.8780
 1.3040	29.7790
 1.3050	29.6770
 1.3060	29.5730
 1.3070	29.4640
 1.3080	29.3530
 1.3090	29.2380
 1.3100	29.1200
 1.3110	28.9980
 1.3120	28.8730
 1.3130	28.7450
 1.3140	28.6130
 1.3150	28.4760
 1.3160	28.3360
 1.3170	28.1950
 1.3180	28.0500
 1.3190	27.9000
 1.3200	27.7480
 1.3210	27.5910
 1.3220	27.4310
 1.3230	27.2720
 1.3240	27.1080
 1.3250	26.9430
 1.3260	26.7760
 1.3270	26.6050
 1.3280	26.4330
 1.3290	26.2590
 1.3300	26.0830
 1.3310	25.9090
 1.3320	25.7340
 1.3330	25.5580
 1.3340	25.3830
 1.3350	25.2060
 1.3360	25.0290
 1.3370	24.8530
 1.3380	24.6780
 1.3390	24.5050
 1.3400	24.3330
 1.3410	24.1650
 1.3420	23.9980
 1.3430	23.8320
 1.3440	23.6700
 1.3450	23.5090
 1.3460	23.3480
 1.3470	23.1920
 1.3480	23.0390
 1.3490	22.8870
 1.3500	22.7390
 1.3510	22.5930
 1.3520	22.4460
 1.3530	22.3000
 1.3540	22.1550
 1.3550	22.0090
 1.3560	21.8630
 1.3570	21.7180
 1.3580	21.5730
 1.3590	21.4250
 1.3600	21.2740
 1.3610	21.1210
 1.3620	20.9620
 1.3630	20.7990
 1.3640	20.6310
 1.3650	20.4550
 1.3660	20.2740
 1.3670	20.0840
 1.3680	19.8840
 1.3690	19.6750
 1.3700	19.4550
 1.3710	19.2220
 1.3720	18.9770
 1.3730	18.7180
 1.3740	18.4460
 1.3750	18.1590
 1.3760	17.8560
 1.3770	17.5360
 1.3780	17.1950
 1.3790	16.8410
 1.3800	16.4710
 1.3810	16.0860
 1.3820	15.6920
 1.3830	15.2860
 1.3840	14.8740
 1.3850	14.4510
 1.3860	14.0270
 1.3870	13.5920
 1.3880	13.1650
 1.3890	12.7360
 1.3900	12.3070
 1.3910	11.8900
 1.3920	11.4770
 1.3930	11.0710
 1.3940	10.6760
 1.3950	10.2890
 1.3960	 9.9150
 1.3970	 9.5560
 1.3980	 9.2130
 1.3990	 8.8890
 1.4000	 8.5820
 1.4010	 8.2890
 1.4020	 8.0150
 1.4030	 7.7550
 1.4040	 7.5120
 1.4050	 7.2870
 1.4060	 7.0770
 1.4070	 6.8840
 1.4080	 6.7050
 1.4090	 6.5390
 1.4100	 6.3870
 1.4110	 6.2460
 1.4120	 6.1160
 1.4130	 5.9980
 1.4140	 5.8900
 1.4150	 5.7930
 1.4160	 5.7030
 1.4170	 5.6230
 1.4180	 5.5490
 1.4190	 5.4810
 1.4200	 5.4210
 1.4210	 5.3650
 1.4220	 5.3150
 1.4230	 5.2700
 1.4240	 5.2290
 1.4250	 5.1930
 1.4260	 5.1610
 1.4270	 5.1320
 1.4280	 5.1060
 1.4290	 5.0830
 1.4300	 5.0630
 1.4310	 5.0460
 1.4320	 5.0320
 1.4330	 5.0200
 1.4340	 5.0100
 1.4350	 5.0010
 1.4360	 4.9950
 1.4370	 4.9910
 1.4380	 4.9880
 1.4390	 4.9860
 1.4400	 4.9860
 1.4410	 4.9870
 1.4420	 4.9890
 1.4430	 4.9930
 1.4440	 4.9980
 1.4450	 5.0030
 1.4460	 5.0090
 1.4470	 5.0150
 1.4480	 5.0220
 1.4490	 5.0290
 1.4500	 5.0380
 1.4510	 5.0480
 1.4520	 5.0580
 1.4530	 5.0680
 1.4540	 5.0790
 1.4550	 5.0900
 1.4560	 5.1020
 1.4570	 5.1150
 1.4580	 5.1290
 1.4590	 5.1450
 1.4600	 5.1630
 1.4610	 5.1810
 1.4620	 5.2020
 1.4630	 5.2250
 1.4640	 5.2490
 1.4650	 5.2760
 1.4660	 5.3060
 1.4670	 5.3370
 1.4680	 5.3710
 1.4690	 5.4060
