Name: Baccharis pilularis 1
Type: vegetation
Class: Shrub
Genus: Baccharis
Species: pilularis
Sample No.: VH193
Owner: UCSB
Wavelength Range: VSWIR
Origin: 34.4186; -119.8458; WGS84
Collection Date: 10/13/2013
Description: Samples were collected as part of the HyspIRI Airborne Campaign. 48 individual plants were sampled in three times in 2013 - spring  summer  and fall. The name of the sample includes a 1  2  or 3 which references a different individual of the species. Samples were taken to JPL and processed within 48 hours of collection. The same leaves were processed in the Nicolet and then measured using the ASD.
Measurement: Bidirectional reflectance
First Column: X
Second Column: Y
X Units: Wavelength (micrometers)
Y Units: Reflectance (percentage)
First X Value: 0.35
Last X Value: 2.5
Number of X Values: 2151
Additional Information: vegetation.shrub.baccharis.pilularis.vswir.vh193.ucsb.asd.ancillary.txt

 0.3500	 5.3010
 0.3510	 5.3970
 0.3520	 5.3440
 0.3530	 5.3980
 0.3540	 5.6440
 0.3550	 5.3420
 0.3560	 5.3840
 0.3570	 5.6770
 0.3580	 5.6630
 0.3590	 5.6180
 0.3600	 5.5080
 0.3610	 5.3990
 0.3620	 5.5370
 0.3630	 5.5630
 0.3640	 5.5110
 0.3650	 5.4980
 0.3660	 5.5080
 0.3670	 5.5430
 0.3680	 5.6100
 0.3690	 5.7130
 0.3700	 5.7930
 0.3710	 5.7740
 0.3720	 5.6650
 0.3730	 5.6080
 0.3740	 5.5980
 0.3750	 5.6120
 0.3760	 5.6210
 0.3770	 5.6150
 0.3780	 5.6640
 0.3790	 5.7340
 0.3800	 5.7240
 0.3810	 5.7470
 0.3820	 5.7400
 0.3830	 5.6570
 0.3840	 5.5220
 0.3850	 5.6100
 0.3860	 5.8380
 0.3870	 5.9850
 0.3880	 5.9410
 0.3890	 5.9090
 0.3900	 5.9430
 0.3910	 5.9250
 0.3920	 5.8760
 0.3930	 5.9190
 0.3940	 6.0820
 0.3950	 6.0860
 0.3960	 6.1220
 0.3970	 6.1850
 0.3980	 6.1890
 0.3990	 6.1890
 0.4000	 6.1860
 0.4010	 6.1970
 0.4020	 6.2710
 0.4030	 6.3010
 0.4040	 6.3070
 0.4050	 6.3390
 0.4060	 6.4540
 0.4070	 6.4960
 0.4080	 6.4640
 0.4090	 6.4610
 0.4100	 6.5050
 0.4110	 6.5610
 0.4120	 6.6100
 0.4130	 6.6750
 0.4140	 6.7060
 0.4150	 6.7210
 0.4160	 6.7560
 0.4170	 6.8050
 0.4180	 6.8330
 0.4190	 6.8440
 0.4200	 6.8730
 0.4210	 6.9260
 0.4220	 6.9740
 0.4230	 7.0000
 0.4240	 7.0380
 0.4250	 7.0720
 0.4260	 7.0900
 0.4270	 7.0910
 0.4280	 7.1400
 0.4290	 7.1790
 0.4300	 7.1870
 0.4310	 7.2110
 0.4320	 7.2390
 0.4330	 7.2670
 0.4340	 7.2920
 0.4350	 7.3340
 0.4360	 7.3530
 0.4370	 7.3540
 0.4380	 7.3710
 0.4390	 7.4180
 0.4400	 7.4530
 0.4410	 7.4520
 0.4420	 7.4510
 0.4430	 7.4860
 0.4440	 7.5340
 0.4450	 7.5570
 0.4460	 7.5850
 0.4470	 7.6110
 0.4480	 7.6300
 0.4490	 7.6410
 0.4500	 7.6620
 0.4510	 7.6900
 0.4520	 7.7140
 0.4530	 7.7160
 0.4540	 7.7420
 0.4550	 7.7780
 0.4560	 7.7760
 0.4570	 7.7930
 0.4580	 7.8110
 0.4590	 7.8220
 0.4600	 7.8490
 0.4610	 7.8520
 0.4620	 7.8540
 0.4630	 7.8830
 0.4640	 7.8930
 0.4650	 7.8850
 0.4660	 7.8820
 0.4670	 7.9270
 0.4680	 7.9250
 0.4690	 7.9140
 0.4700	 7.9330
 0.4710	 7.9500
 0.4720	 7.9560
 0.4730	 7.9600
 0.4740	 7.9740
 0.4750	 7.9790
 0.4760	 7.9980
 0.4770	 8.0260
 0.4780	 7.9920
 0.4790	 7.9900
 0.4800	 8.0120
 0.4810	 8.0250
 0.4820	 8.0460
 0.4830	 8.0650
 0.4840	 8.0720
 0.4850	 8.0630
 0.4860	 8.0860
 0.4870	 8.1140
 0.4880	 8.1280
 0.4890	 8.1510
 0.4900	 8.1820
 0.4910	 8.2120
 0.4920	 8.2340
 0.4930	 8.2370
 0.4940	 8.2660
 0.4950	 8.3270
 0.4960	 8.3630
 0.4970	 8.4140
 0.4980	 8.4670
 0.4990	 8.5040
 0.5000	 8.5510
 0.5010	 8.6050
 0.5020	 8.6730
 0.5030	 8.7660
 0.5040	 8.8410
 0.5050	 8.9140
 0.5060	 9.0040
 0.5070	 9.1100
 0.5080	 9.2140
 0.5090	 9.3190
 0.5100	 9.4370
 0.5110	 9.5780
 0.5120	 9.7280
 0.5130	 9.8820
 0.5140	10.0430
 0.5150	10.2150
 0.5160	10.3980
 0.5170	10.5890
 0.5180	10.7830
 0.5190	10.9880
 0.5200	11.2020
 0.5210	11.4150
 0.5220	11.6300
 0.5230	11.8370
 0.5240	12.0330
 0.5250	12.2350
 0.5260	12.4370
 0.5270	12.6250
 0.5280	12.7890
 0.5290	12.9470
 0.5300	13.1020
 0.5310	13.2490
 0.5320	13.3750
 0.5330	13.4820
 0.5340	13.5790
 0.5350	13.6740
 0.5360	13.7680
 0.5370	13.8490
 0.5380	13.9140
 0.5390	13.9710
 0.5400	14.0270
 0.5410	14.0760
 0.5420	14.1140
 0.5430	14.1620
 0.5440	14.2110
 0.5450	14.2610
 0.5460	14.3150
 0.5470	14.3610
 0.5480	14.4070
 0.5490	14.4510
 0.5500	14.4860
 0.5510	14.5050
 0.5520	14.5200
 0.5530	14.5370
 0.5540	14.5310
 0.5550	14.5160
 0.5560	14.4940
 0.5570	14.4550
 0.5580	14.4070
 0.5590	14.3500
 0.5600	14.2840
 0.5610	14.2040
 0.5620	14.1160
 0.5630	14.0200
 0.5640	13.9130
 0.5650	13.8010
 0.5660	13.6890
 0.5670	13.5730
 0.5680	13.4480
 0.5690	13.3180
 0.5700	13.1870
 0.5710	13.0600
 0.5720	12.9370
 0.5730	12.8210
 0.5740	12.7140
 0.5750	12.6160
 0.5760	12.5280
 0.5770	12.4460
 0.5780	12.3640
 0.5790	12.2870
 0.5800	12.2130
 0.5810	12.1450
 0.5820	12.0840
 0.5830	12.0200
 0.5840	11.9600
 0.5850	11.9050
 0.5860	11.8530
 0.5870	11.7980
 0.5880	11.7420
 0.5890	11.6900
 0.5900	11.6500
 0.5910	11.6220
 0.5920	11.5980
 0.5930	11.5650
 0.5940	11.5470
 0.5950	11.5360
 0.5960	11.5210
 0.5970	11.4990
 0.5980	11.4760
 0.5990	11.4590
 0.6000	11.4490
 0.6010	11.4200
 0.6020	11.3810
 0.6030	11.3410
 0.6040	11.3040
 0.6050	11.2590
 0.6060	11.2050
 0.6070	11.1430
 0.6080	11.0770
 0.6090	11.0090
 0.6100	10.9360
 0.6110	10.8560
 0.6120	10.7910
 0.6130	10.7280
 0.6140	10.6650
 0.6150	10.6160
 0.6160	10.5590
 0.6170	10.5000
 0.6180	10.4530
 0.6190	10.4080
 0.6200	10.3700
 0.6210	10.3370
 0.6220	10.3080
 0.6230	10.2830
 0.6240	10.2630
 0.6250	10.2480
 0.6260	10.2340
 0.6270	10.2240
 0.6280	10.2170
 0.6290	10.2080
 0.6300	10.2010
 0.6310	10.1960
 0.6320	10.1920
 0.6330	10.1850
 0.6340	10.1700
 0.6350	10.1480
 0.6360	10.1210
 0.6370	10.0860
 0.6380	10.0420
 0.6390	 9.9930
 0.6400	 9.9450
 0.6410	 9.8890
 0.6420	 9.8270
 0.6430	 9.7650
 0.6440	 9.7080
 0.6450	 9.6430
 0.6460	 9.5780
 0.6470	 9.5200
 0.6480	 9.4580
 0.6490	 9.4040
 0.6500	 9.3600
 0.6510	 9.3190
 0.6520	 9.2810
 0.6530	 9.2430
 0.6540	 9.2020
 0.6550	 9.1620
 0.6560	 9.1180
 0.6570	 9.0710
 0.6580	 9.0220
 0.6590	 8.9720
 0.6600	 8.9210
 0.6610	 8.8720
 0.6620	 8.8250
 0.6630	 8.7790
 0.6640	 8.7370
 0.6650	 8.7020
 0.6660	 8.6680
 0.6670	 8.6450
 0.6680	 8.6310
 0.6690	 8.6170
 0.6700	 8.6110
 0.6710	 8.6110
 0.6720	 8.6150
 0.6730	 8.6300
 0.6740	 8.6400
 0.6750	 8.6560
 0.6760	 8.6850
 0.6770	 8.7140
 0.6780	 8.7460
 0.6790	 8.7820
 0.6800	 8.8250
 0.6810	 8.8730
 0.6820	 8.9290
 0.6830	 8.9960
 0.6840	 9.0700
 0.6850	 9.1570
 0.6860	 9.2570
 0.6870	 9.3720
 0.6880	 9.5250
 0.6890	 9.7050
 0.6900	 9.9150
 0.6910	10.1720
 0.6920	10.4820
 0.6930	10.8440
 0.6940	11.2540
 0.6950	11.7180
 0.6960	12.2360
 0.6970	12.8110
 0.6980	13.4390
 0.6990	14.1050
 0.7000	14.8170
 0.7010	15.5680
 0.7020	16.3410
 0.7030	17.1300
 0.7040	17.9370
 0.7050	18.7580
 0.7060	19.5730
 0.7070	20.3910
 0.7080	21.2120
 0.7090	22.0350
 0.7100	22.8480
 0.7110	23.6520
 0.7120	24.4470
 0.7130	25.2320
 0.7140	26.0050
 0.7150	26.7670
 0.7160	27.5170
 0.7170	28.2460
 0.7180	28.9590
 0.7190	29.6560
 0.7200	30.3370
 0.7210	30.9870
 0.7220	31.6190
 0.7230	32.2350
 0.7240	32.8280
 0.7250	33.3980
 0.7260	33.9410
 0.7270	34.4550
 0.7280	34.9390
 0.7290	35.4050
 0.7300	35.8530
 0.7310	36.2760
 0.7320	36.6750
 0.7330	37.0490
 0.7340	37.3950
 0.7350	37.7140
 0.7360	38.0240
 0.7370	38.3230
 0.7380	38.6030
 0.7390	38.8630
 0.7400	39.0900
 0.7410	39.3010
 0.7420	39.5180
 0.7430	39.7130
 0.7440	39.8890
 0.7450	40.0510
 0.7460	40.2000
 0.7470	40.3410
 0.7480	40.4700
 0.7490	40.5860
 0.7500	40.6920
 0.7510	40.7860
 0.7520	40.8690
 0.7530	40.9470
 0.7540	41.0300
 0.7550	41.1070
 0.7560	41.1730
 0.7570	41.2260
 0.7580	41.2730
 0.7590	41.3170
 0.7600	41.3590
 0.7610	41.4100
 0.7620	41.4460
 0.7630	41.4740
 0.7640	41.5070
 0.7650	41.5340
 0.7660	41.5570
 0.7670	41.5820
 0.7680	41.6180
 0.7690	41.6260
 0.7700	41.6390
 0.7710	41.6680
 0.7720	41.6900
 0.7730	41.7030
 0.7740	41.7180
 0.7750	41.7400
 0.7760	41.7580
 0.7770	41.7830
 0.7780	41.8060
 0.7790	41.8140
 0.7800	41.8260
 0.7810	41.8350
 0.7820	41.8480
 0.7830	41.8850
 0.7840	41.9010
 0.7850	41.9210
 0.7860	41.9560
 0.7870	41.9610
 0.7880	41.9720
 0.7890	41.9900
 0.7900	42.0050
 0.7910	42.0360
 0.7920	42.0650
 0.7930	42.0830
 0.7940	42.0930
 0.7950	42.1070
 0.7960	42.1240
 0.7970	42.1440
 0.7980	42.1710
 0.7990	42.1920
 0.8000	42.2050
 0.8010	42.2140
 0.8020	42.2350
 0.8030	42.2570
 0.8040	42.2730
 0.8050	42.2840
 0.8060	42.3190
 0.8070	42.3410
 0.8080	42.3470
 0.8090	42.3620
 0.8100	42.3850
 0.8110	42.4070
 0.8120	42.4280
 0.8130	42.4560
 0.8140	42.4620
 0.8150	42.4670
 0.8160	42.4950
 0.8170	42.5290
 0.8180	42.5480
 0.8190	42.5540
 0.8200	42.5610
 0.8210	42.5770
 0.8220	42.6030
 0.8230	42.6330
 0.8240	42.6580
 0.8250	42.6720
 0.8260	42.6760
 0.8270	42.6800
 0.8280	42.7050
 0.8290	42.7210
 0.8300	42.7290
 0.8310	42.7400
 0.8320	42.7560
 0.8330	42.7750
 0.8340	42.8020
 0.8350	42.8400
 0.8360	42.8390
 0.8370	42.8450
 0.8380	42.8670
 0.8390	42.8850
 0.8400	42.8930
 0.8410	42.9040
 0.8420	42.9290
 0.8430	42.9700
 0.8440	42.9750
 0.8450	42.9770
 0.8460	43.0030
 0.8470	43.0260
 0.8480	43.0360
 0.8490	43.0480
 0.8500	43.0760
 0.8510	43.1070
 0.8520	43.1110
 0.8530	43.1070
 0.8540	43.1330
 0.8550	43.1560
 0.8560	43.1610
 0.8570	43.1640
 0.8580	43.2090
 0.8590	43.2320
 0.8600	43.2360
 0.8610	43.2380
 0.8620	43.2620
 0.8630	43.2790
 0.8640	43.2910
 0.8650	43.3060
 0.8660	43.3180
 0.8670	43.3440
 0.8680	43.3640
 0.8690	43.3620
 0.8700	43.3860
 0.8710	43.4050
 0.8720	43.4160
 0.8730	43.4310
 0.8740	43.4350
 0.8750	43.4450
 0.8760	43.4690
 0.8770	43.4950
 0.8780	43.5020
 0.8790	43.5180
 0.8800	43.5490
 0.8810	43.5520
 0.8820	43.5580
 0.8830	43.5700
 0.8840	43.5880
 0.8850	43.6210
 0.8860	43.6230
 0.8870	43.6230
 0.8880	43.6530
 0.8890	43.6730
 0.8900	43.6910
 0.8910	43.7050
 0.8920	43.7090
 0.8930	43.7260
 0.8940	43.7520
 0.8950	43.7780
 0.8960	43.7940
 0.8970	43.8050
 0.8980	43.8080
 0.8990	43.8120
 0.9000	43.8320
 0.9010	43.8470
 0.9020	43.8700
 0.9030	43.9000
 0.9040	43.9180
 0.9050	43.9250
 0.9060	43.9330
 0.9070	43.9470
 0.9080	43.9650
 0.9090	43.9740
 0.9100	43.9820
 0.9110	43.9960
 0.9120	44.0020
 0.9130	44.0160
 0.9140	44.0400
 0.9150	44.0660
 0.9160	44.0790
 0.9170	44.0930
 0.9180	44.0990
 0.9190	44.0900
 0.9200	44.1090
 0.9210	44.1240
 0.9220	44.1330
 0.9230	44.1510
 0.9240	44.1490
 0.9250	44.1470
 0.9260	44.1520
 0.9270	44.1560
 0.9280	44.1540
 0.9290	44.1670
 0.9300	44.1780
 0.9310	44.1430
 0.9320	44.1330
 0.9330	44.1320
 0.9340	44.1250
 0.9350	44.1140
 0.9360	44.1350
 0.9370	44.1600
 0.9380	44.1550
 0.9390	44.1020
 0.9400	44.0750
 0.9410	44.0820
 0.9420	44.0960
 0.9430	44.0550
 0.9440	44.0480
 0.9450	44.0330
 0.9460	43.9790
 0.9470	43.9420
 0.9480	43.9380
 0.9490	43.9310
 0.9500	43.8920
 0.9510	43.8530
 0.9520	43.8200
 0.9530	43.7790
 0.9540	43.7220
 0.9550	43.6800
 0.9560	43.6160
 0.9570	43.5650
 0.9580	43.5560
 0.9590	43.5310
 0.9600	43.4970
 0.9610	43.4710
 0.9620	43.4620
 0.9630	43.4270
 0.9640	43.4150
 0.9650	43.4190
 0.9660	43.4170
 0.9670	43.4260
 0.9680	43.4260
 0.9690	43.4180
 0.9700	43.4160
 0.9710	43.4320
 0.9720	43.4460
 0.9730	43.4560
 0.9740	43.4710
 0.9750	43.4890
 0.9760	43.5050
 0.9770	43.5140
 0.9780	43.5200
 0.9790	43.5540
 0.9800	43.5440
 0.9810	43.5260
 0.9820	43.5700
 0.9830	43.6370
 0.9840	43.6500
 0.9850	43.6480
 0.9860	43.6980
 0.9870	43.6970
 0.9880	43.7290
 0.9890	43.7790
 0.9900	43.7950
 0.9910	43.8220
 0.9920	43.9560
 0.9930	44.0900
 0.9940	44.2240
 0.9950	44.3580
 0.9960	44.4920
 0.9970	44.6260
 0.9980	44.7600
 0.9990	44.8930
 1.0000	45.0270
 1.0010	45.1610
 1.0020	45.2950
 1.0030	45.4290
 1.0040	45.5630
 1.0050	45.6970
 1.0060	45.8310
 1.0070	45.9640
 1.0080	46.0980
 1.0090	46.2320
 1.0100	46.2320
 1.0110	46.2500
 1.0120	46.2740
 1.0130	46.3010
 1.0140	46.3320
 1.0150	46.3630
 1.0160	46.4010
 1.0170	46.4420
 1.0180	46.4700
 1.0190	46.4960
 1.0200	46.5210
 1.0210	46.5410
 1.0220	46.5720
 1.0230	46.5980
 1.0240	46.6210
 1.0250	46.6470
 1.0260	46.6730
 1.0270	46.7000
 1.0280	46.7320
 1.0290	46.7590
 1.0300	46.7850
 1.0310	46.8090
 1.0320	46.8330
 1.0330	46.8490
 1.0340	46.8780
 1.0350	46.9060
 1.0360	46.9380
 1.0370	46.9770
 1.0380	47.0040
 1.0390	47.0230
 1.0400	47.0490
 1.0410	47.0740
 1.0420	47.0940
 1.0430	47.1150
 1.0440	47.1330
 1.0450	47.1470
 1.0460	47.1600
 1.0470	47.1740
 1.0480	47.1880
 1.0490	47.1990
 1.0500	47.2110
 1.0510	47.2230
 1.0520	47.2420
 1.0530	47.2520
 1.0540	47.2570
 1.0550	47.2710
 1.0560	47.2920
 1.0570	47.3000
 1.0580	47.3060
 1.0590	47.3120
 1.0600	47.3070
 1.0610	47.3060
 1.0620	47.3080
 1.0630	47.3110
 1.0640	47.3080
 1.0650	47.3100
 1.0660	47.3280
 1.0670	47.3320
 1.0680	47.3310
 1.0690	47.3250
 1.0700	47.3240
 1.0710	47.3190
 1.0720	47.3130
 1.0730	47.3120
 1.0740	47.3060
 1.0750	47.2940
 1.0760	47.2860
 1.0770	47.2830
 1.0780	47.2730
 1.0790	47.2570
 1.0800	47.2470
 1.0810	47.2340
 1.0820	47.2260
 1.0830	47.2320
 1.0840	47.2260
 1.0850	47.2190
 1.0860	47.2070
 1.0870	47.1940
 1.0880	47.1710
 1.0890	47.1620
 1.0900	47.1650
 1.0910	47.1550
 1.0920	47.1470
 1.0930	47.1350
 1.0940	47.1120
 1.0950	47.0990
 1.0960	47.0950
 1.0970	47.0840
 1.0980	47.0710
 1.0990	47.0600
 1.1000	47.0460
 1.1010	47.0360
 1.1020	47.0270
 1.1030	47.0260
 1.1040	47.0160
 1.1050	47.0050
 1.1060	46.9980
 1.1070	46.9930
 1.1080	46.9840
 1.1090	46.9790
 1.1100	46.9690
 1.1110	46.9540
 1.1120	46.9390
 1.1130	46.9230
 1.1140	46.9070
 1.1150	46.8860
 1.1160	46.8700
 1.1170	46.8650
 1.1180	46.8500
 1.1190	46.8350
 1.1200	46.8190
 1.1210	46.7940
 1.1220	46.7670
 1.1230	46.7440
 1.1240	46.7150
 1.1250	46.6780
 1.1260	46.6380
 1.1270	46.5890
 1.1280	46.5330
 1.1290	46.4690
 1.1300	46.3990
 1.1310	46.3220
 1.1320	46.2370
 1.1330	46.1440
 1.1340	46.0400
 1.1350	45.9340
 1.1360	45.8220
 1.1370	45.7090
 1.1380	45.5890
 1.1390	45.4620
 1.1400	45.3320
 1.1410	45.2010
 1.1420	45.0690
 1.1430	44.9370
 1.1440	44.7990
 1.1450	44.6500
 1.1460	44.5120
 1.1470	44.3710
 1.1480	44.2440
 1.1490	44.1240
 1.1500	44.0100
 1.1510	43.9020
 1.1520	43.8040
 1.1530	43.7120
 1.1540	43.6320
 1.1550	43.5670
 1.1560	43.5030
 1.1570	43.4420
 1.1580	43.3870
 1.1590	43.3420
 1.1600	43.3080
 1.1610	43.2830
 1.1620	43.2660
 1.1630	43.2460
 1.1640	43.2260
 1.1650	43.2110
 1.1660	43.1960
 1.1670	43.1880
 1.1680	43.1870
 1.1690	43.1820
 1.1700	43.1810
 1.1710	43.1760
 1.1720	43.1650
 1.1730	43.1600
 1.1740	43.1580
 1.1750	43.1520
 1.1760	43.1480
 1.1770	43.1450
 1.1780	43.1390
 1.1790	43.1380
 1.1800	43.1370
 1.1810	43.1320
 1.1820	43.1240
 1.1830	43.1090
 1.1840	43.1000
 1.1850	43.0940
 1.1860	43.0890
 1.1870	43.0910
 1.1880	43.0910
 1.1890	43.0910
 1.1900	43.0930
 1.1910	43.1000
 1.1920	43.1040
 1.1930	43.1080
 1.1940	43.1100
 1.1950	43.1070
 1.1960	43.1080
 1.1970	43.1130
 1.1980	43.1260
 1.1990	43.1470
 1.2000	43.1650
 1.2010	43.1860
 1.2020	43.2060
 1.2030	43.2220
 1.2040	43.2440
 1.2050	43.2710
 1.2060	43.2980
 1.2070	43.3260
 1.2080	43.3540
 1.2090	43.3850
 1.2100	43.4160
 1.2110	43.4450
 1.2120	43.4750
 1.2130	43.5050
 1.2140	43.5240
 1.2150	43.5550
 1.2160	43.5920
 1.2170	43.6290
 1.2180	43.6670
 1.2190	43.7060
 1.2200	43.7360
 1.2210	43.7660
 1.2220	43.8000
 1.2230	43.8310
 1.2240	43.8660
 1.2250	43.9010
 1.2260	43.9310
 1.2270	43.9650
 1.2280	43.9980
 1.2290	44.0270
 1.2300	44.0550
 1.2310	44.0820
 1.2320	44.1080
 1.2330	44.1400
 1.2340	44.1700
 1.2350	44.2010
 1.2360	44.2270
 1.2370	44.2530
 1.2380	44.2740
 1.2390	44.2930
 1.2400	44.3150
 1.2410	44.3410
 1.2420	44.3710
 1.2430	44.3960
 1.2440	44.4130
 1.2450	44.4290
 1.2460	44.4450
 1.2470	44.4590
 1.2480	44.4790
 1.2490	44.5010
 1.2500	44.5140
 1.2510	44.5280
 1.2520	44.5390
 1.2530	44.5490
 1.2540	44.5580
 1.2550	44.5670
 1.2560	44.5800
 1.2570	44.5940
 1.2580	44.6090
 1.2590	44.6180
 1.2600	44.6240
 1.2610	44.6290
 1.2620	44.6310
 1.2630	44.6340
 1.2640	44.6410
 1.2650	44.6470
 1.2660	44.6500
 1.2670	44.6510
 1.2680	44.6490
 1.2690	44.6510
 1.2700	44.6530
 1.2710	44.6510
 1.2720	44.6540
 1.2730	44.6600
 1.2740	44.6590
 1.2750	44.6590
 1.2760	44.6540
 1.2770	44.6370
 1.2780	44.6180
 1.2790	44.6030
 1.2800	44.5900
 1.2810	44.5780
 1.2820	44.5630
 1.2830	44.5440
 1.2840	44.5170
 1.2850	44.4860
 1.2860	44.4520
 1.2870	44.4200
 1.2880	44.3870
 1.2890	44.3530
 1.2900	44.3170
 1.2910	44.2780
 1.2920	44.2370
 1.2930	44.1930
 1.2940	44.1440
 1.2950	44.0940
 1.2960	44.0390
 1.2970	43.9790
 1.2980	43.9230
 1.2990	43.8620
 1.3000	43.7980
 1.3010	43.7310
 1.3020	43.6560
 1.3030	43.5800
 1.3040	43.5050
 1.3050	43.4270
 1.3060	43.3480
 1.3070	43.2680
 1.3080	43.1840
 1.3090	43.0970
 1.3100	43.0050
 1.3110	42.9080
 1.3120	42.8110
 1.3130	42.7140
 1.3140	42.6130
 1.3150	42.5130
 1.3160	42.4110
 1.3170	42.3070
 1.3180	42.1960
 1.3190	42.0870
 1.3200	41.9740
 1.3210	41.8600
 1.3220	41.7460
 1.3230	41.6260
 1.3240	41.5060
 1.3250	41.3830
 1.3260	41.2600
 1.3270	41.1400
 1.3280	41.0120
 1.3290	40.8830
 1.3300	40.7520
 1.3310	40.6150
 1.3320	40.4810
 1.3330	40.3440
 1.3340	40.2030
 1.3350	40.0680
 1.3360	39.9340
 1.3370	39.7940
 1.3380	39.6570
 1.3390	39.5200
 1.3400	39.3790
 1.3410	39.2450
 1.3420	39.1140
 1.3430	38.9820
 1.3440	38.8540
 1.3450	38.7260
 1.3460	38.5980
 1.3470	38.4700
 1.3480	38.3440
 1.3490	38.2190
 1.3500	38.0930
 1.3510	37.9710
 1.3520	37.8500
 1.3530	37.7270
 1.3540	37.6000
 1.3550	37.4750
 1.3560	37.3460
 1.3570	37.2150
 1.3580	37.0860
 1.3590	36.9500
 1.3600	36.8130
 1.3610	36.6710
 1.3620	36.5190
 1.3630	36.3660
 1.3640	36.2050
 1.3650	36.0340
 1.3660	35.8550
 1.3670	35.6670
 1.3680	35.4670
 1.3690	35.2520
 1.3700	35.0240
 1.3710	34.7820
 1.3720	34.5240
 1.3730	34.2480
 1.3740	33.9580
 1.3750	33.6540
 1.3760	33.3260
 1.3770	32.9790
 1.3780	32.6110
 1.3790	32.2160
 1.3800	31.8010
 1.3810	31.3650
 1.3820	30.9120
 1.3830	30.4390
 1.3840	29.9510
 1.3850	29.4430
 1.3860	28.9250
 1.3870	28.3890
 1.3880	27.8520
 1.3890	27.3040
 1.3900	26.7520
 1.3910	26.2040
 1.3920	25.6520
 1.3930	25.1050
 1.3940	24.5660
 1.3950	24.0300
 1.3960	23.5070
 1.3970	22.9970
 1.3980	22.5040
 1.3990	22.0350
 1.4000	21.5870
 1.4010	21.1570
 1.4020	20.7480
 1.4030	20.3550
 1.4040	19.9820
 1.4050	19.6320
 1.4060	19.3040
 1.4070	19.0030
 1.4080	18.7190
 1.4090	18.4520
 1.4100	18.2070
 1.4110	17.9800
 1.4120	17.7730
 1.4130	17.5860
 1.4140	17.4160
 1.4150	17.2610
 1.4160	17.1200
 1.4170	16.9920
 1.4180	16.8760
 1.4190	16.7680
 1.4200	16.6710
 1.4210	16.5810
 1.4220	16.4970
 1.4230	16.4260
 1.4240	16.3640
 1.4250	16.3070
 1.4260	16.2620
 1.4270	16.2200
 1.4280	16.1830
 1.4290	16.1510
 1.4300	16.1260
 1.4310	16.1050
 1.4320	16.0890
 1.4330	16.0760
 1.4340	16.0680
 1.4350	16.0620
 1.4360	16.0590
 1.4370	16.0600
 1.4380	16.0640
 1.4390	16.0680
 1.4400	16.0750
 1.4410	16.0840
 1.4420	16.0930
 1.4430	16.1050
 1.4440	16.1190
 1.4450	16.1350
 1.4460	16.1510
 1.4470	16.1720
 1.4480	16.1950
 1.4490	16.2170
 1.4500	16.2420
 1.4510	16.2650
 1.4520	16.2880
 1.4530	16.3130
 1.4540	16.3410
 1.4550	16.3710
 1.4560	16.4020
 1.4570	16.4360
 1.4580	16.4730
 1.4590	16.5090
 1.4600	16.5500
 1.4610	16.5940
 1.4620	16.6430
 1.4630	16.6980
 1.4640	16.7570
 1.4650	16.8200
 1.4660	16.8870
 1.4670	16.9600
 1.4680	17.0360
 1.4690	17.1150
