Name: Baccharis pilularis 3
Type: vegetation
Class: Shrub
Genus: Baccharis
Species: pilularis
Sample No.: VH005
Owner: UCSB
Wavelength Range: VSWIR
Origin: 34.418; -119.8456; WGS84
Collection Date: 4/1/2013
Description: Samples were collected as part of the HyspIRI Airborne Campaign. 48 individual plants were sampled in three times in 2013 - spring  summer  and fall. The name of the sample includes a 1  2  or 3 which references a different individual of the species. Samples were taken to JPL and processed within 48 hours of collection. The same leaves were processed in the Nicolet and then measured using the ASD.
Measurement: Bidirectional reflectance
First Column: X
Second Column: Y
X Units: Wavelength (micrometers)
Y Units: Reflectance (percentage)
First X Value: 0.35
Last X Value: 2.5
Number of X Values: 2151
Additional Information: vegetation.shrub.baccharis.pilularis.vswir.vh005.ucsb.asd.ancillary.txt

 0.3500	 3.6000
 0.3510	 3.8630
 0.3520	 3.6580
 0.3530	 3.4500
 0.3540	 3.6060
 0.3550	 3.6840
 0.3560	 3.5940
 0.3570	 3.4530
 0.3580	 3.4570
 0.3590	 3.5270
 0.3600	 3.5980
 0.3610	 3.6260
 0.3620	 3.5880
 0.3630	 3.6070
 0.3640	 3.6140
 0.3650	 3.5380
 0.3660	 3.5200
 0.3670	 3.4770
 0.3680	 3.4280
 0.3690	 3.4580
 0.3700	 3.5230
 0.3710	 3.5450
 0.3720	 3.5190
 0.3730	 3.5790
 0.3740	 3.6190
 0.3750	 3.6120
 0.3760	 3.5640
 0.3770	 3.4990
 0.3780	 3.5420
 0.3790	 3.6430
 0.3800	 3.6190
 0.3810	 3.5890
 0.3820	 3.6100
 0.3830	 3.6720
 0.3840	 3.6440
 0.3850	 3.6090
 0.3860	 3.5880
 0.3870	 3.5880
 0.3880	 3.6790
 0.3890	 3.7370
 0.3900	 3.7070
 0.3910	 3.6300
 0.3920	 3.6610
 0.3930	 3.7140
 0.3940	 3.7040
 0.3950	 3.6820
 0.3960	 3.7090
 0.3970	 3.7750
 0.3980	 3.8350
 0.3990	 3.8650
 0.4000	 3.8610
 0.4010	 3.8520
 0.4020	 3.8900
 0.4030	 3.9300
 0.4040	 3.9650
 0.4050	 3.9970
 0.4060	 4.0200
 0.4070	 4.0300
 0.4080	 4.0420
 0.4090	 4.0820
 0.4100	 4.1420
 0.4110	 4.1930
 0.4120	 4.2240
 0.4130	 4.2440
 0.4140	 4.2830
 0.4150	 4.3340
 0.4160	 4.3780
 0.4170	 4.3980
 0.4180	 4.4350
 0.4190	 4.4900
 0.4200	 4.5260
 0.4210	 4.5770
 0.4220	 4.6180
 0.4230	 4.6360
 0.4240	 4.6730
 0.4250	 4.7030
 0.4260	 4.7370
 0.4270	 4.7930
 0.4280	 4.8160
 0.4290	 4.8460
 0.4300	 4.8930
 0.4310	 4.9180
 0.4320	 4.9380
 0.4330	 4.9650
 0.4340	 5.0040
 0.4350	 5.0320
 0.4360	 5.0560
 0.4370	 5.0790
 0.4380	 5.0930
 0.4390	 5.1090
 0.4400	 5.1280
 0.4410	 5.1530
 0.4420	 5.1780
 0.4430	 5.2050
 0.4440	 5.2320
 0.4450	 5.2580
 0.4460	 5.2750
 0.4470	 5.2960
 0.4480	 5.3240
 0.4490	 5.3460
 0.4500	 5.3620
 0.4510	 5.3830
 0.4520	 5.4180
 0.4530	 5.4510
 0.4540	 5.4720
 0.4550	 5.4840
 0.4560	 5.4980
 0.4570	 5.5120
 0.4580	 5.5260
 0.4590	 5.5380
 0.4600	 5.5390
 0.4610	 5.5430
 0.4620	 5.5560
 0.4630	 5.5750
 0.4640	 5.5780
 0.4650	 5.5790
 0.4660	 5.5880
 0.4670	 5.6100
 0.4680	 5.6020
 0.4690	 5.5960
 0.4700	 5.6130
 0.4710	 5.6070
 0.4720	 5.6110
 0.4730	 5.6230
 0.4740	 5.6240
 0.4750	 5.6220
 0.4760	 5.6250
 0.4770	 5.6320
 0.4780	 5.6330
 0.4790	 5.6460
 0.4800	 5.6580
 0.4810	 5.6570
 0.4820	 5.6680
 0.4830	 5.6810
 0.4840	 5.6910
 0.4850	 5.7020
 0.4860	 5.7200
 0.4870	 5.7380
 0.4880	 5.7550
 0.4890	 5.7850
 0.4900	 5.8060
 0.4910	 5.8230
 0.4920	 5.8510
 0.4930	 5.8950
 0.4940	 5.9340
 0.4950	 5.9620
 0.4960	 6.0080
 0.4970	 6.0530
 0.4980	 6.1010
 0.4990	 6.1580
 0.5000	 6.2280
 0.5010	 6.3050
 0.5020	 6.3840
 0.5030	 6.4640
 0.5040	 6.5610
 0.5050	 6.6660
 0.5060	 6.7740
 0.5070	 6.8960
 0.5080	 7.0270
 0.5090	 7.1680
 0.5100	 7.3240
 0.5110	 7.4840
 0.5120	 7.6580
 0.5130	 7.8480
 0.5140	 8.0540
 0.5150	 8.2660
 0.5160	 8.4860
 0.5170	 8.7180
 0.5180	 8.9580
 0.5190	 9.2050
 0.5200	 9.4560
 0.5210	 9.7130
 0.5220	 9.9670
 0.5230	10.2210
 0.5240	10.4720
 0.5250	10.7050
 0.5260	10.9300
 0.5270	11.1480
 0.5280	11.3540
 0.5290	11.5440
 0.5300	11.7170
 0.5310	11.8750
 0.5320	12.0270
 0.5330	12.1600
 0.5340	12.2780
 0.5350	12.3860
 0.5360	12.4810
 0.5370	12.5650
 0.5380	12.6410
 0.5390	12.7120
 0.5400	12.7820
 0.5410	12.8480
 0.5420	12.9100
 0.5430	12.9750
 0.5440	13.0330
 0.5450	13.0860
 0.5460	13.1370
 0.5470	13.1690
 0.5480	13.1920
 0.5490	13.2130
 0.5500	13.2250
 0.5510	13.2350
 0.5520	13.2370
 0.5530	13.2230
 0.5540	13.1940
 0.5550	13.1530
 0.5560	13.0990
 0.5570	13.0310
 0.5580	12.9490
 0.5590	12.8570
 0.5600	12.7600
 0.5610	12.6570
 0.5620	12.5460
 0.5630	12.4280
 0.5640	12.3050
 0.5650	12.1710
 0.5660	12.0290
 0.5670	11.8820
 0.5680	11.7310
 0.5690	11.5710
 0.5700	11.4100
 0.5710	11.2580
 0.5720	11.1160
 0.5730	10.9810
 0.5740	10.8570
 0.5750	10.7510
 0.5760	10.6460
 0.5770	10.5430
 0.5780	10.4430
 0.5790	10.3510
 0.5800	10.2660
 0.5810	10.1850
 0.5820	10.1040
 0.5830	10.0250
 0.5840	 9.9430
 0.5850	 9.8620
 0.5860	 9.7890
 0.5870	 9.7200
 0.5880	 9.6490
 0.5890	 9.5780
 0.5900	 9.5190
 0.5910	 9.4850
 0.5920	 9.4670
 0.5930	 9.4480
 0.5940	 9.4330
 0.5950	 9.4140
 0.5960	 9.3890
 0.5970	 9.3630
 0.5980	 9.3290
 0.5990	 9.2930
 0.6000	 9.2590
 0.6010	 9.2170
 0.6020	 9.1690
 0.6030	 9.1200
 0.6040	 9.0690
 0.6050	 9.0110
 0.6060	 8.9450
 0.6070	 8.8730
 0.6080	 8.7980
 0.6090	 8.7190
 0.6100	 8.6410
 0.6110	 8.5710
 0.6120	 8.4890
 0.6130	 8.4010
 0.6140	 8.3140
 0.6150	 8.2370
 0.6160	 8.1620
 0.6170	 8.0920
 0.6180	 8.0320
 0.6190	 7.9770
 0.6200	 7.9260
 0.6210	 7.8820
 0.6220	 7.8430
 0.6230	 7.8070
 0.6240	 7.7760
 0.6250	 7.7520
 0.6260	 7.7270
 0.6270	 7.7120
 0.6280	 7.7010
 0.6290	 7.6870
 0.6300	 7.6770
 0.6310	 7.6690
 0.6320	 7.6590
 0.6330	 7.6400
 0.6340	 7.6170
 0.6350	 7.5890
 0.6360	 7.5530
 0.6370	 7.5110
 0.6380	 7.4630
 0.6390	 7.4060
 0.6400	 7.3440
 0.6410	 7.2780
 0.6420	 7.2100
 0.6430	 7.1390
 0.6440	 7.0610
 0.6450	 6.9870
 0.6460	 6.9130
 0.6470	 6.8410
 0.6480	 6.7730
 0.6490	 6.7100
 0.6500	 6.6540
 0.6510	 6.6040
 0.6520	 6.5530
 0.6530	 6.5050
 0.6540	 6.4600
 0.6550	 6.4100
 0.6560	 6.3570
 0.6570	 6.3010
 0.6580	 6.2400
 0.6590	 6.1770
 0.6600	 6.1140
 0.6610	 6.0490
 0.6620	 5.9860
 0.6630	 5.9310
 0.6640	 5.8820
 0.6650	 5.8390
 0.6660	 5.7980
 0.6670	 5.7660
 0.6680	 5.7440
 0.6690	 5.7300
 0.6700	 5.7210
 0.6710	 5.7170
 0.6720	 5.7190
 0.6730	 5.7280
 0.6740	 5.7390
 0.6750	 5.7560
 0.6760	 5.7800
 0.6770	 5.8060
 0.6780	 5.8360
 0.6790	 5.8730
 0.6800	 5.9180
 0.6810	 5.9660
 0.6820	 6.0240
 0.6830	 6.0940
 0.6840	 6.1760
 0.6850	 6.2720
 0.6860	 6.3870
 0.6870	 6.5250
 0.6880	 6.6930
 0.6890	 6.9000
 0.6900	 7.1510
 0.6910	 7.4510
 0.6920	 7.8050
 0.6930	 8.2140
 0.6940	 8.6800
 0.6950	 9.2090
 0.6960	 9.7930
 0.6970	10.4300
 0.6980	11.1190
 0.6990	11.8530
 0.7000	12.6250
 0.7010	13.4280
 0.7020	14.2550
 0.7030	15.0940
 0.7040	15.9430
 0.7050	16.7980
 0.7060	17.6530
 0.7070	18.5100
 0.7080	19.3590
 0.7090	20.1910
 0.7100	21.0170
 0.7110	21.8360
 0.7120	22.6420
 0.7130	23.4250
 0.7140	24.2000
 0.7150	24.9650
 0.7160	25.7120
 0.7170	26.4350
 0.7180	27.1380
 0.7190	27.8210
 0.7200	28.4870
 0.7210	29.1320
 0.7220	29.7520
 0.7230	30.3480
 0.7240	30.9240
 0.7250	31.4730
 0.7260	31.9940
 0.7270	32.4900
 0.7280	32.9660
 0.7290	33.4140
 0.7300	33.8360
 0.7310	34.2340
 0.7320	34.6100
 0.7330	34.9620
 0.7340	35.2930
 0.7350	35.6090
 0.7360	35.9050
 0.7370	36.1810
 0.7380	36.4360
 0.7390	36.6750
 0.7400	36.8920
 0.7410	37.0960
 0.7420	37.2980
 0.7430	37.4740
 0.7440	37.6370
 0.7450	37.7920
 0.7460	37.9320
 0.7470	38.0580
 0.7480	38.1700
 0.7490	38.2700
 0.7500	38.3640
 0.7510	38.4590
 0.7520	38.5470
 0.7530	38.6200
 0.7540	38.6840
 0.7550	38.7470
 0.7560	38.8030
 0.7570	38.8430
 0.7580	38.8930
 0.7590	38.9400
 0.7600	38.9770
 0.7610	39.0130
 0.7620	39.0420
 0.7630	39.0670
 0.7640	39.0980
 0.7650	39.1230
 0.7660	39.1440
 0.7670	39.1640
 0.7680	39.1840
 0.7690	39.2010
 0.7700	39.2170
 0.7710	39.2340
 0.7720	39.2520
 0.7730	39.2590
 0.7740	39.2660
 0.7750	39.2840
 0.7760	39.2990
 0.7770	39.3130
 0.7780	39.3280
 0.7790	39.3430
 0.7800	39.3520
 0.7810	39.3620
 0.7820	39.3760
 0.7830	39.3920
 0.7840	39.4030
 0.7850	39.4090
 0.7860	39.4160
 0.7870	39.4250
 0.7880	39.4380
 0.7890	39.4540
 0.7900	39.4680
 0.7910	39.4700
 0.7920	39.4720
 0.7930	39.4810
 0.7940	39.4940
 0.7950	39.5020
 0.7960	39.5070
 0.7970	39.5110
 0.7980	39.5180
 0.7990	39.5240
 0.8000	39.5290
 0.8010	39.5330
 0.8020	39.5320
 0.8030	39.5320
 0.8040	39.5290
 0.8050	39.5200
 0.8060	39.5290
 0.8070	39.5290
 0.8080	39.5170
 0.8090	39.5160
 0.8100	39.5150
 0.8110	39.5160
 0.8120	39.5170
 0.8130	39.5170
 0.8140	39.5050
 0.8150	39.4930
 0.8160	39.4920
 0.8170	39.4900
 0.8180	39.4830
 0.8190	39.4730
 0.8200	39.4620
 0.8210	39.4610
 0.8220	39.4580
 0.8230	39.4450
 0.8240	39.4270
 0.8250	39.4160
 0.8260	39.4080
 0.8270	39.4000
 0.8280	39.3910
 0.8290	39.3750
 0.8300	39.3590
 0.8310	39.3510
 0.8320	39.3470
 0.8330	39.3440
 0.8340	39.3360
 0.8350	39.3210
 0.8360	39.3110
 0.8370	39.3040
 0.8380	39.2980
 0.8390	39.2910
 0.8400	39.2930
 0.8410	39.2940
 0.8420	39.2880
 0.8430	39.2830
 0.8440	39.2830
 0.8450	39.2880
 0.8460	39.2930
 0.8470	39.2860
 0.8480	39.2800
 0.8490	39.2760
 0.8500	39.2730
 0.8510	39.2760
 0.8520	39.2810
 0.8530	39.2850
 0.8540	39.2910
 0.8550	39.2860
 0.8560	39.2850
 0.8570	39.2930
 0.8580	39.3010
 0.8590	39.2970
 0.8600	39.2970
 0.8610	39.3080
 0.8620	39.3130
 0.8630	39.3110
 0.8640	39.3150
 0.8650	39.3280
 0.8660	39.3300
 0.8670	39.3370
 0.8680	39.3500
 0.8690	39.3640
 0.8700	39.3710
 0.8710	39.3720
 0.8720	39.3730
 0.8730	39.3810
 0.8740	39.3840
 0.8750	39.3900
 0.8760	39.4040
 0.8770	39.4200
 0.8780	39.4300
 0.8790	39.4410
 0.8800	39.4540
 0.8810	39.4590
 0.8820	39.4650
 0.8830	39.4730
 0.8840	39.4840
 0.8850	39.4940
 0.8860	39.5020
 0.8870	39.5120
 0.8880	39.5270
 0.8890	39.5450
 0.8900	39.5530
 0.8910	39.5570
 0.8920	39.5680
 0.8930	39.5890
 0.8940	39.6010
 0.8950	39.6060
 0.8960	39.6120
 0.8970	39.6170
 0.8980	39.6310
 0.8990	39.6490
 0.9000	39.6440
 0.9010	39.6440
 0.9020	39.6570
 0.9030	39.6780
 0.9040	39.6930
 0.9050	39.7100
 0.9060	39.7270
 0.9070	39.7370
 0.9080	39.7290
 0.9090	39.7360
 0.9100	39.7530
 0.9110	39.7670
 0.9120	39.7790
 0.9130	39.7810
 0.9140	39.7820
 0.9150	39.7910
 0.9160	39.7980
 0.9170	39.8010
 0.9180	39.8050
 0.9190	39.8150
 0.9200	39.8130
 0.9210	39.8120
 0.9220	39.8160
 0.9230	39.8190
 0.9240	39.8140
 0.9250	39.8050
 0.9260	39.7960
 0.9270	39.7870
 0.9280	39.7780
 0.9290	39.7680
 0.9300	39.7560
 0.9310	39.7390
 0.9320	39.7250
 0.9330	39.7090
 0.9340	39.6900
 0.9350	39.6740
 0.9360	39.6520
 0.9370	39.6190
 0.9380	39.5810
 0.9390	39.5580
 0.9400	39.5350
 0.9410	39.5070
 0.9420	39.4760
 0.9430	39.4540
 0.9440	39.4210
 0.9450	39.3840
 0.9460	39.3460
 0.9470	39.2910
 0.9480	39.2460
 0.9490	39.1980
 0.9500	39.1340
 0.9510	39.0710
 0.9520	39.0130
 0.9530	38.9510
 0.9540	38.8810
 0.9550	38.8120
 0.9560	38.7560
 0.9570	38.7070
 0.9580	38.6520
 0.9590	38.5890
 0.9600	38.5400
 0.9610	38.5090
 0.9620	38.4870
 0.9630	38.4570
 0.9640	38.4240
 0.9650	38.4010
 0.9660	38.3940
 0.9670	38.3910
 0.9680	38.3820
 0.9690	38.3680
 0.9700	38.3560
 0.9710	38.3540
 0.9720	38.3490
 0.9730	38.3460
 0.9740	38.3510
 0.9750	38.3540
 0.9760	38.3600
 0.9770	38.3670
 0.9780	38.3720
 0.9790	38.3770
 0.9800	38.3870
 0.9810	38.3960
 0.9820	38.3970
 0.9830	38.4080
 0.9840	38.4300
 0.9850	38.4470
 0.9860	38.4500
 0.9870	38.4850
 0.9880	38.5180
 0.9890	38.5330
 0.9900	38.5330
 0.9910	38.5410
 0.9920	38.6240
 0.9930	38.7080
 0.9940	38.7920
 0.9950	38.8760
 0.9960	38.9600
 0.9970	39.0430
 0.9980	39.1270
 0.9990	39.2110
 1.0000	39.2950
 1.0010	39.3790
 1.0020	39.4620
 1.0030	39.5460
 1.0040	39.6300
 1.0050	39.7140
 1.0060	39.7970
 1.0070	39.8810
 1.0080	39.9650
 1.0090	40.0490
 1.0100	40.0490
 1.0110	40.0710
 1.0120	40.0910
 1.0130	40.1080
 1.0140	40.1260
 1.0150	40.1430
 1.0160	40.1610
 1.0170	40.1800
 1.0180	40.1990
 1.0190	40.2220
 1.0200	40.2470
 1.0210	40.2690
 1.0220	40.2880
 1.0230	40.3090
 1.0240	40.3270
 1.0250	40.3450
 1.0260	40.3630
 1.0270	40.3820
 1.0280	40.4030
 1.0290	40.4220
 1.0300	40.4430
 1.0310	40.4600
 1.0320	40.4780
 1.0330	40.4870
 1.0340	40.4960
 1.0350	40.5100
 1.0360	40.5270
 1.0370	40.5450
 1.0380	40.5640
 1.0390	40.5900
 1.0400	40.6090
 1.0410	40.6250
 1.0420	40.6390
 1.0430	40.6500
 1.0440	40.6620
 1.0450	40.6730
 1.0460	40.6850
 1.0470	40.6980
 1.0480	40.7100
 1.0490	40.7230
 1.0500	40.7340
 1.0510	40.7430
 1.0520	40.7530
 1.0530	40.7610
 1.0540	40.7680
 1.0550	40.7760
 1.0560	40.7850
 1.0570	40.7920
 1.0580	40.7980
 1.0590	40.8020
 1.0600	40.8040
 1.0610	40.8070
 1.0620	40.8130
 1.0630	40.8150
 1.0640	40.8150
 1.0650	40.8160
 1.0660	40.8120
 1.0670	40.8090
 1.0680	40.8070
 1.0690	40.8070
 1.0700	40.8060
 1.0710	40.8050
 1.0720	40.8030
 1.0730	40.8000
 1.0740	40.7960
 1.0750	40.7930
 1.0760	40.7870
 1.0770	40.7810
 1.0780	40.7740
 1.0790	40.7640
 1.0800	40.7560
 1.0810	40.7540
 1.0820	40.7450
 1.0830	40.7320
 1.0840	40.7210
 1.0850	40.7050
 1.0860	40.6900
 1.0870	40.6790
 1.0880	40.6720
 1.0890	40.6620
 1.0900	40.6530
 1.0910	40.6420
 1.0920	40.6300
 1.0930	40.6160
 1.0940	40.6000
 1.0950	40.5850
 1.0960	40.5690
 1.0970	40.5540
 1.0980	40.5400
 1.0990	40.5260
 1.1000	40.5110
 1.1010	40.4970
 1.1020	40.4820
 1.1030	40.4690
 1.1040	40.4550
 1.1050	40.4420
 1.1060	40.4280
 1.1070	40.4130
 1.1080	40.3980
 1.1090	40.3820
 1.1100	40.3670
 1.1110	40.3530
 1.1120	40.3360
 1.1130	40.3180
 1.1140	40.2990
 1.1150	40.2800
 1.1160	40.2600
 1.1170	40.2400
 1.1180	40.2170
 1.1190	40.1940
 1.1200	40.1670
 1.1210	40.1360
 1.1220	40.1020
 1.1230	40.0620
 1.1240	40.0180
 1.1250	39.9700
 1.1260	39.9200
 1.1270	39.8600
 1.1280	39.7960
 1.1290	39.7220
 1.1300	39.6420
 1.1310	39.5540
 1.1320	39.4580
 1.1330	39.3530
 1.1340	39.2380
 1.1350	39.1180
 1.1360	38.9910
 1.1370	38.8550
 1.1380	38.7170
 1.1390	38.5740
 1.1400	38.4230
 1.1410	38.2720
 1.1420	38.1190
 1.1430	37.9650
 1.1440	37.8150
 1.1450	37.6650
 1.1460	37.5220
 1.1470	37.3790
 1.1480	37.2460
 1.1490	37.1180
 1.1500	37.0020
 1.1510	36.8930
 1.1520	36.7930
 1.1530	36.7020
 1.1540	36.6210
 1.1550	36.5480
 1.1560	36.4860
 1.1570	36.4320
 1.1580	36.3860
 1.1590	36.3460
 1.1600	36.3130
 1.1610	36.2880
 1.1620	36.2660
 1.1630	36.2480
 1.1640	36.2330
 1.1650	36.2200
 1.1660	36.2110
 1.1670	36.2040
 1.1680	36.2000
 1.1690	36.1960
 1.1700	36.1930
 1.1710	36.1890
 1.1720	36.1860
 1.1730	36.1820
 1.1740	36.1780
 1.1750	36.1740
 1.1760	36.1690
 1.1770	36.1620
 1.1780	36.1560
 1.1790	36.1500
 1.1800	36.1450
 1.1810	36.1390
 1.1820	36.1320
 1.1830	36.1230
 1.1840	36.1130
 1.1850	36.1040
 1.1860	36.0960
 1.1870	36.0900
 1.1880	36.0850
 1.1890	36.0820
 1.1900	36.0800
 1.1910	36.0790
 1.1920	36.0790
 1.1930	36.0790
 1.1940	36.0820
 1.1950	36.0880
 1.1960	36.0960
 1.1970	36.1040
 1.1980	36.1140
 1.1990	36.1240
 1.2000	36.1340
 1.2010	36.1460
 1.2020	36.1630
 1.2030	36.1800
 1.2040	36.1980
 1.2050	36.2170
 1.2060	36.2350
 1.2070	36.2540
 1.2080	36.2740
 1.2090	36.2950
 1.2100	36.3170
 1.2110	36.3390
 1.2120	36.3620
 1.2130	36.3850
 1.2140	36.4100
 1.2150	36.4350
 1.2160	36.4610
 1.2170	36.4860
 1.2180	36.5110
 1.2190	36.5370
 1.2200	36.5630
 1.2210	36.5890
 1.2220	36.6140
 1.2230	36.6380
 1.2240	36.6600
 1.2250	36.6830
 1.2260	36.7070
 1.2270	36.7300
 1.2280	36.7540
 1.2290	36.7780
 1.2300	36.7990
 1.2310	36.8220
 1.2320	36.8430
 1.2330	36.8620
 1.2340	36.8830
 1.2350	36.9040
 1.2360	36.9220
 1.2370	36.9410
 1.2380	36.9580
 1.2390	36.9730
 1.2400	36.9900
 1.2410	37.0080
 1.2420	37.0240
 1.2430	37.0400
 1.2440	37.0550
 1.2450	37.0670
 1.2460	37.0820
 1.2470	37.0980
 1.2480	37.1110
 1.2490	37.1230
 1.2500	37.1340
 1.2510	37.1430
 1.2520	37.1510
 1.2530	37.1600
 1.2540	37.1690
 1.2550	37.1750
 1.2560	37.1790
 1.2570	37.1850
 1.2580	37.1860
 1.2590	37.1880
 1.2600	37.1900
 1.2610	37.1910
 1.2620	37.1900
 1.2630	37.1890
 1.2640	37.1880
 1.2650	37.1870
 1.2660	37.1840
 1.2670	37.1780
 1.2680	37.1730
 1.2690	37.1650
 1.2700	37.1540
 1.2710	37.1460
 1.2720	37.1370
 1.2730	37.1260
 1.2740	37.1170
 1.2750	37.1040
 1.2760	37.0880
 1.2770	37.0740
 1.2780	37.0580
 1.2790	37.0410
 1.2800	37.0250
 1.2810	37.0050
 1.2820	36.9830
 1.2830	36.9600
 1.2840	36.9320
 1.2850	36.9010
 1.2860	36.8690
 1.2870	36.8350
 1.2880	36.7990
 1.2890	36.7630
 1.2900	36.7270
 1.2910	36.6880
 1.2920	36.6480
 1.2930	36.6030
 1.2940	36.5530
 1.2950	36.5000
 1.2960	36.4470
 1.2970	36.3920
 1.2980	36.3340
 1.2990	36.2740
 1.3000	36.2120
 1.3010	36.1440
 1.3020	36.0760
 1.3030	36.0070
 1.3040	35.9320
 1.3050	35.8580
 1.3060	35.7820
 1.3070	35.7010
 1.3080	35.6160
 1.3090	35.5280
 1.3100	35.4360
 1.3110	35.3430
 1.3120	35.2470
 1.3130	35.1510
 1.3140	35.0510
 1.3150	34.9490
 1.3160	34.8430
 1.3170	34.7360
 1.3180	34.6250
 1.3190	34.5110
 1.3200	34.3970
 1.3210	34.2780
 1.3220	34.1560
 1.3230	34.0320
 1.3240	33.9030
 1.3250	33.7750
 1.3260	33.6460
 1.3270	33.5140
 1.3280	33.3840
 1.3290	33.2490
 1.3300	33.1130
 1.3310	32.9750
 1.3320	32.8340
 1.3330	32.6950
 1.3340	32.5560
 1.3350	32.4170
 1.3360	32.2800
 1.3370	32.1420
 1.3380	32.0030
 1.3390	31.8650
 1.3400	31.7260
 1.3410	31.5910
 1.3420	31.4580
 1.3430	31.3260
 1.3440	31.1940
 1.3450	31.0630
 1.3460	30.9300
 1.3470	30.8000
 1.3480	30.6710
 1.3490	30.5440
 1.3500	30.4190
 1.3510	30.2940
 1.3520	30.1680
 1.3530	30.0420
 1.3540	29.9150
 1.3550	29.7860
 1.3560	29.6580
 1.3570	29.5270
 1.3580	29.3950
 1.3590	29.2620
 1.3600	29.1240
 1.3610	28.9820
 1.3620	28.8340
 1.3630	28.6780
 1.3640	28.5140
 1.3650	28.3410
 1.3660	28.1620
 1.3670	27.9730
 1.3680	27.7740
 1.3690	27.5620
 1.3700	27.3350
 1.3710	27.0940
 1.3720	26.8380
 1.3730	26.5640
 1.3740	26.2770
 1.3750	25.9690
 1.3760	25.6430
 1.3770	25.2980
 1.3780	24.9290
 1.3790	24.5410
 1.3800	24.1340
 1.3810	23.7040
 1.3820	23.2640
 1.3830	22.8080
 1.3840	22.3400
 1.3850	21.8550
 1.3860	21.3670
 1.3870	20.8630
 1.3880	20.3630
 1.3890	19.8600
 1.3900	19.3540
 1.3910	18.8560
 1.3920	18.3600
 1.3930	17.8680
 1.3940	17.3870
 1.3950	16.9140
 1.3960	16.4550
 1.3970	16.0120
 1.3980	15.5840
 1.3990	15.1810
 1.4000	14.7950
 1.4010	14.4270
 1.4020	14.0830
 1.4030	13.7560
 1.4040	13.4490
 1.4050	13.1640
 1.4060	12.8990
 1.4070	12.6540
 1.4080	12.4280
 1.4090	12.2190
 1.4100	12.0290
 1.4110	11.8520
 1.4120	11.6910
 1.4130	11.5450
 1.4140	11.4110
 1.4150	11.2920
 1.4160	11.1860
 1.4170	11.0880
 1.4180	11.0020
 1.4190	10.9230
 1.4200	10.8520
 1.4210	10.7880
 1.4220	10.7320
 1.4230	10.6820
 1.4240	10.6390
 1.4250	10.6000
 1.4260	10.5670
 1.4270	10.5380
 1.4280	10.5140
 1.4290	10.4930
 1.4300	10.4770
 1.4310	10.4630
 1.4320	10.4530
 1.4330	10.4450
 1.4340	10.4410
 1.4350	10.4390
 1.4360	10.4410
 1.4370	10.4440
 1.4380	10.4490
 1.4390	10.4560
 1.4400	10.4640
 1.4410	10.4730
 1.4420	10.4840
 1.4430	10.4970
 1.4440	10.5100
 1.4450	10.5260
 1.4460	10.5420
 1.4470	10.5590
 1.4480	10.5770
 1.4490	10.5940
 1.4500	10.6130
 1.4510	10.6320
 1.4520	10.6520
 1.4530	10.6740
 1.4540	10.6960
 1.4550	10.7210
 1.4560	10.7480
 1.4570	10.7760
 1.4580	10.8070
 1.4590	10.8400
 1.4600	10.8770
 1.4610	10.9160
 1.4620	10.9600
 1.4630	11.0070
 1.4640	11.0560
 1.4650	11.1100
 1.4660	11.1680
 1.4670	11.2280
 1.4680	11.2940
 1.4690	11.3630
 1.4700	11.4350
