Name: Pinus ponderosa 1
Type: vegetation
Class: Tree
Genus: Pinus
Species: ponderosa
Sample No.: VH057
Owner: UCSB
Wavelength Range: VSWIR
Origin: 37.0443; -119.3026; WGS84
Collection Date: 4/20/2013
Description: Samples were collected as part of the HyspIRI Airborne Campaign. 48 individual plants were sampled in three times in 2013 - spring  summer  and fall. The name of the sample includes a 1  2  or 3 which references a different individual of the species. Samples were taken to JPL and processed within 48 hours of collection. The same leaves were processed in the Nicolet and then measured using the ASD.
Measurement: Bidirectional reflectance
First Column: X
Second Column: Y
X Units: Wavelength (micrometers)
Y Units: Reflectance (percentage)
First X Value: 0.35
Last X Value: 2.5
Number of X Values: 2151
Additional Information: vegetation.tree.pinus.ponderosa.vswir.vh057.ucsb.asd.ancillary.txt

 0.3500	 6.0270
 0.3510	 6.2550
 0.3520	 6.1790
 0.3530	 5.9650
 0.3540	 5.8650
 0.3550	 5.9330
 0.3560	 5.8970
 0.3570	 5.8170
 0.3580	 5.8860
 0.3590	 5.9060
 0.3600	 5.8540
 0.3610	 5.7970
 0.3620	 5.9040
 0.3630	 5.8590
 0.3640	 5.7060
 0.3650	 5.6050
 0.3660	 5.7820
 0.3670	 5.8300
 0.3680	 5.7170
 0.3690	 5.6690
 0.3700	 5.6330
 0.3710	 5.6340
 0.3720	 5.6680
 0.3730	 5.6780
 0.3740	 5.7100
 0.3750	 5.7180
 0.3760	 5.6600
 0.3770	 5.6590
 0.3780	 5.6880
 0.3790	 5.7000
 0.3800	 5.6410
 0.3810	 5.6000
 0.3820	 5.6360
 0.3830	 5.7340
 0.3840	 5.7590
 0.3850	 5.7320
 0.3860	 5.6690
 0.3870	 5.6040
 0.3880	 5.6300
 0.3890	 5.6550
 0.3900	 5.6410
 0.3910	 5.6190
 0.3920	 5.6370
 0.3930	 5.6480
 0.3940	 5.6190
 0.3950	 5.6090
 0.3960	 5.6200
 0.3970	 5.6310
 0.3980	 5.6250
 0.3990	 5.6700
 0.4000	 5.6540
 0.4010	 5.5710
 0.4020	 5.5710
 0.4030	 5.6200
 0.4040	 5.6350
 0.4050	 5.5780
 0.4060	 5.6200
 0.4070	 5.6660
 0.4080	 5.6900
 0.4090	 5.7100
 0.4100	 5.7280
 0.4110	 5.7480
 0.4120	 5.7720
 0.4130	 5.8150
 0.4140	 5.8520
 0.4150	 5.8730
 0.4160	 5.8860
 0.4170	 5.9360
 0.4180	 6.0070
 0.4190	 6.0840
 0.4200	 6.1580
 0.4210	 6.1990
 0.4220	 6.2550
 0.4230	 6.3470
 0.4240	 6.3980
 0.4250	 6.4420
 0.4260	 6.4980
 0.4270	 6.5690
 0.4280	 6.6310
 0.4290	 6.6970
 0.4300	 6.7650
 0.4310	 6.8180
 0.4320	 6.8600
 0.4330	 6.9050
 0.4340	 6.9610
 0.4350	 7.0020
 0.4360	 7.0470
 0.4370	 7.1040
 0.4380	 7.1670
 0.4390	 7.2200
 0.4400	 7.2630
 0.4410	 7.3040
 0.4420	 7.3530
 0.4430	 7.3830
 0.4440	 7.4040
 0.4450	 7.4380
 0.4460	 7.4840
 0.4470	 7.5170
 0.4480	 7.5370
 0.4490	 7.5720
 0.4500	 7.5960
 0.4510	 7.6210
 0.4520	 7.6560
 0.4530	 7.6700
 0.4540	 7.6890
 0.4550	 7.7100
 0.4560	 7.7220
 0.4570	 7.7470
 0.4580	 7.7660
 0.4590	 7.7740
 0.4600	 7.7970
 0.4610	 7.8110
 0.4620	 7.8220
 0.4630	 7.8420
 0.4640	 7.8620
 0.4650	 7.8740
 0.4660	 7.8780
 0.4670	 7.8810
 0.4680	 7.8910
 0.4690	 7.9050
 0.4700	 7.9180
 0.4710	 7.9250
 0.4720	 7.9270
 0.4730	 7.9280
 0.4740	 7.9330
 0.4750	 7.9480
 0.4760	 7.9530
 0.4770	 7.9450
 0.4780	 7.9610
 0.4790	 7.9710
 0.4800	 7.9700
 0.4810	 7.9640
 0.4820	 7.9610
 0.4830	 7.9670
 0.4840	 7.9770
 0.4850	 7.9830
 0.4860	 7.9880
 0.4870	 7.9950
 0.4880	 8.0060
 0.4890	 8.0230
 0.4900	 8.0380
 0.4910	 8.0540
 0.4920	 8.0760
 0.4930	 8.0900
 0.4940	 8.1050
 0.4950	 8.1280
 0.4960	 8.1620
 0.4970	 8.1960
 0.4980	 8.2310
 0.4990	 8.2670
 0.5000	 8.3020
 0.5010	 8.3390
 0.5020	 8.3850
 0.5030	 8.4440
 0.5040	 8.5040
 0.5050	 8.5650
 0.5060	 8.6300
 0.5070	 8.7010
 0.5080	 8.7780
 0.5090	 8.8630
 0.5100	 8.9560
 0.5110	 9.0600
 0.5120	 9.1630
 0.5130	 9.2650
 0.5140	 9.3830
 0.5150	 9.5170
 0.5160	 9.6570
 0.5170	 9.7940
 0.5180	 9.9400
 0.5190	10.0940
 0.5200	10.2560
 0.5210	10.4200
 0.5220	10.5790
 0.5230	10.7360
 0.5240	10.8950
 0.5250	11.0530
 0.5260	11.2070
 0.5270	11.3560
 0.5280	11.5050
 0.5290	11.6430
 0.5300	11.7720
 0.5310	11.8950
 0.5320	12.0130
 0.5330	12.1180
 0.5340	12.2150
 0.5350	12.3110
 0.5360	12.3990
 0.5370	12.4790
 0.5380	12.5500
 0.5390	12.6150
 0.5400	12.6720
 0.5410	12.7230
 0.5420	12.7710
 0.5430	12.8200
 0.5440	12.8650
 0.5450	12.9120
 0.5460	12.9720
 0.5470	13.0370
 0.5480	13.1000
 0.5490	13.1510
 0.5500	13.1870
 0.5510	13.2150
 0.5520	13.2400
 0.5530	13.2600
 0.5540	13.2620
 0.5550	13.2530
 0.5560	13.2320
 0.5570	13.1950
 0.5580	13.1530
 0.5590	13.1070
 0.5600	13.0550
 0.5610	12.9970
 0.5620	12.9340
 0.5630	12.8640
 0.5640	12.7850
 0.5650	12.7000
 0.5660	12.6100
 0.5670	12.5160
 0.5680	12.4120
 0.5690	12.3050
 0.5700	12.1980
 0.5710	12.0920
 0.5720	12.0000
 0.5730	11.9110
 0.5740	11.8230
 0.5750	11.7390
 0.5760	11.6620
 0.5770	11.5900
 0.5780	11.5220
 0.5790	11.4560
 0.5800	11.3940
 0.5810	11.3380
 0.5820	11.2870
 0.5830	11.2380
 0.5840	11.1880
 0.5850	11.1360
 0.5860	11.0840
 0.5870	11.0380
 0.5880	10.9990
 0.5890	10.9680
 0.5900	10.9440
 0.5910	10.9270
 0.5920	10.9120
 0.5930	10.8930
 0.5940	10.8770
 0.5950	10.8600
 0.5960	10.8420
 0.5970	10.8240
 0.5980	10.8050
 0.5990	10.7820
 0.6000	10.7530
 0.6010	10.7240
 0.6020	10.6960
 0.6030	10.6660
 0.6040	10.6300
 0.6050	10.5880
 0.6060	10.5420
 0.6070	10.4930
 0.6080	10.4380
 0.6090	10.3770
 0.6100	10.3080
 0.6110	10.2310
 0.6120	10.1730
 0.6130	10.1250
 0.6140	10.0780
 0.6150	10.0320
 0.6160	 9.9850
 0.6170	 9.9400
 0.6180	 9.9000
 0.6190	 9.8630
 0.6200	 9.8250
 0.6210	 9.7900
 0.6220	 9.7660
 0.6230	 9.7450
 0.6240	 9.7250
 0.6250	 9.7090
 0.6260	 9.6990
 0.6270	 9.6930
 0.6280	 9.6870
 0.6290	 9.6800
 0.6300	 9.6750
 0.6310	 9.6720
 0.6320	 9.6700
 0.6330	 9.6650
 0.6340	 9.6560
 0.6350	 9.6410
 0.6360	 9.6180
 0.6370	 9.5940
 0.6380	 9.5590
 0.6390	 9.5170
 0.6400	 9.4800
 0.6410	 9.4310
 0.6420	 9.3790
 0.6430	 9.3270
 0.6440	 9.2690
 0.6450	 9.2140
 0.6460	 9.1580
 0.6470	 9.1010
 0.6480	 9.0550
 0.6490	 9.0100
 0.6500	 8.9670
 0.6510	 8.9290
 0.6520	 8.8940
 0.6530	 8.8600
 0.6540	 8.8250
 0.6550	 8.7840
 0.6560	 8.7410
 0.6570	 8.6950
 0.6580	 8.6430
 0.6590	 8.5890
 0.6600	 8.5290
 0.6610	 8.4660
 0.6620	 8.4090
 0.6630	 8.3540
 0.6640	 8.3010
 0.6650	 8.2500
 0.6660	 8.2040
 0.6670	 8.1680
 0.6680	 8.1370
 0.6690	 8.1030
 0.6700	 8.0830
 0.6710	 8.0670
 0.6720	 8.0520
 0.6730	 8.0450
 0.6740	 8.0430
 0.6750	 8.0430
 0.6760	 8.0440
 0.6770	 8.0490
 0.6780	 8.0570
 0.6790	 8.0710
 0.6800	 8.0960
 0.6810	 8.1260
 0.6820	 8.1660
 0.6830	 8.2170
 0.6840	 8.2830
 0.6850	 8.3650
 0.6860	 8.4680
 0.6870	 8.5920
 0.6880	 8.7480
 0.6890	 8.9370
 0.6900	 9.1630
 0.6910	 9.4300
 0.6920	 9.7360
 0.6930	10.0890
 0.6940	10.4910
 0.6950	10.9410
 0.6960	11.4320
 0.6970	11.9630
 0.6980	12.5330
 0.6990	13.1450
 0.7000	13.7900
 0.7010	14.4660
 0.7020	15.1730
 0.7030	15.9010
 0.7040	16.6500
 0.7050	17.4190
 0.7060	18.2030
 0.7070	19.0020
 0.7080	19.8170
 0.7090	20.6520
 0.7100	21.4990
 0.7110	22.3650
 0.7120	23.2510
 0.7130	24.1480
 0.7140	25.0640
 0.7150	25.9990
 0.7160	26.9500
 0.7170	27.9060
 0.7180	28.8790
 0.7190	29.8680
 0.7200	30.8690
 0.7210	31.8780
 0.7220	32.8970
 0.7230	33.9210
 0.7240	34.9410
 0.7250	35.9630
 0.7260	36.9780
 0.7270	37.9790
 0.7280	38.9680
 0.7290	39.9410
 0.7300	40.8970
 0.7310	41.8360
 0.7320	42.7530
 0.7330	43.6420
 0.7340	44.5000
 0.7350	45.3370
 0.7360	46.1490
 0.7370	46.9330
 0.7380	47.6840
 0.7390	48.4010
 0.7400	49.0890
 0.7410	49.7470
 0.7420	50.3740
 0.7430	50.9600
 0.7440	51.5180
 0.7450	52.0510
 0.7460	52.5580
 0.7470	53.0210
 0.7480	53.4490
 0.7490	53.8520
 0.7500	54.2300
 0.7510	54.5820
 0.7520	54.9070
 0.7530	55.2030
 0.7540	55.4670
 0.7550	55.7120
 0.7560	55.9420
 0.7570	56.1560
 0.7580	56.3460
 0.7590	56.5200
 0.7600	56.6840
 0.7610	56.8330
 0.7620	56.9660
 0.7630	57.0860
 0.7640	57.1980
 0.7650	57.2980
 0.7660	57.3860
 0.7670	57.4720
 0.7680	57.5610
 0.7690	57.6290
 0.7700	57.6900
 0.7710	57.7530
 0.7720	57.8070
 0.7730	57.8610
 0.7740	57.9090
 0.7750	57.9500
 0.7760	57.9960
 0.7770	58.0350
 0.7780	58.0680
 0.7790	58.1020
 0.7800	58.1360
 0.7810	58.1690
 0.7820	58.2030
 0.7830	58.2360
 0.7840	58.2590
 0.7850	58.2820
 0.7860	58.3120
 0.7870	58.3360
 0.7880	58.3630
 0.7890	58.3900
 0.7900	58.4100
 0.7910	58.4350
 0.7920	58.4520
 0.7930	58.4670
 0.7940	58.4960
 0.7950	58.5190
 0.7960	58.5380
 0.7970	58.5550
 0.7980	58.5700
 0.7990	58.5900
 0.8000	58.6120
 0.8010	58.6320
 0.8020	58.6550
 0.8030	58.6740
 0.8040	58.6910
 0.8050	58.7100
 0.8060	58.7250
 0.8070	58.7430
 0.8080	58.7630
 0.8090	58.7780
 0.8100	58.7930
 0.8110	58.8080
 0.8120	58.8250
 0.8130	58.8530
 0.8140	58.8760
 0.8150	58.8940
 0.8160	58.9110
 0.8170	58.9320
 0.8180	58.9590
 0.8190	58.9870
 0.8200	59.0090
 0.8210	59.0190
 0.8220	59.0350
 0.8230	59.0590
 0.8240	59.0760
 0.8250	59.0990
 0.8260	59.1230
 0.8270	59.1430
 0.8280	59.1540
 0.8290	59.1710
 0.8300	59.1910
 0.8310	59.2100
 0.8320	59.2160
 0.8330	59.2340
 0.8340	59.2590
 0.8350	59.2750
 0.8360	59.2890
 0.8370	59.3130
 0.8380	59.3460
 0.8390	59.3790
 0.8400	59.3980
 0.8410	59.4180
 0.8420	59.4470
 0.8430	59.4780
 0.8440	59.5110
 0.8450	59.5370
 0.8460	59.5550
 0.8470	59.5790
 0.8480	59.6090
 0.8490	59.6410
 0.8500	59.6690
 0.8510	59.6960
 0.8520	59.7160
 0.8530	59.7350
 0.8540	59.7640
 0.8550	59.7970
 0.8560	59.8240
 0.8570	59.8450
 0.8580	59.8690
 0.8590	59.8890
 0.8600	59.9110
 0.8610	59.9360
 0.8620	59.9490
 0.8630	59.9610
 0.8640	59.9720
 0.8650	59.9830
 0.8660	59.9960
 0.8670	60.0030
 0.8680	60.0100
 0.8690	60.0230
 0.8700	60.0420
 0.8710	60.0610
 0.8720	60.0790
 0.8730	60.0950
 0.8740	60.0930
 0.8750	60.0920
 0.8760	60.1020
 0.8770	60.1220
 0.8780	60.1290
 0.8790	60.1310
 0.8800	60.1350
 0.8810	60.1440
 0.8820	60.1390
 0.8830	60.1310
 0.8840	60.1290
 0.8850	60.1360
 0.8860	60.1250
 0.8870	60.1140
 0.8880	60.1210
 0.8890	60.1150
 0.8900	60.1040
 0.8910	60.0930
 0.8920	60.0810
 0.8930	60.0670
 0.8940	60.0610
 0.8950	60.0620
 0.8960	60.0600
 0.8970	60.0220
 0.8980	60.0020
 0.8990	60.0090
 0.9000	60.0000
 0.9010	59.9790
 0.9020	59.9540
 0.9030	59.9370
 0.9040	59.9310
 0.9050	59.9210
 0.9060	59.9090
 0.9070	59.8920
 0.9080	59.8590
 0.9090	59.8360
 0.9100	59.8150
 0.9110	59.7890
 0.9120	59.7760
 0.9130	59.7660
 0.9140	59.7500
 0.9150	59.7240
 0.9160	59.7090
 0.9170	59.6930
 0.9180	59.6730
 0.9190	59.6500
 0.9200	59.6170
 0.9210	59.5840
 0.9220	59.5590
 0.9230	59.5450
 0.9240	59.5060
 0.9250	59.4810
 0.9260	59.4640
 0.9270	59.4140
 0.9280	59.3570
 0.9290	59.3060
 0.9300	59.2600
 0.9310	59.2090
 0.9320	59.1430
 0.9330	59.0850
 0.9340	59.0390
 0.9350	58.9850
 0.9360	58.9270
 0.9370	58.8560
 0.9380	58.7750
 0.9390	58.7010
 0.9400	58.6200
 0.9410	58.5340
 0.9420	58.4520
 0.9430	58.3840
 0.9440	58.2820
 0.9450	58.1670
 0.9460	58.0590
 0.9470	57.9400
 0.9480	57.7970
 0.9490	57.6410
 0.9500	57.4830
 0.9510	57.3100
 0.9520	57.1310
 0.9530	56.9570
 0.9540	56.7910
 0.9550	56.6070
 0.9560	56.4270
 0.9570	56.2490
 0.9580	56.0730
 0.9590	55.9210
 0.9600	55.7790
 0.9610	55.6510
 0.9620	55.5430
 0.9630	55.4570
 0.9640	55.3790
 0.9650	55.3010
 0.9660	55.2240
 0.9670	55.1370
 0.9680	55.0740
 0.9690	55.0230
 0.9700	54.9660
 0.9710	54.9320
 0.9720	54.8870
 0.9730	54.8400
 0.9740	54.8130
 0.9750	54.7710
 0.9760	54.7510
 0.9770	54.7470
 0.9780	54.7350
 0.9790	54.7070
 0.9800	54.7040
 0.9810	54.7190
 0.9820	54.7220
 0.9830	54.7410
 0.9840	54.7830
 0.9850	54.8230
 0.9860	54.8360
 0.9870	54.8700
 0.9880	54.9190
 0.9890	54.9610
 0.9900	54.9810
 0.9910	55.0300
 0.9920	55.0830
 0.9930	55.1370
 0.9940	55.1900
 0.9950	55.2430
 0.9960	55.2960
 0.9970	55.3500
 0.9980	55.4030
 0.9990	55.4560
 1.0000	55.5090
 1.0010	55.5630
 1.0020	55.6160
 1.0030	55.6690
 1.0040	55.7220
 1.0050	55.7760
 1.0060	55.8290
 1.0070	55.8820
 1.0080	55.9350
 1.0090	55.9880
 1.0100	55.9880
 1.0110	56.0660
 1.0120	56.1490
 1.0130	56.2370
 1.0140	56.3200
 1.0150	56.3990
 1.0160	56.4800
 1.0170	56.5660
 1.0180	56.6470
 1.0190	56.7320
 1.0200	56.8230
 1.0210	56.9050
 1.0220	56.9850
 1.0230	57.0700
 1.0240	57.1560
 1.0250	57.2410
 1.0260	57.3310
 1.0270	57.4130
 1.0280	57.4910
 1.0290	57.5680
 1.0300	57.6390
 1.0310	57.7130
 1.0320	57.7950
 1.0330	57.8690
 1.0340	57.9370
 1.0350	58.0110
 1.0360	58.0760
 1.0370	58.1440
 1.0380	58.2150
 1.0390	58.2920
 1.0400	58.3580
 1.0410	58.4210
 1.0420	58.4830
 1.0430	58.5390
 1.0440	58.5970
 1.0450	58.6570
 1.0460	58.7150
 1.0470	58.7720
 1.0480	58.8270
 1.0490	58.8810
 1.0500	58.9340
 1.0510	58.9850
 1.0520	59.0340
 1.0530	59.0830
 1.0540	59.1300
 1.0550	59.1800
 1.0560	59.2310
 1.0570	59.2770
 1.0580	59.3240
 1.0590	59.3650
 1.0600	59.4000
 1.0610	59.4360
 1.0620	59.4700
 1.0630	59.5030
 1.0640	59.5360
 1.0650	59.5660
 1.0660	59.5950
 1.0670	59.6220
 1.0680	59.6470
 1.0690	59.6680
 1.0700	59.6910
 1.0710	59.7160
 1.0720	59.7370
 1.0730	59.7550
 1.0740	59.7730
 1.0750	59.7900
 1.0760	59.8020
 1.0770	59.8130
 1.0780	59.8220
 1.0790	59.8230
 1.0800	59.8270
 1.0810	59.8350
 1.0820	59.8380
 1.0830	59.8430
 1.0840	59.8420
 1.0850	59.8380
 1.0860	59.8290
 1.0870	59.8170
 1.0880	59.8000
 1.0890	59.7870
 1.0900	59.7750
 1.0910	59.7570
 1.0920	59.7430
 1.0930	59.7200
 1.0940	59.6890
 1.0950	59.6610
 1.0960	59.6320
 1.0970	59.6000
 1.0980	59.5670
 1.0990	59.5330
 1.1000	59.4960
 1.1010	59.4600
 1.1020	59.4230
 1.1030	59.3870
 1.1040	59.3500
 1.1050	59.3070
 1.1060	59.2620
 1.1070	59.2160
 1.1080	59.1660
 1.1090	59.1140
 1.1100	59.0600
 1.1110	59.0050
 1.1120	58.9460
 1.1130	58.8860
 1.1140	58.8190
 1.1150	58.7460
 1.1160	58.6710
 1.1170	58.5960
 1.1180	58.5090
 1.1190	58.4170
 1.1200	58.3170
 1.1210	58.2030
 1.1220	58.0780
 1.1230	57.9430
 1.1240	57.7990
 1.1250	57.6400
 1.1260	57.4750
 1.1270	57.2840
 1.1280	57.0790
 1.1290	56.8540
 1.1300	56.6070
 1.1310	56.3440
 1.1320	56.0650
 1.1330	55.7690
 1.1340	55.4550
 1.1350	55.1240
 1.1360	54.7760
 1.1370	54.4120
 1.1380	54.0360
 1.1390	53.6520
 1.1400	53.2610
 1.1410	52.8700
 1.1420	52.4760
 1.1430	52.0770
 1.1440	51.6860
 1.1450	51.2930
 1.1460	50.9170
 1.1470	50.5450
 1.1480	50.1920
 1.1490	49.8490
 1.1500	49.5260
 1.1510	49.2140
 1.1520	48.9230
 1.1530	48.6480
 1.1540	48.3940
 1.1550	48.1590
 1.1560	47.9410
 1.1570	47.7380
 1.1580	47.5550
 1.1590	47.3830
 1.1600	47.2240
 1.1610	47.0820
 1.1620	46.9510
 1.1630	46.8290
 1.1640	46.7210
 1.1650	46.6190
 1.1660	46.5260
 1.1670	46.4380
 1.1680	46.3610
 1.1690	46.2820
 1.1700	46.2080
 1.1710	46.1360
 1.1720	46.0660
 1.1730	45.9970
 1.1740	45.9320
 1.1750	45.8660
 1.1760	45.7970
 1.1770	45.7270
 1.1780	45.6540
 1.1790	45.5800
 1.1800	45.5070
 1.1810	45.4330
 1.1820	45.3570
 1.1830	45.2820
 1.1840	45.2060
 1.1850	45.1330
 1.1860	45.0610
 1.1870	44.9920
 1.1880	44.9280
 1.1890	44.8670
 1.1900	44.8110
 1.1910	44.7600
 1.1920	44.7150
 1.1930	44.6720
 1.1940	44.6380
 1.1950	44.6100
 1.1960	44.5860
 1.1970	44.5670
 1.1980	44.5580
 1.1990	44.5550
 1.2000	44.5540
 1.2010	44.5610
 1.2020	44.5730
 1.2030	44.5890
 1.2040	44.6130
 1.2050	44.6390
 1.2060	44.6700
 1.2070	44.7080
 1.2080	44.7490
 1.2090	44.7950
 1.2100	44.8480
 1.2110	44.9070
 1.2120	44.9730
 1.2130	45.0440
 1.2140	45.1230
 1.2150	45.2060
 1.2160	45.2950
 1.2170	45.3830
 1.2180	45.4770
 1.2190	45.5730
 1.2200	45.6700
 1.2210	45.7710
 1.2220	45.8740
 1.2230	45.9770
 1.2240	46.0810
 1.2250	46.1830
 1.2260	46.2810
 1.2270	46.3810
 1.2280	46.4770
 1.2290	46.5680
 1.2300	46.6620
 1.2310	46.7560
 1.2320	46.8470
 1.2330	46.9360
 1.2340	47.0210
 1.2350	47.1000
 1.2360	47.1790
 1.2370	47.2560
 1.2380	47.3320
 1.2390	47.4080
 1.2400	47.4830
 1.2410	47.5560
 1.2420	47.6260
 1.2430	47.6910
 1.2440	47.7540
 1.2450	47.8140
 1.2460	47.8720
 1.2470	47.9290
 1.2480	47.9850
 1.2490	48.0400
 1.2500	48.0910
 1.2510	48.1420
 1.2520	48.1880
 1.2530	48.2300
 1.2540	48.2720
 1.2550	48.3130
 1.2560	48.3540
 1.2570	48.3930
 1.2580	48.4270
 1.2590	48.4600
 1.2600	48.4900
 1.2610	48.5190
 1.2620	48.5450
 1.2630	48.5710
 1.2640	48.5940
 1.2650	48.6110
 1.2660	48.6270
 1.2670	48.6410
 1.2680	48.6530
 1.2690	48.6630
 1.2700	48.6700
 1.2710	48.6760
 1.2720	48.6780
 1.2730	48.6780
 1.2740	48.6760
 1.2750	48.6690
 1.2760	48.6620
 1.2770	48.6540
 1.2780	48.6430
 1.2790	48.6270
 1.2800	48.6050
 1.2810	48.5810
 1.2820	48.5560
 1.2830	48.5300
 1.2840	48.5030
 1.2850	48.4690
 1.2860	48.4320
 1.2870	48.3900
 1.2880	48.3430
 1.2890	48.2900
 1.2900	48.2370
 1.2910	48.1800
 1.2920	48.1180
 1.2930	48.0530
 1.2940	47.9840
 1.2950	47.9090
 1.2960	47.8300
 1.2970	47.7500
 1.2980	47.6620
 1.2990	47.5650
 1.3000	47.4620
 1.3010	47.3540
 1.3020	47.2400
 1.3030	47.1220
 1.3040	46.9990
 1.3050	46.8720
 1.3060	46.7360
 1.3070	46.5920
 1.3080	46.4400
 1.3090	46.2820
 1.3100	46.1200
 1.3110	45.9530
 1.3120	45.7790
 1.3130	45.5990
 1.3140	45.4130
 1.3150	45.2210
 1.3160	45.0220
 1.3170	44.8180
 1.3180	44.6070
 1.3190	44.3880
 1.3200	44.1650
 1.3210	43.9370
 1.3220	43.7050
 1.3230	43.4700
 1.3240	43.2290
 1.3250	42.9850
 1.3260	42.7350
 1.3270	42.4820
 1.3280	42.2290
 1.3290	41.9740
 1.3300	41.7180
 1.3310	41.4590
 1.3320	41.1970
 1.3330	40.9380
 1.3340	40.6790
 1.3350	40.4180
 1.3360	40.1610
 1.3370	39.9010
 1.3380	39.6430
 1.3390	39.3910
 1.3400	39.1400
 1.3410	38.8960
 1.3420	38.6540
 1.3430	38.4150
 1.3440	38.1820
 1.3450	37.9520
 1.3460	37.7230
 1.3470	37.5030
 1.3480	37.2880
 1.3490	37.0760
 1.3500	36.8690
 1.3510	36.6650
 1.3520	36.4640
 1.3530	36.2650
 1.3540	36.0690
 1.3550	35.8740
 1.3560	35.6790
 1.3570	35.4840
 1.3580	35.2900
 1.3590	35.0940
 1.3600	34.8960
 1.3610	34.6950
 1.3620	34.4870
 1.3630	34.2760
 1.3640	34.0590
 1.3650	33.8340
 1.3660	33.6050
 1.3670	33.3680
 1.3680	33.1210
 1.3690	32.8630
 1.3700	32.5900
 1.3710	32.3060
 1.3720	32.0080
 1.3730	31.6950
 1.3740	31.3720
 1.3750	31.0300
 1.3760	30.6690
 1.3770	30.2920
 1.3780	29.8890
 1.3790	29.4680
 1.3800	29.0300
 1.3810	28.5700
 1.3820	28.0980
 1.3830	27.6110
 1.3840	27.1120
 1.3850	26.5980
 1.3860	26.0790
 1.3870	25.5440
 1.3880	25.0150
 1.3890	24.4820
 1.3900	23.9460
 1.3910	23.4200
 1.3920	22.8960
 1.3930	22.3770
 1.3940	21.8680
 1.3950	21.3650
 1.3960	20.8740
 1.3970	20.3990
 1.3980	19.9380
 1.3990	19.4970
 1.4000	19.0730
 1.4010	18.6630
 1.4020	18.2740
 1.4030	17.9010
 1.4040	17.5450
 1.4050	17.2090
 1.4060	16.8900
 1.4070	16.5910
 1.4080	16.3100
 1.4090	16.0440
 1.4100	15.7950
 1.4110	15.5590
 1.4120	15.3390
 1.4130	15.1340
 1.4140	14.9410
 1.4150	14.7630
 1.4160	14.5960
 1.4170	14.4390
 1.4180	14.2950
 1.4190	14.1590
 1.4200	14.0320
 1.4210	13.9150
 1.4220	13.8060
 1.4230	13.7050
 1.4240	13.6120
 1.4250	13.5240
 1.4260	13.4430
 1.4270	13.3680
 1.4280	13.3000
 1.4290	13.2360
 1.4300	13.1790
 1.4310	13.1250
 1.4320	13.0770
 1.4330	13.0320
 1.4340	12.9920
 1.4350	12.9560
 1.4360	12.9230
 1.4370	12.8930
 1.4380	12.8680
 1.4390	12.8470
 1.4400	12.8280
 1.4410	12.8120
 1.4420	12.7980
 1.4430	12.7850
 1.4440	12.7740
 1.4450	12.7650
 1.4460	12.7580
 1.4470	12.7540
 1.4480	12.7520
 1.4490	12.7520
 1.4500	12.7530
 1.4510	12.7540
 1.4520	12.7570
 1.4530	12.7610
 1.4540	12.7670
 1.4550	12.7740
 1.4560	12.7830
 1.4570	12.7930
 1.4580	12.8040
 1.4590	12.8180
 1.4600	12.8340
 1.4610	12.8530
 1.4620	12.8750
 1.4630	12.9000
 1.4640	12.9270
 1.4650	12.9560
 1.4660	12.9870
 1.4670	13.0210
 1.4680	13.0590
 1.4690	13.1010
 1.4700	13.1450
