Name: Caesalpinia cacalaco
Type: vegetation
Class: Tree
Genus: Caesalpinia
Species: cacalaco
Sample No.: JPL241
Owner: JPL
Wavelength Range: VSWIR
Origin: 34.1263; -118.10989; WGS84
Collection Date: 10/6/2016
Description: Samples were collected at the Huntington Garden in San Marino California as part of a JPL Subcontract studying HyTES imagery. Samples were taken to JPL and processed within 48 hours of collection. The same leaves were processed in the Nicolet and then measured using the ASD.
Measurement: Bidirectional reflectance
First Column: X
Second Column: Y
X Units: Wavelength (micrometer)
Y Units: Reflectance (percentage)
First X Value: 0.35
Last X Value: 2.5
Number of X Values: 2151
Additional Information: vegetation.tree.caesalpinia.cacalaco.vswir.jpl241.jpl.asd.ancillary.txt

 0.3500	 6.3140
 0.3510	 6.3720
 0.3520	 6.3670
 0.3530	 6.2670
 0.3540	 6.1360
 0.3550	 6.1830
 0.3560	 6.2370
 0.3570	 6.2090
 0.3580	 6.0910
 0.3590	 6.1700
 0.3600	 6.2050
 0.3610	 6.1110
 0.3620	 6.0880
 0.3630	 6.0700
 0.3640	 6.0590
 0.3650	 6.0540
 0.3660	 5.9950
 0.3670	 6.0060
 0.3680	 6.0600
 0.3690	 6.0350
 0.3700	 6.0010
 0.3710	 5.9790
 0.3720	 5.9720
 0.3730	 5.9710
 0.3740	 5.9400
 0.3750	 5.9140
 0.3760	 5.9330
 0.3770	 5.9180
 0.3780	 5.8720
 0.3790	 5.8300
 0.3800	 5.8520
 0.3810	 5.8350
 0.3820	 5.8180
 0.3830	 5.8360
 0.3840	 5.8680
 0.3850	 5.8770
 0.3860	 5.8420
 0.3870	 5.7770
 0.3880	 5.7940
 0.3890	 5.8000
 0.3900	 5.7740
 0.3910	 5.7810
 0.3920	 5.7830
 0.3930	 5.7710
 0.3940	 5.7480
 0.3950	 5.7330
 0.3960	 5.7310
 0.3970	 5.7330
 0.3980	 5.7300
 0.3990	 5.7440
 0.4000	 5.7540
 0.4010	 5.7530
 0.4020	 5.7600
 0.4030	 5.7380
 0.4040	 5.7290
 0.4050	 5.7660
 0.4060	 5.7680
 0.4070	 5.7710
 0.4080	 5.7840
 0.4090	 5.8000
 0.4100	 5.8240
 0.4110	 5.8440
 0.4120	 5.8590
 0.4130	 5.8980
 0.4140	 5.9520
 0.4150	 6.0050
 0.4160	 6.0480
 0.4170	 6.0880
 0.4180	 6.1360
 0.4190	 6.1940
 0.4200	 6.2590
 0.4210	 6.3030
 0.4220	 6.3470
 0.4230	 6.4120
 0.4240	 6.4760
 0.4250	 6.5320
 0.4260	 6.5790
 0.4270	 6.6180
 0.4280	 6.6640
 0.4290	 6.7130
 0.4300	 6.7610
 0.4310	 6.8050
 0.4320	 6.8510
 0.4330	 6.8900
 0.4340	 6.9150
 0.4350	 6.9410
 0.4360	 6.9690
 0.4370	 6.9950
 0.4380	 7.0190
 0.4390	 7.0540
 0.4400	 7.0850
 0.4410	 7.1040
 0.4420	 7.1220
 0.4430	 7.1390
 0.4440	 7.1630
 0.4450	 7.1960
 0.4460	 7.2110
 0.4470	 7.2290
 0.4480	 7.2530
 0.4490	 7.2710
 0.4500	 7.2890
 0.4510	 7.3060
 0.4520	 7.3200
 0.4530	 7.3290
 0.4540	 7.3390
 0.4550	 7.3500
 0.4560	 7.3580
 0.4570	 7.3690
 0.4580	 7.3750
 0.4590	 7.3770
 0.4600	 7.3850
 0.4610	 7.3870
 0.4620	 7.3870
 0.4630	 7.3910
 0.4640	 7.3950
 0.4650	 7.3940
 0.4660	 7.3870
 0.4670	 7.3800
 0.4680	 7.3790
 0.4690	 7.3770
 0.4700	 7.3700
 0.4710	 7.3690
 0.4720	 7.3680
 0.4730	 7.3690
 0.4740	 7.3730
 0.4750	 7.3730
 0.4760	 7.3660
 0.4770	 7.3580
 0.4780	 7.3600
 0.4790	 7.3620
 0.4800	 7.3630
 0.4810	 7.3640
 0.4820	 7.3680
 0.4830	 7.3680
 0.4840	 7.3660
 0.4850	 7.3710
 0.4860	 7.3700
 0.4870	 7.3720
 0.4880	 7.3820
 0.4890	 7.3920
 0.4900	 7.4010
 0.4910	 7.4070
 0.4920	 7.4150
 0.4930	 7.4330
 0.4940	 7.4520
 0.4950	 7.4670
 0.4960	 7.4820
 0.4970	 7.5060
 0.4980	 7.5330
 0.4990	 7.5580
 0.5000	 7.5880
 0.5010	 7.6240
 0.5020	 7.6650
 0.5030	 7.7080
 0.5040	 7.7580
 0.5050	 7.8110
 0.5060	 7.8660
 0.5070	 7.9350
 0.5080	 8.0100
 0.5090	 8.0910
 0.5100	 8.1800
 0.5110	 8.2830
 0.5120	 8.3970
 0.5130	 8.5220
 0.5140	 8.6590
 0.5150	 8.8040
 0.5160	 8.9620
 0.5170	 9.1360
 0.5180	 9.3190
 0.5190	 9.5140
 0.5200	 9.7210
 0.5210	 9.9350
 0.5220	10.1510
 0.5230	10.3740
 0.5240	10.6020
 0.5250	10.8230
 0.5260	11.0350
 0.5270	11.2400
 0.5280	11.4350
 0.5290	11.6170
 0.5300	11.7860
 0.5310	11.9430
 0.5320	12.0850
 0.5330	12.2130
 0.5340	12.3290
 0.5350	12.4310
 0.5360	12.5200
 0.5370	12.5980
 0.5380	12.6660
 0.5390	12.7220
 0.5400	12.7770
 0.5410	12.8350
 0.5420	12.8930
 0.5430	12.9400
 0.5440	12.9780
 0.5450	13.0070
 0.5460	13.0250
 0.5470	13.0370
 0.5480	13.0490
 0.5490	13.0640
 0.5500	13.0760
 0.5510	13.0800
 0.5520	13.0740
 0.5530	13.0580
 0.5540	13.0240
 0.5550	12.9740
 0.5560	12.9090
 0.5570	12.8290
 0.5580	12.7360
 0.5590	12.6350
 0.5600	12.5280
 0.5610	12.4120
 0.5620	12.2880
 0.5630	12.1590
 0.5640	12.0260
 0.5650	11.8910
 0.5660	11.7510
 0.5670	11.6060
 0.5680	11.4560
 0.5690	11.3010
 0.5700	11.1450
 0.5710	10.9920
 0.5720	10.8440
 0.5730	10.7050
 0.5740	10.5760
 0.5750	10.4580
 0.5760	10.3440
 0.5770	10.2390
 0.5780	10.1410
 0.5790	10.0500
 0.5800	 9.9690
 0.5810	 9.8950
 0.5820	 9.8200
 0.5830	 9.7490
 0.5840	 9.6800
 0.5850	 9.6120
 0.5860	 9.5510
 0.5870	 9.4990
 0.5880	 9.4530
 0.5890	 9.4080
 0.5900	 9.3590
 0.5910	 9.3150
 0.5920	 9.2790
 0.5930	 9.2480
 0.5940	 9.2240
 0.5950	 9.2030
 0.5960	 9.1840
 0.5970	 9.1640
 0.5980	 9.1420
 0.5990	 9.1190
 0.6000	 9.0980
 0.6010	 9.0740
 0.6020	 9.0420
 0.6030	 9.0030
 0.6040	 8.9620
 0.6050	 8.9140
 0.6060	 8.8630
 0.6070	 8.8100
 0.6080	 8.7510
 0.6090	 8.6930
 0.6100	 8.6370
 0.6110	 8.5830
 0.6120	 8.5240
 0.6130	 8.4610
 0.6140	 8.3980
 0.6150	 8.3390
 0.6160	 8.2830
 0.6170	 8.2300
 0.6180	 8.1840
 0.6190	 8.1470
 0.6200	 8.1120
 0.6210	 8.0770
 0.6220	 8.0440
 0.6230	 8.0170
 0.6240	 7.9970
 0.6250	 7.9810
 0.6260	 7.9660
 0.6270	 7.9520
 0.6280	 7.9410
 0.6290	 7.9310
 0.6300	 7.9220
 0.6310	 7.9150
 0.6320	 7.9070
 0.6330	 7.8920
 0.6340	 7.8730
 0.6350	 7.8500
 0.6360	 7.8240
 0.6370	 7.7930
 0.6380	 7.7580
 0.6390	 7.7180
 0.6400	 7.6750
 0.6410	 7.6300
 0.6420	 7.5850
 0.6430	 7.5400
 0.6440	 7.4950
 0.6450	 7.4530
 0.6460	 7.4130
 0.6470	 7.3750
 0.6480	 7.3430
 0.6490	 7.3130
 0.6500	 7.2860
 0.6510	 7.2660
 0.6520	 7.2490
 0.6530	 7.2330
 0.6540	 7.2160
 0.6550	 7.2000
 0.6560	 7.1820
 0.6570	 7.1620
 0.6580	 7.1410
 0.6590	 7.1180
 0.6600	 7.0920
 0.6610	 7.0680
 0.6620	 7.0500
 0.6630	 7.0320
 0.6640	 7.0150
 0.6650	 7.0010
 0.6660	 6.9970
 0.6670	 6.9970
 0.6680	 7.0000
 0.6690	 7.0060
 0.6700	 7.0190
 0.6710	 7.0370
 0.6720	 7.0590
 0.6730	 7.0870
 0.6740	 7.1180
 0.6750	 7.1530
 0.6760	 7.1940
 0.6770	 7.2390
 0.6780	 7.2900
 0.6790	 7.3450
 0.6800	 7.4010
 0.6810	 7.4630
 0.6820	 7.5300
 0.6830	 7.6000
 0.6840	 7.6660
 0.6850	 7.7330
 0.6860	 7.8020
 0.6870	 7.8740
 0.6880	 7.9550
 0.6890	 8.0530
 0.6900	 8.1760
 0.6910	 8.3300
 0.6920	 8.5320
 0.6930	 8.7880
 0.6940	 9.1060
 0.6950	 9.4970
 0.6960	 9.9600
 0.6970	10.4970
 0.6980	11.1080
 0.6990	11.7880
 0.7000	12.5360
 0.7010	13.3440
 0.7020	14.1990
 0.7030	15.1000
 0.7040	16.0390
 0.7050	17.0090
 0.7060	18.0060
 0.7070	19.0300
 0.7080	20.0750
 0.7090	21.1390
 0.7100	22.2250
 0.7110	23.3330
 0.7120	24.4620
 0.7130	25.6040
 0.7140	26.7570
 0.7150	27.9250
 0.7160	29.1060
 0.7170	30.2900
 0.7180	31.4790
 0.7190	32.6710
 0.7200	33.8580
 0.7210	35.0370
 0.7220	36.2060
 0.7230	37.3600
 0.7240	38.4920
 0.7250	39.5990
 0.7260	40.6790
 0.7270	41.7320
 0.7280	42.7500
 0.7290	43.7300
 0.7300	44.6730
 0.7310	45.5760
 0.7320	46.4410
 0.7330	47.2660
 0.7340	48.0480
 0.7350	48.7850
 0.7360	49.4840
 0.7370	50.1430
 0.7380	50.7610
 0.7390	51.3420
 0.7400	51.8840
 0.7410	52.3900
 0.7420	52.8600
 0.7430	53.2930
 0.7440	53.6890
 0.7450	54.0510
 0.7460	54.3850
 0.7470	54.6900
 0.7480	54.9690
 0.7490	55.2210
 0.7500	55.4490
 0.7510	55.6550
 0.7520	55.8410
 0.7530	56.0080
 0.7540	56.1590
 0.7550	56.2940
 0.7560	56.4150
 0.7570	56.5270
 0.7580	56.6260
 0.7590	56.7150
 0.7600	56.7960
 0.7610	56.8700
 0.7620	56.9350
 0.7630	56.9910
 0.7640	57.0420
 0.7650	57.0850
 0.7660	57.1230
 0.7670	57.1580
 0.7680	57.1870
 0.7690	57.2150
 0.7700	57.2380
 0.7710	57.2580
 0.7720	57.2810
 0.7730	57.3040
 0.7740	57.3220
 0.7750	57.3360
 0.7760	57.3520
 0.7770	57.3670
 0.7780	57.3810
 0.7790	57.3930
 0.7800	57.4060
 0.7810	57.4200
 0.7820	57.4330
 0.7830	57.4460
 0.7840	57.4580
 0.7850	57.4670
 0.7860	57.4760
 0.7870	57.4850
 0.7880	57.4900
 0.7890	57.4950
 0.7900	57.5020
 0.7910	57.5050
 0.7920	57.5100
 0.7930	57.5150
 0.7940	57.5170
 0.7950	57.5170
 0.7960	57.5190
 0.7970	57.5200
 0.7980	57.5130
 0.7990	57.5080
 0.8000	57.5040
 0.8010	57.5020
 0.8020	57.4970
 0.8030	57.4900
 0.8040	57.4820
 0.8050	57.4750
 0.8060	57.4660
 0.8070	57.4570
 0.8080	57.4480
 0.8090	57.4370
 0.8100	57.4260
 0.8110	57.4130
 0.8120	57.3980
 0.8130	57.3860
 0.8140	57.3730
 0.8150	57.3590
 0.8160	57.3450
 0.8170	57.3290
 0.8180	57.3160
 0.8190	57.3070
 0.8200	57.2970
 0.8210	57.2840
 0.8220	57.2660
 0.8230	57.2480
 0.8240	57.2360
 0.8250	57.2220
 0.8260	57.2090
 0.8270	57.1990
 0.8280	57.1850
 0.8290	57.1710
 0.8300	57.1580
 0.8310	57.1430
 0.8320	57.1320
 0.8330	57.1200
 0.8340	57.1080
 0.8350	57.0960
 0.8360	57.0900
 0.8370	57.0880
 0.8380	57.0860
 0.8390	57.0790
 0.8400	57.0790
 0.8410	57.0790
 0.8420	57.0770
 0.8430	57.0740
 0.8440	57.0740
 0.8450	57.0770
 0.8460	57.0810
 0.8470	57.0830
 0.8480	57.0830
 0.8490	57.0850
 0.8500	57.0920
 0.8510	57.0960
 0.8520	57.0980
 0.8530	57.1010
 0.8540	57.1060
 0.8550	57.1120
 0.8560	57.1220
 0.8570	57.1360
 0.8580	57.1450
 0.8590	57.1520
 0.8600	57.1610
 0.8610	57.1730
 0.8620	57.1800
 0.8630	57.1950
 0.8640	57.2080
 0.8650	57.2150
 0.8660	57.2280
 0.8670	57.2440
 0.8680	57.2600
 0.8690	57.2730
 0.8700	57.2860
 0.8710	57.2980
 0.8720	57.3110
 0.8730	57.3260
 0.8740	57.3420
 0.8750	57.3570
 0.8760	57.3700
 0.8770	57.3830
 0.8780	57.4020
 0.8790	57.4190
 0.8800	57.4300
 0.8810	57.4430
 0.8820	57.4570
 0.8830	57.4710
 0.8840	57.4860
 0.8850	57.4950
 0.8860	57.5100
 0.8870	57.5260
 0.8880	57.5390
 0.8890	57.5540
 0.8900	57.5700
 0.8910	57.5840
 0.8920	57.5970
 0.8930	57.6080
 0.8940	57.6160
 0.8950	57.6260
 0.8960	57.6420
 0.8970	57.6570
 0.8980	57.6710
 0.8990	57.6830
 0.9000	57.6860
 0.9010	57.7000
 0.9020	57.7140
 0.9030	57.7250
 0.9040	57.7400
 0.9050	57.7460
 0.9060	57.7510
 0.9070	57.7610
 0.9080	57.7710
 0.9090	57.7830
 0.9100	57.7950
 0.9110	57.8040
 0.9120	57.8050
 0.9130	57.8140
 0.9140	57.8250
 0.9150	57.8280
 0.9160	57.8280
 0.9170	57.8290
 0.9180	57.8270
 0.9190	57.8210
 0.9200	57.8280
 0.9210	57.8260
 0.9220	57.8130
 0.9230	57.8070
 0.9240	57.7980
 0.9250	57.7920
 0.9260	57.7840
 0.9270	57.7660
 0.9280	57.7440
 0.9290	57.7190
 0.9300	57.6940
 0.9310	57.6710
 0.9320	57.6560
 0.9330	57.6340
 0.9340	57.6000
 0.9350	57.5580
 0.9360	57.5300
 0.9370	57.5000
 0.9380	57.4620
 0.9390	57.4290
 0.9400	57.3970
 0.9410	57.3570
 0.9420	57.3100
 0.9430	57.2690
 0.9440	57.2190
 0.9450	57.1630
 0.9460	57.1050
 0.9470	57.0460
 0.9480	56.9830
 0.9490	56.9140
 0.9500	56.8370
 0.9510	56.7510
 0.9520	56.6680
 0.9530	56.5840
 0.9540	56.4970
 0.9550	56.4210
 0.9560	56.3430
 0.9570	56.2580
 0.9580	56.1730
 0.9590	56.0950
 0.9600	56.0300
 0.9610	55.9700
 0.9620	55.9080
 0.9630	55.8620
 0.9640	55.8250
 0.9650	55.7910
 0.9660	55.7560
 0.9670	55.7200
 0.9680	55.6900
 0.9690	55.6670
 0.9700	55.6480
 0.9710	55.6230
 0.9720	55.6050
 0.9730	55.5960
 0.9740	55.5930
 0.9750	55.5720
 0.9760	55.5550
 0.9770	55.5510
 0.9780	55.5510
 0.9790	55.5360
 0.9800	55.5340
 0.9810	55.5410
 0.9820	55.5390
 0.9830	55.5390
 0.9840	55.5480
 0.9850	55.5600
 0.9860	55.5640
 0.9870	55.5630
 0.9880	55.5800
 0.9890	55.6060
 0.9900	55.6210
 0.9910	55.6380
 0.9920	55.6480
 0.9930	55.6630
 0.9940	55.6980
 0.9950	55.7230
 0.9960	55.7500
 0.9970	55.7720
 0.9980	55.7790
 0.9990	55.8040
 1.0000	55.8340
 1.0010	57.3560
 1.0020	57.3740
 1.0030	57.3960
 1.0040	57.4260
 1.0050	57.4540
 1.0060	57.4820
 1.0070	57.5140
 1.0080	57.5430
 1.0090	57.5710
 1.0100	57.5990
 1.0110	57.6270
 1.0120	57.6530
 1.0130	57.6780
 1.0140	57.7040
 1.0150	57.7300
 1.0160	57.7540
 1.0170	57.7800
 1.0180	57.8050
 1.0190	57.8330
 1.0200	57.8610
 1.0210	57.8870
 1.0220	57.9110
 1.0230	57.9390
 1.0240	57.9670
 1.0250	57.9940
 1.0260	58.0260
 1.0270	58.0530
 1.0280	58.0740
 1.0290	58.0990
 1.0300	58.1270
 1.0310	58.1530
 1.0320	58.1790
 1.0330	58.2070
 1.0340	58.2340
 1.0350	58.2530
 1.0360	58.2730
 1.0370	58.2950
 1.0380	58.3140
 1.0390	58.3270
 1.0400	58.3470
 1.0410	58.3690
 1.0420	58.3890
 1.0430	58.4140
 1.0440	58.4340
 1.0450	58.4500
 1.0460	58.4680
 1.0470	58.4870
 1.0480	58.5040
 1.0490	58.5220
 1.0500	58.5380
 1.0510	58.5520
 1.0520	58.5650
 1.0530	58.5760
 1.0540	58.5850
 1.0550	58.5970
 1.0560	58.6080
 1.0570	58.6200
 1.0580	58.6340
 1.0590	58.6440
 1.0600	58.6530
 1.0610	58.6610
 1.0620	58.6700
 1.0630	58.6760
 1.0640	58.6800
 1.0650	58.6840
 1.0660	58.6850
 1.0670	58.6880
 1.0680	58.6910
 1.0690	58.6960
 1.0700	58.6970
 1.0710	58.6970
 1.0720	58.6960
 1.0730	58.6920
 1.0740	58.6890
 1.0750	58.6860
 1.0760	58.6820
 1.0770	58.6760
 1.0780	58.6720
 1.0790	58.6670
 1.0800	58.6630
 1.0810	58.6620
 1.0820	58.6560
 1.0830	58.6470
 1.0840	58.6380
 1.0850	58.6250
 1.0860	58.6120
 1.0870	58.6010
 1.0880	58.5940
 1.0890	58.5820
 1.0900	58.5700
 1.0910	58.5570
 1.0920	58.5390
 1.0930	58.5250
 1.0940	58.5140
 1.0950	58.5000
 1.0960	58.4860
 1.0970	58.4710
 1.0980	58.4540
 1.0990	58.4370
 1.1000	58.4200
 1.1010	58.4030
 1.1020	58.3870
 1.1030	58.3720
 1.1040	58.3540
 1.1050	58.3360
 1.1060	58.3170
 1.1070	58.2940
 1.1080	58.2740
 1.1090	58.2550
 1.1100	58.2340
 1.1110	58.2100
 1.1120	58.1870
 1.1130	58.1650
 1.1140	58.1410
 1.1150	58.1190
 1.1160	58.0910
 1.1170	58.0580
 1.1180	58.0250
 1.1190	57.9910
 1.1200	57.9530
 1.1210	57.9130
 1.1220	57.8700
 1.1230	57.8200
 1.1240	57.7670
 1.1250	57.7080
 1.1260	57.6450
 1.1270	57.5730
 1.1280	57.4970
 1.1290	57.4110
 1.1300	57.3180
 1.1310	57.2150
 1.1320	57.1040
 1.1330	56.9830
 1.1340	56.8560
 1.1350	56.7170
 1.1360	56.5670
 1.1370	56.4070
 1.1380	56.2390
 1.1390	56.0640
 1.1400	55.8820
 1.1410	55.6990
 1.1420	55.5130
 1.1430	55.3220
 1.1440	55.1310
 1.1450	54.9370
 1.1460	54.7490
 1.1470	54.5570
 1.1480	54.3790
 1.1490	54.2070
 1.1500	54.0440
 1.1510	53.8910
 1.1520	53.7450
 1.1530	53.6060
 1.1540	53.4780
 1.1550	53.3580
 1.1560	53.2470
 1.1570	53.1460
 1.1580	53.0570
 1.1590	52.9760
 1.1600	52.9020
 1.1610	52.8360
 1.1620	52.7740
 1.1630	52.7150
 1.1640	52.6650
 1.1650	52.6180
 1.1660	52.5780
 1.1670	52.5390
 1.1680	52.5030
 1.1690	52.4690
 1.1700	52.4380
 1.1710	52.4090
 1.1720	52.3860
 1.1730	52.3590
 1.1740	52.3330
 1.1750	52.3060
 1.1760	52.2790
 1.1770	52.2510
 1.1780	52.2250
 1.1790	52.1980
 1.1800	52.1690
 1.1810	52.1420
 1.1820	52.1170
 1.1830	52.0900
 1.1840	52.0640
 1.1850	52.0390
 1.1860	52.0150
 1.1870	51.9930
 1.1880	51.9740
 1.1890	51.9590
 1.1900	51.9440
 1.1910	51.9300
 1.1920	51.9180
 1.1930	51.9070
 1.1940	51.8990
 1.1950	51.8930
 1.1960	51.8880
 1.1970	51.8870
 1.1980	51.8870
 1.1990	51.8850
 1.2000	51.8870
 1.2010	51.8900
 1.2020	51.8960
 1.2030	51.9060
 1.2040	51.9160
 1.2050	51.9290
 1.2060	51.9440
 1.2070	51.9580
 1.2080	51.9760
 1.2090	51.9910
 1.2100	52.0070
 1.2110	52.0270
 1.2120	52.0480
 1.2130	52.0710
 1.2140	52.0990
 1.2150	52.1260
 1.2160	52.1530
 1.2170	52.1820
 1.2180	52.2110
 1.2190	52.2390
 1.2200	52.2690
 1.2210	52.3030
 1.2220	52.3370
 1.2230	52.3720
 1.2240	52.4080
 1.2250	52.4380
 1.2260	52.4690
 1.2270	52.5020
 1.2280	52.5330
 1.2290	52.5630
 1.2300	52.5950
 1.2310	52.6250
 1.2320	52.6520
 1.2330	52.6790
 1.2340	52.7060
 1.2350	52.7310
 1.2360	52.7540
 1.2370	52.7760
 1.2380	52.7980
 1.2390	52.8190
 1.2400	52.8390
 1.2410	52.8600
 1.2420	52.8800
 1.2430	52.9000
 1.2440	52.9180
 1.2450	52.9350
 1.2460	52.9540
 1.2470	52.9710
 1.2480	52.9880
 1.2490	53.0050
 1.2500	53.0190
 1.2510	53.0330
 1.2520	53.0470
 1.2530	53.0570
 1.2540	53.0680
 1.2550	53.0810
 1.2560	53.0910
 1.2570	53.1000
 1.2580	53.1060
 1.2590	53.1100
 1.2600	53.1110
 1.2610	53.1130
 1.2620	53.1160
 1.2630	53.1170
 1.2640	53.1170
 1.2650	53.1140
 1.2660	53.1110
 1.2670	53.1080
 1.2680	53.1040
 1.2690	53.0990
 1.2700	53.0920
 1.2710	53.0810
 1.2720	53.0700
 1.2730	53.0580
 1.2740	53.0410
 1.2750	53.0250
 1.2760	53.0080
 1.2770	52.9890
 1.2780	52.9700
 1.2790	52.9470
 1.2800	52.9230
 1.2810	52.8970
 1.2820	52.8680
 1.2830	52.8370
 1.2840	52.8030
 1.2850	52.7670
 1.2860	52.7300
 1.2870	52.6900
 1.2880	52.6480
 1.2890	52.6010
 1.2900	52.5530
 1.2910	52.5010
 1.2920	52.4440
 1.2930	52.3880
 1.2940	52.3260
 1.2950	52.2600
 1.2960	52.1930
 1.2970	52.1220
 1.2980	52.0480
 1.2990	51.9700
 1.3000	51.8900
 1.3010	51.8070
 1.3020	51.7220
 1.3030	51.6330
 1.3040	51.5390
 1.3050	51.4410
 1.3060	51.3410
 1.3070	51.2370
 1.3080	51.1320
 1.3090	51.0250
 1.3100	50.9130
 1.3110	50.7970
 1.3120	50.6780
 1.3130	50.5540
 1.3140	50.4270
 1.3150	50.2980
 1.3160	50.1640
 1.3170	50.0280
 1.3180	49.8870
 1.3190	49.7420
 1.3200	49.5940
 1.3210	49.4450
 1.3220	49.2940
 1.3230	49.1400
 1.3240	48.9840
 1.3250	48.8260
 1.3260	48.6620
 1.3270	48.4980
 1.3280	48.3300
 1.3290	48.1560
 1.3300	47.9840
 1.3310	47.8100
 1.3320	47.6320
 1.3330	47.4560
 1.3340	47.2770
 1.3350	47.0970
 1.3360	46.9180
 1.3370	46.7380
 1.3380	46.5580
 1.3390	46.3800
 1.3400	46.2020
 1.3410	46.0250
 1.3420	45.8500
 1.3430	45.6780
 1.3440	45.5070
 1.3450	45.3370
 1.3460	45.1680
 1.3470	45.0030
 1.3480	44.8390
 1.3490	44.6770
 1.3500	44.5190
 1.3510	44.3610
 1.3520	44.2020
 1.3530	44.0450
 1.3540	43.8880
 1.3550	43.7320
 1.3560	43.5780
 1.3570	43.4220
 1.3580	43.2660
 1.3590	43.1080
 1.3600	42.9430
 1.3610	42.7750
 1.3620	42.5990
 1.3630	42.4160
 1.3640	42.2250
 1.3650	42.0250
 1.3660	41.8190
 1.3670	41.6010
 1.3680	41.3690
 1.3690	41.1240
 1.3700	40.8590
 1.3710	40.5790
 1.3720	40.2800
 1.3730	39.9580
 1.3740	39.6180
 1.3750	39.2520
 1.3760	38.8580
 1.3770	38.4400
 1.3780	37.9890
 1.3790	37.5120
 1.3800	37.0080
 1.3810	36.4720
 1.3820	35.9140
 1.3830	35.3320
 1.3840	34.7240
 1.3850	34.0900
 1.3860	33.4400
 1.3870	32.7580
 1.3880	32.0760
 1.3890	31.3780
 1.3900	30.6690
 1.3910	29.9610
 1.3920	29.2500
 1.3930	28.5350
 1.3940	27.8280
 1.3950	27.1230
 1.3960	26.4300
 1.3970	25.7550
 1.3980	25.0940
 1.3990	24.4610
 1.4000	23.8480
 1.4010	23.2520
 1.4020	22.6850
 1.4030	22.1380
 1.4040	21.6180
 1.4050	21.1270
 1.4060	20.6600
 1.4070	20.2230
 1.4080	19.8110
 1.4090	19.4210
 1.4100	19.0580
 1.4110	18.7170
 1.4120	18.3970
 1.4130	18.1020
 1.4140	17.8260
 1.4150	17.5720
 1.4160	17.3360
 1.4170	17.1160
 1.4180	16.9130
 1.4190	16.7240
 1.4200	16.5490
 1.4210	16.3870
 1.4220	16.2360
 1.4230	16.0990
 1.4240	15.9730
 1.4250	15.8550
 1.4260	15.7480
 1.4270	15.6480
 1.4280	15.5560
 1.4290	15.4710
 1.4300	15.3940
 1.4310	15.3240
 1.4320	15.2620
 1.4330	15.2040
 1.4340	15.1530
 1.4350	15.1070
 1.4360	15.0650
 1.4370	15.0280
 1.4380	14.9960
 1.4390	14.9690
 1.4400	14.9450
 1.4410	14.9260
 1.4420	14.9100
 1.4430	14.8970
 1.4440	14.8860
 1.4450	14.8780
 1.4460	14.8740
 1.4470	14.8730
 1.4480	14.8730
 1.4490	14.8760
 1.4500	14.8800
 1.4510	14.8860
 1.4520	14.8950
 1.4530	14.9060
 1.4540	14.9200
 1.4550	14.9360
 1.4560	14.9550
 1.4570	14.9780
 1.4580	15.0030
 1.4590	15.0330
 1.4600	15.0680
 1.4610	15.1060
 1.4620	15.1480
 1.4630	15.1960
 1.4640	15.2490
 1.4650	15.3060
 1.4660	15.3690
 1.4670	15.4370
 1.4680	15.5100
 1.4690	15.5880
 1.4700	15.6710
 1.4710	15.7590
 1.4720	15.8510
 1.4730	15.9480
 1.4740	16.0490
 1.4750	16.1540
 1.4760	16.2630
 1.4770	16.3760
