Name: Chorisia insignis
Type: vegetation
Class: Tree
Genus: Chorisia
Species: insignis
Sample No.: JPL240
Owner: JPL
Wavelength Range: VSWIR
Origin: 34.1268; -118.11025; WGS84
Collection Date: 10/6/2016
Description: Samples were collected at the Huntington Garden in San Marino California as part of a JPL Subcontract studying HyTES imagery. Samples were taken to JPL and processed within 48 hours of collection. The same leaves were processed in the Nicolet and then measured using the ASD.
Measurement: Bidirectional reflectance
First Column: X
Second Column: Y
X Units: Wavelength (micrometer)
Y Units: Reflectance (percentage)
First X Value: 0.35
Last X Value: 2.5
Number of X Values: 2151
Additional Information: vegetation.tree.chorisia.insignis.vswir.jpl240.jpl.asd.ancillary.txt

 0.3500	 5.4570
 0.3510	 5.5810
 0.3520	 5.5710
 0.3530	 5.4820
 0.3540	 5.4330
 0.3550	 5.4660
 0.3560	 5.5390
 0.3570	 5.5390
 0.3580	 5.3770
 0.3590	 5.4320
 0.3600	 5.4720
 0.3610	 5.4010
 0.3620	 5.3960
 0.3630	 5.4090
 0.3640	 5.4010
 0.3650	 5.3600
 0.3660	 5.3520
 0.3670	 5.3880
 0.3680	 5.4360
 0.3690	 5.4340
 0.3700	 5.3780
 0.3710	 5.3380
 0.3720	 5.3410
 0.3730	 5.3220
 0.3740	 5.3150
 0.3750	 5.3310
 0.3760	 5.3590
 0.3770	 5.3320
 0.3780	 5.3000
 0.3790	 5.3000
 0.3800	 5.3390
 0.3810	 5.3260
 0.3820	 5.3210
 0.3830	 5.3680
 0.3840	 5.4230
 0.3850	 5.4220
 0.3860	 5.3850
 0.3870	 5.3620
 0.3880	 5.3780
 0.3890	 5.4100
 0.3900	 5.4410
 0.3910	 5.4690
 0.3920	 5.4800
 0.3930	 5.4790
 0.3940	 5.4750
 0.3950	 5.4720
 0.3960	 5.5060
 0.3970	 5.5560
 0.3980	 5.5800
 0.3990	 5.5790
 0.4000	 5.5890
 0.4010	 5.6260
 0.4020	 5.6730
 0.4030	 5.6800
 0.4040	 5.6800
 0.4050	 5.7040
 0.4060	 5.7080
 0.4070	 5.7090
 0.4080	 5.7160
 0.4090	 5.7300
 0.4100	 5.7530
 0.4110	 5.7580
 0.4120	 5.7440
 0.4130	 5.7530
 0.4140	 5.7740
 0.4150	 5.7960
 0.4160	 5.8070
 0.4170	 5.8120
 0.4180	 5.8230
 0.4190	 5.8380
 0.4200	 5.8350
 0.4210	 5.8230
 0.4220	 5.8190
 0.4230	 5.8310
 0.4240	 5.8510
 0.4250	 5.8520
 0.4260	 5.8390
 0.4270	 5.8330
 0.4280	 5.8440
 0.4290	 5.8460
 0.4300	 5.8360
 0.4310	 5.8360
 0.4320	 5.8410
 0.4330	 5.8500
 0.4340	 5.8570
 0.4350	 5.8490
 0.4360	 5.8450
 0.4370	 5.8480
 0.4380	 5.8540
 0.4390	 5.8670
 0.4400	 5.8740
 0.4410	 5.8700
 0.4420	 5.8760
 0.4430	 5.8790
 0.4440	 5.8820
 0.4450	 5.8900
 0.4460	 5.8930
 0.4470	 5.9030
 0.4480	 5.9190
 0.4490	 5.9270
 0.4500	 5.9340
 0.4510	 5.9400
 0.4520	 5.9470
 0.4530	 5.9600
 0.4540	 5.9680
 0.4550	 5.9700
 0.4560	 5.9730
 0.4570	 5.9720
 0.4580	 5.9730
 0.4590	 5.9780
 0.4600	 5.9860
 0.4610	 5.9850
 0.4620	 5.9840
 0.4630	 5.9900
 0.4640	 5.9890
 0.4650	 5.9870
 0.4660	 5.9840
 0.4670	 5.9790
 0.4680	 5.9790
 0.4690	 5.9810
 0.4700	 5.9800
 0.4710	 5.9790
 0.4720	 5.9790
 0.4730	 5.9810
 0.4740	 5.9850
 0.4750	 5.9860
 0.4760	 5.9850
 0.4770	 5.9840
 0.4780	 5.9890
 0.4790	 5.9920
 0.4800	 5.9940
 0.4810	 5.9980
 0.4820	 6.0020
 0.4830	 6.0040
 0.4840	 6.0050
 0.4850	 6.0090
 0.4860	 6.0120
 0.4870	 6.0180
 0.4880	 6.0270
 0.4890	 6.0310
 0.4900	 6.0370
 0.4910	 6.0450
 0.4920	 6.0530
 0.4930	 6.0680
 0.4940	 6.0850
 0.4950	 6.1010
 0.4960	 6.1180
 0.4970	 6.1380
 0.4980	 6.1620
 0.4990	 6.1870
 0.5000	 6.2160
 0.5010	 6.2510
 0.5020	 6.2890
 0.5030	 6.3300
 0.5040	 6.3760
 0.5050	 6.4260
 0.5060	 6.4800
 0.5070	 6.5450
 0.5080	 6.6160
 0.5090	 6.6930
 0.5100	 6.7770
 0.5110	 6.8710
 0.5120	 6.9790
 0.5130	 7.0980
 0.5140	 7.2260
 0.5150	 7.3640
 0.5160	 7.5140
 0.5170	 7.6770
 0.5180	 7.8480
 0.5190	 8.0310
 0.5200	 8.2250
 0.5210	 8.4260
 0.5220	 8.6270
 0.5230	 8.8300
 0.5240	 9.0380
 0.5250	 9.2420
 0.5260	 9.4370
 0.5270	 9.6250
 0.5280	 9.8080
 0.5290	 9.9740
 0.5300	10.1300
 0.5310	10.2770
 0.5320	10.4090
 0.5330	10.5290
 0.5340	10.6350
 0.5350	10.7280
 0.5360	10.8100
 0.5370	10.8820
 0.5380	10.9440
 0.5390	10.9970
 0.5400	11.0440
 0.5410	11.0920
 0.5420	11.1400
 0.5430	11.1770
 0.5440	11.2080
 0.5450	11.2360
 0.5460	11.2600
 0.5470	11.2760
 0.5480	11.2930
 0.5490	11.3130
 0.5500	11.3290
 0.5510	11.3380
 0.5520	11.3400
 0.5530	11.3330
 0.5540	11.3100
 0.5550	11.2740
 0.5560	11.2260
 0.5570	11.1640
 0.5580	11.0880
 0.5590	11.0050
 0.5600	10.9170
 0.5610	10.8140
 0.5620	10.7020
 0.5630	10.5820
 0.5640	10.4570
 0.5650	10.3280
 0.5660	10.1960
 0.5670	10.0630
 0.5680	 9.9270
 0.5690	 9.7880
 0.5700	 9.6490
 0.5710	 9.5140
 0.5720	 9.3840
 0.5730	 9.2600
 0.5740	 9.1440
 0.5750	 9.0380
 0.5760	 8.9410
 0.5770	 8.8480
 0.5780	 8.7590
 0.5790	 8.6760
 0.5800	 8.6020
 0.5810	 8.5330
 0.5820	 8.4670
 0.5830	 8.4040
 0.5840	 8.3430
 0.5850	 8.2830
 0.5860	 8.2270
 0.5870	 8.1770
 0.5880	 8.1320
 0.5890	 8.0900
 0.5900	 8.0470
 0.5910	 8.0110
 0.5920	 7.9800
 0.5930	 7.9490
 0.5940	 7.9240
 0.5950	 7.9050
 0.5960	 7.8910
 0.5970	 7.8780
 0.5980	 7.8630
 0.5990	 7.8460
 0.6000	 7.8310
 0.6010	 7.8110
 0.6020	 7.7850
 0.6030	 7.7530
 0.6040	 7.7200
 0.6050	 7.6810
 0.6060	 7.6380
 0.6070	 7.5900
 0.6080	 7.5380
 0.6090	 7.4840
 0.6100	 7.4310
 0.6110	 7.3800
 0.6120	 7.3270
 0.6130	 7.2750
 0.6140	 7.2270
 0.6150	 7.1810
 0.6160	 7.1360
 0.6170	 7.0930
 0.6180	 7.0550
 0.6190	 7.0220
 0.6200	 6.9900
 0.6210	 6.9610
 0.6220	 6.9340
 0.6230	 6.9130
 0.6240	 6.8970
 0.6250	 6.8850
 0.6260	 6.8710
 0.6270	 6.8610
 0.6280	 6.8530
 0.6290	 6.8470
 0.6300	 6.8400
 0.6310	 6.8350
 0.6320	 6.8290
 0.6330	 6.8170
 0.6340	 6.7970
 0.6350	 6.7750
 0.6360	 6.7520
 0.6370	 6.7240
 0.6380	 6.6900
 0.6390	 6.6530
 0.6400	 6.6150
 0.6410	 6.5750
 0.6420	 6.5360
 0.6430	 6.4990
 0.6440	 6.4630
 0.6450	 6.4270
 0.6460	 6.3920
 0.6470	 6.3610
 0.6480	 6.3340
 0.6490	 6.3090
 0.6500	 6.2890
 0.6510	 6.2760
 0.6520	 6.2650
 0.6530	 6.2550
 0.6540	 6.2460
 0.6550	 6.2380
 0.6560	 6.2290
 0.6570	 6.2180
 0.6580	 6.2050
 0.6590	 6.1890
 0.6600	 6.1720
 0.6610	 6.1580
 0.6620	 6.1490
 0.6630	 6.1380
 0.6640	 6.1300
 0.6650	 6.1290
 0.6660	 6.1320
 0.6670	 6.1400
 0.6680	 6.1510
 0.6690	 6.1670
 0.6700	 6.1890
 0.6710	 6.2130
 0.6720	 6.2400
 0.6730	 6.2750
 0.6740	 6.3130
 0.6750	 6.3560
 0.6760	 6.4040
 0.6770	 6.4540
 0.6780	 6.5090
 0.6790	 6.5690
 0.6800	 6.6310
 0.6810	 6.6970
 0.6820	 6.7660
 0.6830	 6.8350
 0.6840	 6.9010
 0.6850	 6.9650
 0.6860	 7.0290
 0.6870	 7.0920
 0.6880	 7.1640
 0.6890	 7.2510
 0.6900	 7.3600
 0.6910	 7.5040
 0.6920	 7.6910
 0.6930	 7.9300
 0.6940	 8.2270
 0.6950	 8.5940
 0.6960	 9.0260
 0.6970	 9.5250
 0.6980	10.0900
 0.6990	10.7090
 0.7000	11.3800
 0.7010	12.0940
 0.7020	12.8400
 0.7030	13.6110
 0.7040	14.4000
 0.7050	15.2020
 0.7060	16.0120
 0.7070	16.8270
 0.7080	17.6470
 0.7090	18.4720
 0.7100	19.3030
 0.7110	20.1400
 0.7120	20.9820
 0.7130	21.8210
 0.7140	22.6610
 0.7150	23.5030
 0.7160	24.3450
 0.7170	25.1780
 0.7180	26.0110
 0.7190	26.8370
 0.7200	27.6470
 0.7210	28.4470
 0.7220	29.2320
 0.7230	29.9990
 0.7240	30.7430
 0.7250	31.4650
 0.7260	32.1650
 0.7270	32.8400
 0.7280	33.4880
 0.7290	34.1070
 0.7300	34.6980
 0.7310	35.2620
 0.7320	35.7960
 0.7330	36.3020
 0.7340	36.7800
 0.7350	37.2270
 0.7360	37.6470
 0.7370	38.0390
 0.7380	38.4030
 0.7390	38.7440
 0.7400	39.0600
 0.7410	39.3520
 0.7420	39.6190
 0.7430	39.8620
 0.7440	40.0830
 0.7450	40.2810
 0.7460	40.4610
 0.7470	40.6230
 0.7480	40.7660
 0.7490	40.8930
 0.7500	41.0040
 0.7510	41.1020
 0.7520	41.1890
 0.7530	41.2650
 0.7540	41.3330
 0.7550	41.3920
 0.7560	41.4420
 0.7570	41.4870
 0.7580	41.5260
 0.7590	41.5600
 0.7600	41.5900
 0.7610	41.6140
 0.7620	41.6350
 0.7630	41.6500
 0.7640	41.6610
 0.7650	41.6690
 0.7660	41.6740
 0.7670	41.6780
 0.7680	41.6810
 0.7690	41.6800
 0.7700	41.6780
 0.7710	41.6760
 0.7720	41.6740
 0.7730	41.6720
 0.7740	41.6680
 0.7750	41.6640
 0.7760	41.6620
 0.7770	41.6600
 0.7780	41.6560
 0.7790	41.6520
 0.7800	41.6500
 0.7810	41.6500
 0.7820	41.6510
 0.7830	41.6510
 0.7840	41.6490
 0.7850	41.6470
 0.7860	41.6440
 0.7870	41.6420
 0.7880	41.6380
 0.7890	41.6340
 0.7900	41.6320
 0.7910	41.6280
 0.7920	41.6250
 0.7930	41.6220
 0.7940	41.6170
 0.7950	41.6100
 0.7960	41.6060
 0.7970	41.6030
 0.7980	41.5930
 0.7990	41.5840
 0.8000	41.5770
 0.8010	41.5710
 0.8020	41.5620
 0.8030	41.5520
 0.8040	41.5420
 0.8050	41.5360
 0.8060	41.5260
 0.8070	41.5150
 0.8080	41.5050
 0.8090	41.4960
 0.8100	41.4870
 0.8110	41.4780
 0.8120	41.4680
 0.8130	41.4520
 0.8140	41.4400
 0.8150	41.4290
 0.8160	41.4170
 0.8170	41.4050
 0.8180	41.3940
 0.8190	41.3840
 0.8200	41.3740
 0.8210	41.3630
 0.8220	41.3510
 0.8230	41.3390
 0.8240	41.3280
 0.8250	41.3170
 0.8260	41.3090
 0.8270	41.3010
 0.8280	41.2890
 0.8290	41.2800
 0.8300	41.2700
 0.8310	41.2590
 0.8320	41.2520
 0.8330	41.2450
 0.8340	41.2360
 0.8350	41.2270
 0.8360	41.2230
 0.8370	41.2190
 0.8380	41.2140
 0.8390	41.2060
 0.8400	41.2050
 0.8410	41.2050
 0.8420	41.2030
 0.8430	41.1970
 0.8440	41.1940
 0.8450	41.1930
 0.8460	41.1930
 0.8470	41.1930
 0.8480	41.1910
 0.8490	41.1910
 0.8500	41.1950
 0.8510	41.1920
 0.8520	41.1900
 0.8530	41.1910
 0.8540	41.1940
 0.8550	41.1940
 0.8560	41.1970
 0.8570	41.2030
 0.8580	41.2050
 0.8590	41.2070
 0.8600	41.2100
 0.8610	41.2150
 0.8620	41.2200
 0.8630	41.2250
 0.8640	41.2310
 0.8650	41.2350
 0.8660	41.2400
 0.8670	41.2470
 0.8680	41.2530
 0.8690	41.2560
 0.8700	41.2650
 0.8710	41.2730
 0.8720	41.2800
 0.8730	41.2850
 0.8740	41.2940
 0.8750	41.3010
 0.8760	41.3070
 0.8770	41.3160
 0.8780	41.3250
 0.8790	41.3310
 0.8800	41.3340
 0.8810	41.3420
 0.8820	41.3500
 0.8830	41.3590
 0.8840	41.3670
 0.8850	41.3730
 0.8860	41.3780
 0.8870	41.3830
 0.8880	41.3870
 0.8890	41.3970
 0.8900	41.4100
 0.8910	41.4200
 0.8920	41.4240
 0.8930	41.4300
 0.8940	41.4350
 0.8950	41.4390
 0.8960	41.4460
 0.8970	41.4540
 0.8980	41.4630
 0.8990	41.4700
 0.9000	41.4740
 0.9010	41.4820
 0.9020	41.4910
 0.9030	41.4980
 0.9040	41.5020
 0.9050	41.5010
 0.9060	41.5030
 0.9070	41.5130
 0.9080	41.5220
 0.9090	41.5310
 0.9100	41.5360
 0.9110	41.5370
 0.9120	41.5380
 0.9130	41.5410
 0.9140	41.5460
 0.9150	41.5530
 0.9160	41.5530
 0.9170	41.5530
 0.9180	41.5500
 0.9190	41.5440
 0.9200	41.5480
 0.9210	41.5470
 0.9220	41.5410
 0.9230	41.5360
 0.9240	41.5320
 0.9250	41.5320
 0.9260	41.5320
 0.9270	41.5220
 0.9280	41.5130
 0.9290	41.5020
 0.9300	41.4900
 0.9310	41.4820
 0.9320	41.4750
 0.9330	41.4640
 0.9340	41.4480
 0.9350	41.4310
 0.9360	41.4170
 0.9370	41.4020
 0.9380	41.3830
 0.9390	41.3680
 0.9400	41.3540
 0.9410	41.3360
 0.9420	41.3150
 0.9430	41.3000
 0.9440	41.2800
 0.9450	41.2540
 0.9460	41.2250
 0.9470	41.2050
 0.9480	41.1800
 0.9490	41.1490
 0.9500	41.1160
 0.9510	41.0820
 0.9520	41.0470
 0.9530	41.0090
 0.9540	40.9690
 0.9550	40.9420
 0.9560	40.9110
 0.9570	40.8750
 0.9580	40.8400
 0.9590	40.8100
 0.9600	40.7820
 0.9610	40.7530
 0.9620	40.7250
 0.9630	40.7150
 0.9640	40.6990
 0.9650	40.6810
 0.9660	40.6660
 0.9670	40.6450
 0.9680	40.6390
 0.9690	40.6350
 0.9700	40.6140
 0.9710	40.6060
 0.9720	40.6000
 0.9730	40.6000
 0.9740	40.6060
 0.9750	40.5930
 0.9760	40.5780
 0.9770	40.5710
 0.9780	40.5730
 0.9790	40.5750
 0.9800	40.5790
 0.9810	40.5810
 0.9820	40.5760
 0.9830	40.5620
 0.9840	40.5610
 0.9850	40.5680
 0.9860	40.5680
 0.9870	40.5770
 0.9880	40.5950
 0.9890	40.6090
 0.9900	40.6060
 0.9910	40.6120
 0.9920	40.6100
 0.9930	40.6110
 0.9940	40.6310
 0.9950	40.6360
 0.9960	40.6420
 0.9970	40.6450
 0.9980	40.6390
 0.9990	40.6450
 1.0000	40.6660
 1.0010	42.0280
 1.0020	42.0340
 1.0030	42.0410
 1.0040	42.0540
 1.0050	42.0680
 1.0060	42.0800
 1.0070	42.0930
 1.0080	42.1050
 1.0090	42.1190
 1.0100	42.1290
 1.0110	42.1340
 1.0120	42.1410
 1.0130	42.1440
 1.0140	42.1510
 1.0150	42.1600
 1.0160	42.1710
 1.0170	42.1800
 1.0180	42.1880
 1.0190	42.1980
 1.0200	42.2040
 1.0210	42.2100
 1.0220	42.2190
 1.0230	42.2280
 1.0240	42.2370
 1.0250	42.2470
 1.0260	42.2590
 1.0270	42.2690
 1.0280	42.2750
 1.0290	42.2840
 1.0300	42.2970
 1.0310	42.3070
 1.0320	42.3170
 1.0330	42.3280
 1.0340	42.3390
 1.0350	42.3440
 1.0360	42.3490
 1.0370	42.3580
 1.0380	42.3630
 1.0390	42.3650
 1.0400	42.3720
 1.0410	42.3820
 1.0420	42.3890
 1.0430	42.3980
 1.0440	42.4050
 1.0450	42.4110
 1.0460	42.4180
 1.0470	42.4290
 1.0480	42.4350
 1.0490	42.4390
 1.0500	42.4430
 1.0510	42.4470
 1.0520	42.4490
 1.0530	42.4490
 1.0540	42.4480
 1.0550	42.4490
 1.0560	42.4480
 1.0570	42.4500
 1.0580	42.4580
 1.0590	42.4610
 1.0600	42.4630
 1.0610	42.4640
 1.0620	42.4660
 1.0630	42.4640
 1.0640	42.4610
 1.0650	42.4580
 1.0660	42.4520
 1.0670	42.4480
 1.0680	42.4440
 1.0690	42.4420
 1.0700	42.4370
 1.0710	42.4320
 1.0720	42.4280
 1.0730	42.4230
 1.0740	42.4180
 1.0750	42.4140
 1.0760	42.4080
 1.0770	42.3990
 1.0780	42.3930
 1.0790	42.3880
 1.0800	42.3820
 1.0810	42.3770
 1.0820	42.3720
 1.0830	42.3660
 1.0840	42.3590
 1.0850	42.3510
 1.0860	42.3440
 1.0870	42.3370
 1.0880	42.3280
 1.0890	42.3210
 1.0900	42.3140
 1.0910	42.3070
 1.0920	42.3010
 1.0930	42.2960
 1.0940	42.2920
 1.0950	42.2850
 1.0960	42.2770
 1.0970	42.2710
 1.0980	42.2660
 1.0990	42.2590
 1.1000	42.2500
 1.1010	42.2440
 1.1020	42.2370
 1.1030	42.2310
 1.1040	42.2280
 1.1050	42.2240
 1.1060	42.2190
 1.1070	42.2120
 1.1080	42.2060
 1.1090	42.1990
 1.1100	42.1920
 1.1110	42.1830
 1.1120	42.1770
 1.1130	42.1720
 1.1140	42.1650
 1.1150	42.1600
 1.1160	42.1530
 1.1170	42.1430
 1.1180	42.1320
 1.1190	42.1200
 1.1200	42.1080
 1.1210	42.0940
 1.1220	42.0770
 1.1230	42.0610
 1.1240	42.0420
 1.1250	42.0210
 1.1260	41.9980
 1.1270	41.9720
 1.1280	41.9430
 1.1290	41.9090
 1.1300	41.8730
 1.1310	41.8310
 1.1320	41.7850
 1.1330	41.7350
 1.1340	41.6820
 1.1350	41.6240
 1.1360	41.5600
 1.1370	41.4930
 1.1380	41.4220
 1.1390	41.3460
 1.1400	41.2680
 1.1410	41.1900
 1.1420	41.1110
 1.1430	41.0300
 1.1440	40.9490
 1.1450	40.8670
 1.1460	40.7870
 1.1470	40.7040
 1.1480	40.6290
 1.1490	40.5550
 1.1500	40.4860
 1.1510	40.4230
 1.1520	40.3630
 1.1530	40.3030
 1.1540	40.2490
 1.1550	40.1990
 1.1560	40.1510
 1.1570	40.1100
 1.1580	40.0730
 1.1590	40.0400
 1.1600	40.0120
 1.1610	39.9860
 1.1620	39.9610
 1.1630	39.9370
 1.1640	39.9150
 1.1650	39.8960
 1.1660	39.8810
 1.1670	39.8660
 1.1680	39.8530
 1.1690	39.8400
 1.1700	39.8280
 1.1710	39.8160
 1.1720	39.8070
 1.1730	39.7970
 1.1740	39.7870
 1.1750	39.7760
 1.1760	39.7650
 1.1770	39.7540
 1.1780	39.7430
 1.1790	39.7320
 1.1800	39.7200
 1.1810	39.7070
 1.1820	39.6970
 1.1830	39.6860
 1.1840	39.6740
 1.1850	39.6630
 1.1860	39.6520
 1.1870	39.6410
 1.1880	39.6310
 1.1890	39.6240
 1.1900	39.6160
 1.1910	39.6080
 1.1920	39.6000
 1.1930	39.5930
 1.1940	39.5870
 1.1950	39.5820
 1.1960	39.5780
 1.1970	39.5760
 1.1980	39.5740
 1.1990	39.5710
 1.2000	39.5700
 1.2010	39.5690
 1.2020	39.5690
 1.2030	39.5730
 1.2040	39.5760
 1.2050	39.5810
 1.2060	39.5880
 1.2070	39.5940
 1.2080	39.6020
 1.2090	39.6100
 1.2100	39.6170
 1.2110	39.6250
 1.2120	39.6320
 1.2130	39.6410
 1.2140	39.6520
 1.2150	39.6630
 1.2160	39.6740
 1.2170	39.6860
 1.2180	39.6970
 1.2190	39.7060
 1.2200	39.7170
 1.2210	39.7280
 1.2220	39.7390
 1.2230	39.7510
 1.2240	39.7640
 1.2250	39.7730
 1.2260	39.7840
 1.2270	39.7970
 1.2280	39.8090
 1.2290	39.8200
 1.2300	39.8310
 1.2310	39.8410
 1.2320	39.8510
 1.2330	39.8620
 1.2340	39.8710
 1.2350	39.8800
 1.2360	39.8880
 1.2370	39.8940
 1.2380	39.9010
 1.2390	39.9080
 1.2400	39.9140
 1.2410	39.9220
 1.2420	39.9280
 1.2430	39.9320
 1.2440	39.9360
 1.2450	39.9410
 1.2460	39.9460
 1.2470	39.9520
 1.2480	39.9570
 1.2490	39.9610
 1.2500	39.9660
 1.2510	39.9690
 1.2520	39.9730
 1.2530	39.9760
 1.2540	39.9790
 1.2550	39.9810
 1.2560	39.9820
 1.2570	39.9830
 1.2580	39.9830
 1.2590	39.9820
 1.2600	39.9800
 1.2610	39.9790
 1.2620	39.9770
 1.2630	39.9750
 1.2640	39.9720
 1.2650	39.9680
 1.2660	39.9650
 1.2670	39.9630
 1.2680	39.9590
 1.2690	39.9550
 1.2700	39.9480
 1.2710	39.9420
 1.2720	39.9350
 1.2730	39.9280
 1.2740	39.9190
 1.2750	39.9100
 1.2760	39.9010
 1.2770	39.8910
 1.2780	39.8800
 1.2790	39.8680
 1.2800	39.8540
 1.2810	39.8400
 1.2820	39.8250
 1.2830	39.8090
 1.2840	39.7900
 1.2850	39.7700
 1.2860	39.7480
 1.2870	39.7250
 1.2880	39.6990
 1.2890	39.6710
 1.2900	39.6420
 1.2910	39.6100
 1.2920	39.5760
 1.2930	39.5420
 1.2940	39.5070
 1.2950	39.4700
 1.2960	39.4320
 1.2970	39.3920
 1.2980	39.3490
 1.2990	39.3050
 1.3000	39.2610
 1.3010	39.2160
 1.3020	39.1690
 1.3030	39.1190
 1.3040	39.0670
 1.3050	39.0130
 1.3060	38.9590
 1.3070	38.9040
 1.3080	38.8520
 1.3090	38.7980
 1.3100	38.7420
 1.3110	38.6860
 1.3120	38.6270
 1.3130	38.5660
 1.3140	38.5050
 1.3150	38.4430
 1.3160	38.3790
 1.3170	38.3140
 1.3180	38.2480
 1.3190	38.1810
 1.3200	38.1120
 1.3210	38.0430
 1.3220	37.9740
 1.3230	37.9020
 1.3240	37.8310
 1.3250	37.7600
 1.3260	37.6850
 1.3270	37.6120
 1.3280	37.5350
 1.3290	37.4560
 1.3300	37.3780
 1.3310	37.2990
 1.3320	37.2180
 1.3330	37.1380
 1.3340	37.0570
 1.3350	36.9740
 1.3360	36.8940
 1.3370	36.8130
 1.3380	36.7320
 1.3390	36.6530
 1.3400	36.5720
 1.3410	36.4920
 1.3420	36.4120
 1.3430	36.3320
 1.3440	36.2540
 1.3450	36.1760
 1.3460	36.0990
 1.3470	36.0240
 1.3480	35.9490
 1.3490	35.8750
 1.3500	35.8010
 1.3510	35.7270
 1.3520	35.6510
 1.3530	35.5770
 1.3540	35.5020
 1.3550	35.4280
 1.3560	35.3550
 1.3570	35.2780
 1.3580	35.2020
 1.3590	35.1230
 1.3600	35.0400
 1.3610	34.9540
 1.3620	34.8620
 1.3630	34.7660
 1.3640	34.6650
 1.3650	34.5590
 1.3660	34.4470
 1.3670	34.3300
 1.3680	34.2040
 1.3690	34.0690
 1.3700	33.9230
 1.3710	33.7680
 1.3720	33.5990
 1.3730	33.4160
 1.3740	33.2200
 1.3750	33.0080
 1.3760	32.7780
 1.3770	32.5310
 1.3780	32.2640
 1.3790	31.9780
 1.3800	31.6740
 1.3810	31.3480
 1.3820	31.0060
 1.3830	30.6470
 1.3840	30.2690
 1.3850	29.8720
 1.3860	29.4600
 1.3870	29.0270
 1.3880	28.5870
 1.3890	28.1340
 1.3900	27.6690
 1.3910	27.2030
 1.3920	26.7280
 1.3930	26.2480
 1.3940	25.7710
 1.3950	25.2890
 1.3960	24.8130
 1.3970	24.3460
 1.3980	23.8850
 1.3990	23.4400
 1.4000	23.0070
 1.4010	22.5840
 1.4020	22.1780
 1.4030	21.7850
 1.4040	21.4080
 1.4050	21.0500
 1.4060	20.7080
 1.4070	20.3870
 1.4080	20.0840
 1.4090	19.7950
 1.4100	19.5260
 1.4110	19.2710
 1.4120	19.0330
 1.4130	18.8100
 1.4140	18.6020
 1.4150	18.4080
 1.4160	18.2280
 1.4170	18.0610
 1.4180	17.9060
 1.4190	17.7600
 1.4200	17.6250
 1.4210	17.4990
 1.4220	17.3810
 1.4230	17.2740
 1.4240	17.1750
 1.4250	17.0830
 1.4260	16.9980
 1.4270	16.9190
 1.4280	16.8470
 1.4290	16.7800
 1.4300	16.7190
 1.4310	16.6630
 1.4320	16.6130
 1.4330	16.5670
 1.4340	16.5270
 1.4350	16.4900
 1.4360	16.4570
 1.4370	16.4280
 1.4380	16.4030
 1.4390	16.3810
 1.4400	16.3630
 1.4410	16.3470
 1.4420	16.3340
 1.4430	16.3240
 1.4440	16.3160
 1.4450	16.3110
 1.4460	16.3090
 1.4470	16.3090
 1.4480	16.3100
 1.4490	16.3130
 1.4500	16.3180
 1.4510	16.3240
 1.4520	16.3330
 1.4530	16.3430
 1.4540	16.3550
 1.4550	16.3700
 1.4560	16.3870
 1.4570	16.4090
 1.4580	16.4330
 1.4590	16.4590
 1.4600	16.4890
 1.4610	16.5230
 1.4620	16.5600
 1.4630	16.6020
 1.4640	16.6490
 1.4650	16.6990
 1.4660	16.7550
 1.4670	16.8140
 1.4680	16.8780
 1.4690	16.9460
 1.4700	17.0180
 1.4710	17.0960
 1.4720	17.1740
 1.4730	17.2560
 1.4740	17.3420
 1.4750	17.4300
 1.4760	17.5220
 1.4770	17.6160
