Name: Quercus suber
Type: vegetation
Class: Tree
Genus: Quercus
Species: suber
Sample No.: JPL249
Owner: JPL
Wavelength Range: VSWIR
Origin: 34.12831; -118.11379; WGS84
Collection Date: 10/6/2016
Description: Samples were collected at the Huntington Garden in San Marino California as part of a JPL Subcontract studying HyTES imagery. Samples were taken to JPL and processed within 48 hours of collection. The same leaves were processed in the Nicolet and then measured using the ASD.
Measurement: Bidirectional reflectance
First Column: X
Second Column: Y
X Units: Wavelength (micrometer)
Y Units: Reflectance (percentage)
First X Value: 0.35
Last X Value: 2.5
Number of X Values: 2151
Additional Information: vegetation.tree.quercus.suber.vswir.jpl249.jpl.asd.ancillary.txt

 0.3500	 6.2980
 0.3510	 6.1290
 0.3520	 5.9800
 0.3530	 5.9350
 0.3540	 5.9890
 0.3550	 5.9640
 0.3560	 5.9420
 0.3570	 5.9230
 0.3580	 5.8850
 0.3590	 5.9780
 0.3600	 6.0080
 0.3610	 5.9200
 0.3620	 5.8940
 0.3630	 5.8800
 0.3640	 5.8750
 0.3650	 5.8770
 0.3660	 5.8610
 0.3670	 5.8350
 0.3680	 5.8150
 0.3690	 5.8200
 0.3700	 5.8310
 0.3710	 5.8490
 0.3720	 5.8670
 0.3730	 5.8650
 0.3740	 5.8340
 0.3750	 5.7770
 0.3760	 5.7190
 0.3770	 5.7460
 0.3780	 5.7880
 0.3790	 5.8140
 0.3800	 5.8370
 0.3810	 5.8320
 0.3820	 5.8040
 0.3830	 5.7770
 0.3840	 5.8080
 0.3850	 5.7560
 0.3860	 5.7050
 0.3870	 5.7800
 0.3880	 5.8190
 0.3890	 5.8050
 0.3900	 5.7630
 0.3910	 5.7490
 0.3920	 5.7320
 0.3930	 5.7340
 0.3940	 5.7670
 0.3950	 5.8010
 0.3960	 5.8170
 0.3970	 5.8100
 0.3980	 5.7910
 0.3990	 5.8060
 0.4000	 5.8230
 0.4010	 5.8270
 0.4020	 5.8360
 0.4030	 5.8420
 0.4040	 5.8440
 0.4050	 5.8430
 0.4060	 5.8450
 0.4070	 5.8660
 0.4080	 5.8920
 0.4090	 5.8880
 0.4100	 5.8890
 0.4110	 5.8910
 0.4120	 5.8940
 0.4130	 5.9140
 0.4140	 5.9400
 0.4150	 5.9590
 0.4160	 5.9650
 0.4170	 5.9790
 0.4180	 5.9990
 0.4190	 6.0190
 0.4200	 6.0260
 0.4210	 6.0320
 0.4220	 6.0460
 0.4230	 6.0680
 0.4240	 6.0710
 0.4250	 6.0830
 0.4260	 6.1000
 0.4270	 6.1050
 0.4280	 6.1210
 0.4290	 6.1300
 0.4300	 6.1280
 0.4310	 6.1300
 0.4320	 6.1300
 0.4330	 6.1330
 0.4340	 6.1400
 0.4350	 6.1370
 0.4360	 6.1400
 0.4370	 6.1520
 0.4380	 6.1620
 0.4390	 6.1790
 0.4400	 6.1940
 0.4410	 6.2010
 0.4420	 6.2100
 0.4430	 6.2150
 0.4440	 6.2170
 0.4450	 6.2230
 0.4460	 6.2390
 0.4470	 6.2530
 0.4480	 6.2600
 0.4490	 6.2570
 0.4500	 6.2660
 0.4510	 6.2780
 0.4520	 6.2850
 0.4530	 6.2910
 0.4540	 6.2950
 0.4550	 6.3020
 0.4560	 6.3180
 0.4570	 6.3190
 0.4580	 6.3170
 0.4590	 6.3190
 0.4600	 6.3240
 0.4610	 6.3240
 0.4620	 6.3240
 0.4630	 6.3300
 0.4640	 6.3360
 0.4650	 6.3370
 0.4660	 6.3330
 0.4670	 6.3320
 0.4680	 6.3340
 0.4690	 6.3380
 0.4700	 6.3420
 0.4710	 6.3360
 0.4720	 6.3420
 0.4730	 6.3510
 0.4740	 6.3450
 0.4750	 6.3470
 0.4760	 6.3520
 0.4770	 6.3550
 0.4780	 6.3560
 0.4790	 6.3550
 0.4800	 6.3530
 0.4810	 6.3490
 0.4820	 6.3490
 0.4830	 6.3540
 0.4840	 6.3600
 0.4850	 6.3610
 0.4860	 6.3620
 0.4870	 6.3620
 0.4880	 6.3620
 0.4890	 6.3690
 0.4900	 6.3790
 0.4910	 6.3880
 0.4920	 6.3980
 0.4930	 6.4100
 0.4940	 6.4240
 0.4950	 6.4380
 0.4960	 6.4530
 0.4970	 6.4650
 0.4980	 6.4770
 0.4990	 6.4950
 0.5000	 6.5190
 0.5010	 6.5460
 0.5020	 6.5730
 0.5030	 6.6000
 0.5040	 6.6270
 0.5050	 6.6590
 0.5060	 6.7010
 0.5070	 6.7430
 0.5080	 6.7910
 0.5090	 6.8440
 0.5100	 6.8990
 0.5110	 6.9660
 0.5120	 7.0410
 0.5130	 7.1210
 0.5140	 7.2080
 0.5150	 7.3030
 0.5160	 7.4050
 0.5170	 7.5150
 0.5180	 7.6360
 0.5190	 7.7630
 0.5200	 7.8960
 0.5210	 8.0330
 0.5220	 8.1700
 0.5230	 8.3070
 0.5240	 8.4450
 0.5250	 8.5820
 0.5260	 8.7160
 0.5270	 8.8440
 0.5280	 8.9640
 0.5290	 9.0750
 0.5300	 9.1800
 0.5310	 9.2780
 0.5320	 9.3670
 0.5330	 9.4490
 0.5340	 9.5210
 0.5350	 9.5830
 0.5360	 9.6390
 0.5370	 9.6880
 0.5380	 9.7290
 0.5390	 9.7620
 0.5400	 9.7910
 0.5410	 9.8150
 0.5420	 9.8340
 0.5430	 9.8550
 0.5440	 9.8790
 0.5450	 9.9050
 0.5460	 9.9310
 0.5470	 9.9560
 0.5480	 9.9800
 0.5490	10.0010
 0.5500	10.0180
 0.5510	10.0270
 0.5520	10.0280
 0.5530	10.0230
 0.5540	10.0080
 0.5550	 9.9830
 0.5560	 9.9480
 0.5570	 9.9040
 0.5580	 9.8470
 0.5590	 9.7830
 0.5600	 9.7150
 0.5610	 9.6410
 0.5620	 9.5630
 0.5630	 9.4790
 0.5640	 9.3890
 0.5650	 9.3000
 0.5660	 9.2120
 0.5670	 9.1240
 0.5680	 9.0290
 0.5690	 8.9340
 0.5700	 8.8410
 0.5710	 8.7510
 0.5720	 8.6630
 0.5730	 8.5800
 0.5740	 8.5010
 0.5750	 8.4240
 0.5760	 8.3500
 0.5770	 8.2810
 0.5780	 8.2160
 0.5790	 8.1630
 0.5800	 8.1150
 0.5810	 8.0700
 0.5820	 8.0260
 0.5830	 7.9840
 0.5840	 7.9430
 0.5850	 7.9050
 0.5860	 7.8660
 0.5870	 7.8330
 0.5880	 7.8060
 0.5890	 7.7870
 0.5900	 7.7700
 0.5910	 7.7530
 0.5920	 7.7350
 0.5930	 7.7160
 0.5940	 7.7020
 0.5950	 7.6930
 0.5960	 7.6870
 0.5970	 7.6800
 0.5980	 7.6690
 0.5990	 7.6560
 0.6000	 7.6430
 0.6010	 7.6290
 0.6020	 7.6100
 0.6030	 7.5870
 0.6040	 7.5630
 0.6050	 7.5370
 0.6060	 7.5070
 0.6070	 7.4740
 0.6080	 7.4400
 0.6090	 7.4020
 0.6100	 7.3590
 0.6110	 7.3100
 0.6120	 7.2760
 0.6130	 7.2480
 0.6140	 7.2220
 0.6150	 7.1940
 0.6160	 7.1660
 0.6170	 7.1400
 0.6180	 7.1170
 0.6190	 7.0940
 0.6200	 7.0740
 0.6210	 7.0550
 0.6220	 7.0410
 0.6230	 7.0280
 0.6240	 7.0160
 0.6250	 7.0050
 0.6260	 7.0000
 0.6270	 6.9960
 0.6280	 6.9910
 0.6290	 6.9880
 0.6300	 6.9840
 0.6310	 6.9770
 0.6320	 6.9710
 0.6330	 6.9700
 0.6340	 6.9650
 0.6350	 6.9550
 0.6360	 6.9420
 0.6370	 6.9250
 0.6380	 6.9050
 0.6390	 6.8840
 0.6400	 6.8610
 0.6410	 6.8390
 0.6420	 6.8140
 0.6430	 6.7890
 0.6440	 6.7660
 0.6450	 6.7430
 0.6460	 6.7220
 0.6470	 6.7050
 0.6480	 6.6860
 0.6490	 6.6710
 0.6500	 6.6600
 0.6510	 6.6500
 0.6520	 6.6390
 0.6530	 6.6320
 0.6540	 6.6300
 0.6550	 6.6230
 0.6560	 6.6140
 0.6570	 6.6050
 0.6580	 6.5960
 0.6590	 6.5870
 0.6600	 6.5780
 0.6610	 6.5690
 0.6620	 6.5610
 0.6630	 6.5550
 0.6640	 6.5530
 0.6650	 6.5530
 0.6660	 6.5550
 0.6670	 6.5590
 0.6680	 6.5670
 0.6690	 6.5780
 0.6700	 6.5910
 0.6710	 6.6080
 0.6720	 6.6290
 0.6730	 6.6510
 0.6740	 6.6760
 0.6750	 6.7040
 0.6760	 6.7350
 0.6770	 6.7690
 0.6780	 6.8070
 0.6790	 6.8480
 0.6800	 6.8880
 0.6810	 6.9320
 0.6820	 6.9790
 0.6830	 7.0270
 0.6840	 7.0730
 0.6850	 7.1180
 0.6860	 7.1640
 0.6870	 7.2120
 0.6880	 7.2620
 0.6890	 7.3210
 0.6900	 7.3970
 0.6910	 7.4930
 0.6920	 7.6160
 0.6930	 7.7730
 0.6940	 7.9710
 0.6950	 8.2170
 0.6960	 8.5140
 0.6970	 8.8630
 0.6980	 9.2640
 0.6990	 9.7240
 0.7000	10.2320
 0.7010	10.7840
 0.7020	11.3790
 0.7030	12.0130
 0.7040	12.6790
 0.7050	13.3730
 0.7060	14.0890
 0.7070	14.8280
 0.7080	15.5850
 0.7090	16.3600
 0.7100	17.1540
 0.7110	17.9640
 0.7120	18.7900
 0.7130	19.6290
 0.7140	20.4830
 0.7150	21.3500
 0.7160	22.2270
 0.7170	23.1150
 0.7180	24.0090
 0.7190	24.9050
 0.7200	25.8030
 0.7210	26.6990
 0.7220	27.5930
 0.7230	28.4800
 0.7240	29.3540
 0.7250	30.2180
 0.7260	31.0650
 0.7270	31.8910
 0.7280	32.6940
 0.7290	33.4740
 0.7300	34.2320
 0.7310	34.9640
 0.7320	35.6670
 0.7330	36.3410
 0.7340	36.9840
 0.7350	37.5930
 0.7360	38.1740
 0.7370	38.7260
 0.7380	39.2490
 0.7390	39.7420
 0.7400	40.2060
 0.7410	40.6410
 0.7420	41.0460
 0.7430	41.4230
 0.7440	41.7720
 0.7450	42.0950
 0.7460	42.3940
 0.7470	42.6690
 0.7480	42.9180
 0.7490	43.1430
 0.7500	43.3540
 0.7510	43.5450
 0.7520	43.7160
 0.7530	43.8710
 0.7540	44.0110
 0.7550	44.1380
 0.7560	44.2530
 0.7570	44.3570
 0.7580	44.4500
 0.7590	44.5360
 0.7600	44.6150
 0.7610	44.6840
 0.7620	44.7460
 0.7630	44.8030
 0.7640	44.8510
 0.7650	44.8950
 0.7660	44.9330
 0.7670	44.9660
 0.7680	44.9950
 0.7690	45.0210
 0.7700	45.0450
 0.7710	45.0680
 0.7720	45.0890
 0.7730	45.1080
 0.7740	45.1260
 0.7750	45.1430
 0.7760	45.1570
 0.7770	45.1710
 0.7780	45.1850
 0.7790	45.1980
 0.7800	45.2110
 0.7810	45.2260
 0.7820	45.2400
 0.7830	45.2500
 0.7840	45.2600
 0.7850	45.2710
 0.7860	45.2810
 0.7870	45.2890
 0.7880	45.2980
 0.7890	45.3070
 0.7900	45.3140
 0.7910	45.3220
 0.7920	45.3310
 0.7930	45.3390
 0.7940	45.3440
 0.7950	45.3480
 0.7960	45.3520
 0.7970	45.3580
 0.7980	45.3590
 0.7990	45.3620
 0.8000	45.3650
 0.8010	45.3670
 0.8020	45.3690
 0.8030	45.3700
 0.8040	45.3700
 0.8050	45.3720
 0.8060	45.3730
 0.8070	45.3720
 0.8080	45.3700
 0.8090	45.3670
 0.8100	45.3640
 0.8110	45.3630
 0.8120	45.3630
 0.8130	45.3600
 0.8140	45.3550
 0.8150	45.3500
 0.8160	45.3440
 0.8170	45.3410
 0.8180	45.3400
 0.8190	45.3370
 0.8200	45.3330
 0.8210	45.3290
 0.8220	45.3230
 0.8230	45.3160
 0.8240	45.3120
 0.8250	45.3070
 0.8260	45.3010
 0.8270	45.2950
 0.8280	45.2920
 0.8290	45.2890
 0.8300	45.2850
 0.8310	45.2820
 0.8320	45.2790
 0.8330	45.2780
 0.8340	45.2760
 0.8350	45.2710
 0.8360	45.2690
 0.8370	45.2680
 0.8380	45.2680
 0.8390	45.2700
 0.8400	45.2690
 0.8410	45.2700
 0.8420	45.2730
 0.8430	45.2710
 0.8440	45.2710
 0.8450	45.2720
 0.8460	45.2740
 0.8470	45.2790
 0.8480	45.2810
 0.8490	45.2830
 0.8500	45.2880
 0.8510	45.2900
 0.8520	45.2930
 0.8530	45.2980
 0.8540	45.3060
 0.8550	45.3100
 0.8560	45.3120
 0.8570	45.3150
 0.8580	45.3230
 0.8590	45.3310
 0.8600	45.3380
 0.8610	45.3460
 0.8620	45.3550
 0.8630	45.3630
 0.8640	45.3730
 0.8650	45.3830
 0.8660	45.3890
 0.8670	45.3960
 0.8680	45.4040
 0.8690	45.4140
 0.8700	45.4250
 0.8710	45.4370
 0.8720	45.4470
 0.8730	45.4550
 0.8740	45.4660
 0.8750	45.4790
 0.8760	45.4910
 0.8770	45.4960
 0.8780	45.5030
 0.8790	45.5120
 0.8800	45.5230
 0.8810	45.5350
 0.8820	45.5470
 0.8830	45.5590
 0.8840	45.5700
 0.8850	45.5780
 0.8860	45.5900
 0.8870	45.6010
 0.8880	45.6090
 0.8890	45.6220
 0.8900	45.6350
 0.8910	45.6440
 0.8920	45.6500
 0.8930	45.6600
 0.8940	45.6700
 0.8950	45.6790
 0.8960	45.6860
 0.8970	45.7000
 0.8980	45.7100
 0.8990	45.7180
 0.9000	45.7330
 0.9010	45.7400
 0.9020	45.7470
 0.9030	45.7580
 0.9040	45.7700
 0.9050	45.7770
 0.9060	45.7840
 0.9070	45.7940
 0.9080	45.8050
 0.9090	45.8090
 0.9100	45.8140
 0.9110	45.8240
 0.9120	45.8300
 0.9130	45.8360
 0.9140	45.8430
 0.9150	45.8520
 0.9160	45.8610
 0.9170	45.8630
 0.9180	45.8650
 0.9190	45.8740
 0.9200	45.8820
 0.9210	45.8830
 0.9220	45.8790
 0.9230	45.8760
 0.9240	45.8810
 0.9250	45.8820
 0.9260	45.8800
 0.9270	45.8840
 0.9280	45.8810
 0.9290	45.8710
 0.9300	45.8640
 0.9310	45.8640
 0.9320	45.8630
 0.9330	45.8590
 0.9340	45.8490
 0.9350	45.8340
 0.9360	45.8270
 0.9370	45.8250
 0.9380	45.8210
 0.9390	45.8120
 0.9400	45.7930
 0.9410	45.7790
 0.9420	45.7750
 0.9430	45.7650
 0.9440	45.7530
 0.9450	45.7330
 0.9460	45.7080
 0.9470	45.6980
 0.9480	45.6830
 0.9490	45.6600
 0.9500	45.6330
 0.9510	45.6060
 0.9520	45.5750
 0.9530	45.5440
 0.9540	45.5160
 0.9550	45.4840
 0.9560	45.4600
 0.9570	45.4380
 0.9580	45.4080
 0.9590	45.3780
 0.9600	45.3510
 0.9610	45.3290
 0.9620	45.3090
 0.9630	45.2850
 0.9640	45.2730
 0.9650	45.2640
 0.9660	45.2470
 0.9670	45.2420
 0.9680	45.2290
 0.9690	45.2170
 0.9700	45.2160
 0.9710	45.2050
 0.9720	45.1970
 0.9730	45.1910
 0.9740	45.1830
 0.9750	45.1860
 0.9760	45.1840
 0.9770	45.1830
 0.9780	45.1890
 0.9790	45.1780
 0.9800	45.1720
 0.9810	45.1770
 0.9820	45.1880
 0.9830	45.1920
 0.9840	45.1910
 0.9850	45.1880
 0.9860	45.1910
 0.9870	45.1980
 0.9880	45.2110
 0.9890	45.2210
 0.9900	45.2210
 0.9910	45.2290
 0.9920	45.2380
 0.9930	45.2510
 0.9940	45.2720
 0.9950	45.2930
 0.9960	45.3050
 0.9970	45.3060
 0.9980	45.3020
 0.9990	45.3160
 1.0000	45.3280
 1.0010	47.3790
 1.0020	47.3860
 1.0030	47.3920
 1.0040	47.4010
 1.0050	47.4110
 1.0060	47.4220
 1.0070	47.4350
 1.0080	47.4470
 1.0090	47.4610
 1.0100	47.4720
 1.0110	47.4820
 1.0120	47.4910
 1.0130	47.4960
 1.0140	47.5040
 1.0150	47.5120
 1.0160	47.5190
 1.0170	47.5300
 1.0180	47.5420
 1.0190	47.5560
 1.0200	47.5690
 1.0210	47.5730
 1.0220	47.5790
 1.0230	47.5880
 1.0240	47.5970
 1.0250	47.6070
 1.0260	47.6200
 1.0270	47.6320
 1.0280	47.6420
 1.0290	47.6530
 1.0300	47.6650
 1.0310	47.6770
 1.0320	47.6890
 1.0330	47.6990
 1.0340	47.7110
 1.0350	47.7250
 1.0360	47.7360
 1.0370	47.7430
 1.0380	47.7520
 1.0390	47.7620
 1.0400	47.7720
 1.0410	47.7850
 1.0420	47.7960
 1.0430	47.8070
 1.0440	47.8160
 1.0450	47.8240
 1.0460	47.8300
 1.0470	47.8330
 1.0480	47.8390
 1.0490	47.8470
 1.0500	47.8530
 1.0510	47.8610
 1.0520	47.8690
 1.0530	47.8730
 1.0540	47.8750
 1.0550	47.8770
 1.0560	47.8770
 1.0570	47.8790
 1.0580	47.8810
 1.0590	47.8840
 1.0600	47.8880
 1.0610	47.8910
 1.0620	47.8960
 1.0630	47.8970
 1.0640	47.8970
 1.0650	47.8960
 1.0660	47.8910
 1.0670	47.8890
 1.0680	47.8870
 1.0690	47.8870
 1.0700	47.8860
 1.0710	47.8860
 1.0720	47.8850
 1.0730	47.8840
 1.0740	47.8810
 1.0750	47.8740
 1.0760	47.8700
 1.0770	47.8650
 1.0780	47.8620
 1.0790	47.8620
 1.0800	47.8590
 1.0810	47.8530
 1.0820	47.8480
 1.0830	47.8430
 1.0840	47.8380
 1.0850	47.8320
 1.0860	47.8290
 1.0870	47.8240
 1.0880	47.8170
 1.0890	47.8120
 1.0900	47.8060
 1.0910	47.8000
 1.0920	47.7970
 1.0930	47.7910
 1.0940	47.7840
 1.0950	47.7780
 1.0960	47.7690
 1.0970	47.7640
 1.0980	47.7620
 1.0990	47.7570
 1.1000	47.7500
 1.1010	47.7450
 1.1020	47.7400
 1.1030	47.7350
 1.1040	47.7300
 1.1050	47.7250
 1.1060	47.7180
 1.1070	47.7070
 1.1080	47.7010
 1.1090	47.6980
 1.1100	47.6930
 1.1110	47.6900
 1.1120	47.6840
 1.1130	47.6760
 1.1140	47.6690
 1.1150	47.6620
 1.1160	47.6530
 1.1170	47.6430
 1.1180	47.6330
 1.1190	47.6230
 1.1200	47.6100
 1.1210	47.5980
 1.1220	47.5850
 1.1230	47.5680
 1.1240	47.5500
 1.1250	47.5280
 1.1260	47.5050
 1.1270	47.4770
 1.1280	47.4460
 1.1290	47.4110
 1.1300	47.3720
 1.1310	47.3300
 1.1320	47.2860
 1.1330	47.2370
 1.1340	47.1860
 1.1350	47.1300
 1.1360	47.0700
 1.1370	47.0050
 1.1380	46.9350
 1.1390	46.8610
 1.1400	46.7850
 1.1410	46.7070
 1.1420	46.6260
 1.1430	46.5440
 1.1440	46.4620
 1.1450	46.3790
 1.1460	46.2980
 1.1470	46.2180
 1.1480	46.1400
 1.1490	46.0630
 1.1500	45.9910
 1.1510	45.9190
 1.1520	45.8530
 1.1530	45.7890
 1.1540	45.7310
 1.1550	45.6790
 1.1560	45.6280
 1.1570	45.5810
 1.1580	45.5370
 1.1590	45.4940
 1.1600	45.4570
 1.1610	45.4250
 1.1620	45.3950
 1.1630	45.3690
 1.1640	45.3460
 1.1650	45.3230
 1.1660	45.3030
 1.1670	45.2850
 1.1680	45.2690
 1.1690	45.2530
 1.1700	45.2410
 1.1710	45.2270
 1.1720	45.2130
 1.1730	45.1990
 1.1740	45.1850
 1.1750	45.1720
 1.1760	45.1580
 1.1770	45.1450
 1.1780	45.1310
 1.1790	45.1160
 1.1800	45.1010
 1.1810	45.0860
 1.1820	45.0710
 1.1830	45.0570
 1.1840	45.0410
 1.1850	45.0250
 1.1860	45.0110
 1.1870	44.9970
 1.1880	44.9840
 1.1890	44.9720
 1.1900	44.9610
 1.1910	44.9510
 1.1920	44.9420
 1.1930	44.9370
 1.1940	44.9300
 1.1950	44.9230
 1.1960	44.9160
 1.1970	44.9090
 1.1980	44.9040
 1.1990	44.9010
 1.2000	44.9010
 1.2010	44.9020
 1.2020	44.9040
 1.2030	44.9080
 1.2040	44.9130
 1.2050	44.9160
 1.2060	44.9200
 1.2070	44.9250
 1.2080	44.9280
 1.2090	44.9370
 1.2100	44.9470
 1.2110	44.9570
 1.2120	44.9700
 1.2130	44.9850
 1.2140	45.0020
 1.2150	45.0200
 1.2160	45.0400
 1.2170	45.0580
 1.2180	45.0750
 1.2190	45.0920
 1.2200	45.1100
 1.2210	45.1310
 1.2220	45.1530
 1.2230	45.1760
 1.2240	45.2020
 1.2250	45.2240
 1.2260	45.2460
 1.2270	45.2670
 1.2280	45.2860
 1.2290	45.3040
 1.2300	45.3210
 1.2310	45.3360
 1.2320	45.3520
 1.2330	45.3680
 1.2340	45.3840
 1.2350	45.3990
 1.2360	45.4140
 1.2370	45.4280
 1.2380	45.4420
 1.2390	45.4540
 1.2400	45.4650
 1.2410	45.4760
 1.2420	45.4850
 1.2430	45.4950
 1.2440	45.5050
 1.2450	45.5140
 1.2460	45.5220
 1.2470	45.5300
 1.2480	45.5390
 1.2490	45.5480
 1.2500	45.5580
 1.2510	45.5660
 1.2520	45.5720
 1.2530	45.5760
 1.2540	45.5820
 1.2550	45.5860
 1.2560	45.5890
 1.2570	45.5940
 1.2580	45.5970
 1.2590	45.5990
 1.2600	45.6010
 1.2610	45.6020
 1.2620	45.6000
 1.2630	45.5990
 1.2640	45.5980
 1.2650	45.5960
 1.2660	45.5930
 1.2670	45.5910
 1.2680	45.5910
 1.2690	45.5890
 1.2700	45.5880
 1.2710	45.5870
 1.2720	45.5830
 1.2730	45.5780
 1.2740	45.5710
 1.2750	45.5640
 1.2760	45.5570
 1.2770	45.5480
 1.2780	45.5400
 1.2790	45.5330
 1.2800	45.5250
 1.2810	45.5150
 1.2820	45.5030
 1.2830	45.4910
 1.2840	45.4750
 1.2850	45.4590
 1.2860	45.4410
 1.2870	45.4210
 1.2880	45.3980
 1.2890	45.3760
 1.2900	45.3500
 1.2910	45.3220
 1.2920	45.2950
 1.2930	45.2630
 1.2940	45.2290
 1.2950	45.1950
 1.2960	45.1570
 1.2970	45.1180
 1.2980	45.0800
 1.2990	45.0390
 1.3000	44.9960
 1.3010	44.9510
 1.3020	44.9050
 1.3030	44.8580
 1.3040	44.8100
 1.3050	44.7610
 1.3060	44.7110
 1.3070	44.6570
 1.3080	44.6040
 1.3090	44.5520
 1.3100	44.5000
 1.3110	44.4450
 1.3120	44.3890
 1.3130	44.3310
 1.3140	44.2720
 1.3150	44.2110
 1.3160	44.1490
 1.3170	44.0860
 1.3180	44.0210
 1.3190	43.9540
 1.3200	43.8850
 1.3210	43.8170
 1.3220	43.7480
 1.3230	43.6770
 1.3240	43.6070
 1.3250	43.5340
 1.3260	43.4590
 1.3270	43.3820
 1.3280	43.3020
 1.3290	43.2200
 1.3300	43.1370
 1.3310	43.0540
 1.3320	42.9700
 1.3330	42.8850
 1.3340	42.8000
 1.3350	42.7170
 1.3360	42.6310
 1.3370	42.5440
 1.3380	42.4560
 1.3390	42.3670
 1.3400	42.2780
 1.3410	42.1900
 1.3420	42.1030
 1.3430	42.0160
 1.3440	41.9290
 1.3450	41.8440
 1.3460	41.7610
 1.3470	41.6780
 1.3480	41.5960
 1.3490	41.5150
 1.3500	41.4340
 1.3510	41.3520
 1.3520	41.2710
 1.3530	41.1920
 1.3540	41.1100
 1.3550	41.0270
 1.3560	40.9440
 1.3570	40.8610
 1.3580	40.7790
 1.3590	40.6930
 1.3600	40.6050
 1.3610	40.5130
 1.3620	40.4150
 1.3630	40.3160
 1.3640	40.2100
 1.3650	40.0980
 1.3660	39.9820
 1.3670	39.8590
 1.3680	39.7250
 1.3690	39.5840
 1.3700	39.4320
 1.3710	39.2690
 1.3720	39.0950
 1.3730	38.9060
 1.3740	38.7060
 1.3750	38.4900
 1.3760	38.2550
 1.3770	38.0040
 1.3780	37.7310
 1.3790	37.4380
 1.3800	37.1250
 1.3810	36.7880
 1.3820	36.4320
 1.3830	36.0580
 1.3840	35.6620
 1.3850	35.2460
 1.3860	34.8110
 1.3870	34.3520
 1.3880	33.8820
 1.3890	33.3960
 1.3900	32.8960
 1.3910	32.3890
 1.3920	31.8730
 1.3930	31.3470
 1.3940	30.8190
 1.3950	30.2820
 1.3960	29.7480
 1.3970	29.2190
 1.3980	28.6940
 1.3990	28.1830
 1.4000	27.6800
 1.4010	27.1870
 1.4020	26.7090
 1.4030	26.2410
 1.4040	25.7890
 1.4050	25.3570
 1.4060	24.9410
 1.4070	24.5480
 1.4080	24.1740
 1.4090	23.8180
 1.4100	23.4840
 1.4110	23.1660
 1.4120	22.8680
 1.4130	22.5890
 1.4140	22.3280
 1.4150	22.0880
 1.4160	21.8640
 1.4170	21.6550
 1.4180	21.4640
 1.4190	21.2850
 1.4200	21.1180
 1.4210	20.9650
 1.4220	20.8230
 1.4230	20.6930
 1.4240	20.5750
 1.4250	20.4660
 1.4260	20.3680
 1.4270	20.2770
 1.4280	20.1980
 1.4290	20.1230
 1.4300	20.0550
 1.4310	19.9950
 1.4320	19.9410
 1.4330	19.8930
 1.4340	19.8540
 1.4350	19.8180
 1.4360	19.7870
 1.4370	19.7590
 1.4380	19.7370
 1.4390	19.7180
 1.4400	19.7040
 1.4410	19.6940
 1.4420	19.6870
 1.4430	19.6840
 1.4440	19.6820
 1.4450	19.6840
 1.4460	19.6870
 1.4470	19.6930
 1.4480	19.7010
 1.4490	19.7110
 1.4500	19.7230
 1.4510	19.7370
 1.4520	19.7520
 1.4530	19.7680
 1.4540	19.7850
 1.4550	19.8060
 1.4560	19.8280
 1.4570	19.8540
 1.4580	19.8840
 1.4590	19.9160
 1.4600	19.9550
 1.4610	19.9970
 1.4620	20.0430
 1.4630	20.0940
 1.4640	20.1490
 1.4650	20.2080
 1.4660	20.2730
 1.4670	20.3440
 1.4680	20.4200
 1.4690	20.5010
 1.4700	20.5870
 1.4710	20.6760
 1.4720	20.7700
 1.4730	20.8680
 1.4740	20.9690
 1.4750	21.0750
 1.4760	21.1840
 1.4770	21.2950
 1.4780	21.4080
