Name: Prunus serotina
Type: Vegetation
Class: Tree
Genus: Prunus
Species: serotina
Sample No.: PRSE-2-65
Owner: UCSB
Wavelength Range: VSWIR
Origin: USA; Massachusetts; Harvard Forest
Collection Date: 7/8/2013
Description: Samples were collected as part of NSF Macrosystem Biology proposal titled: Collaborative Research: Thermal controls on ecosystem metabolism and function: scaling from leaves to canopies to regions. Samples were collected and overnighted to JPL facilities for processing. The same leaves were processed in the Nicolet and then measured using the ASD.
Measurement: Bidirectional reflectance
First Column: X
Second Column: Y
X Units: Wavelength (micrometers)
Y Units: Reflectance (percentage)
First X Value: 0.35
Last X Value: 2.5
Number of X Values: 2151
Additional Information: vegetation.tree.prunus.serotina.vswir.prse-2-65.ucsb.asd.ancillary.txt

 0.3500	 5.6000
 0.3510	 5.4750
 0.3520	 5.6290
 0.3530	 5.7350
 0.3540	 5.5330
 0.3550	 5.4340
 0.3560	 5.2740
 0.3570	 5.1570
 0.3580	 5.2790
 0.3590	 5.3480
 0.3600	 5.3550
 0.3610	 5.3390
 0.3620	 5.3600
 0.3630	 5.3130
 0.3640	 5.3250
 0.3650	 5.4850
 0.3660	 5.5310
 0.3670	 5.4390
 0.3680	 5.3060
 0.3690	 5.2960
 0.3700	 5.3060
 0.3710	 5.3630
 0.3720	 5.4420
 0.3730	 5.3860
 0.3740	 5.4150
 0.3750	 5.4170
 0.3760	 5.2730
 0.3770	 5.3690
 0.3780	 5.4000
 0.3790	 5.3270
 0.3800	 5.3450
 0.3810	 5.3170
 0.3820	 5.2880
 0.3830	 5.2870
 0.3840	 5.2220
 0.3850	 5.3570
 0.3860	 5.4790
 0.3870	 5.3120
 0.3880	 5.2990
 0.3890	 5.2990
 0.3900	 5.2600
 0.3910	 5.2630
 0.3920	 5.3090
 0.3930	 5.3540
 0.3940	 5.3680
 0.3950	 5.3860
 0.3960	 5.3610
 0.3970	 5.3390
 0.3980	 5.3850
 0.3990	 5.3440
 0.4000	 5.3150
 0.4010	 5.3350
 0.4020	 5.3220
 0.4030	 5.3910
 0.4040	 5.4330
 0.4050	 5.3630
 0.4060	 5.3600
 0.4070	 5.3850
 0.4080	 5.4230
 0.4090	 5.4680
 0.4100	 5.4200
 0.4110	 5.3770
 0.4120	 5.3960
 0.4130	 5.4060
 0.4140	 5.4580
 0.4150	 5.5020
 0.4160	 5.4810
 0.4170	 5.4830
 0.4180	 5.4780
 0.4190	 5.4690
 0.4200	 5.4920
 0.4210	 5.5220
 0.4220	 5.5290
 0.4230	 5.5100
 0.4240	 5.5310
 0.4250	 5.5490
 0.4260	 5.5490
 0.4270	 5.5350
 0.4280	 5.5390
 0.4290	 5.5550
 0.4300	 5.5700
 0.4310	 5.5660
 0.4320	 5.5810
 0.4330	 5.6010
 0.4340	 5.6040
 0.4350	 5.6110
 0.4360	 5.6150
 0.4370	 5.6120
 0.4380	 5.6040
 0.4390	 5.5900
 0.4400	 5.5860
 0.4410	 5.5940
 0.4420	 5.5780
 0.4430	 5.5870
 0.4440	 5.5970
 0.4450	 5.5670
 0.4460	 5.5750
 0.4470	 5.5810
 0.4480	 5.5770
 0.4490	 5.5940
 0.4500	 5.6260
 0.4510	 5.6370
 0.4520	 5.6120
 0.4530	 5.6180
 0.4540	 5.6260
 0.4550	 5.6250
 0.4560	 5.6200
 0.4570	 5.6140
 0.4580	 5.6090
 0.4590	 5.6090
 0.4600	 5.6200
 0.4610	 5.6320
 0.4620	 5.6370
 0.4630	 5.6300
 0.4640	 5.6330
 0.4650	 5.6280
 0.4660	 5.6210
 0.4670	 5.6380
 0.4680	 5.6360
 0.4690	 5.6190
 0.4700	 5.6050
 0.4710	 5.6190
 0.4720	 5.6260
 0.4730	 5.6240
 0.4740	 5.6280
 0.4750	 5.6340
 0.4760	 5.6420
 0.4770	 5.6470
 0.4780	 5.6360
 0.4790	 5.6370
 0.4800	 5.6420
 0.4810	 5.6380
 0.4820	 5.6370
 0.4830	 5.6420
 0.4840	 5.6520
 0.4850	 5.6550
 0.4860	 5.6530
 0.4870	 5.6550
 0.4880	 5.6680
 0.4890	 5.6890
 0.4900	 5.6920
 0.4910	 5.6880
 0.4920	 5.7000
 0.4930	 5.7040
 0.4940	 5.7170
 0.4950	 5.7430
 0.4960	 5.7550
 0.4970	 5.7720
 0.4980	 5.7990
 0.4990	 5.8360
 0.5000	 5.8560
 0.5010	 5.8910
 0.5020	 5.9400
 0.5030	 5.9830
 0.5040	 6.0370
 0.5050	 6.0990
 0.5060	 6.1660
 0.5070	 6.2440
 0.5080	 6.3390
 0.5090	 6.4480
 0.5100	 6.5670
 0.5110	 6.7060
 0.5120	 6.8600
 0.5130	 7.0260
 0.5140	 7.2090
 0.5150	 7.4070
 0.5160	 7.6260
 0.5170	 7.8640
 0.5180	 8.1110
 0.5190	 8.3660
 0.5200	 8.6330
 0.5210	 8.9150
 0.5220	 9.1990
 0.5230	 9.4730
 0.5240	 9.7350
 0.5250	10.0010
 0.5260	10.2540
 0.5270	10.4900
 0.5280	10.7080
 0.5290	10.9120
 0.5300	11.0970
 0.5310	11.2620
 0.5320	11.4070
 0.5330	11.5370
 0.5340	11.6540
 0.5350	11.7620
 0.5360	11.8440
 0.5370	11.9110
 0.5380	11.9730
 0.5390	12.0360
 0.5400	12.0980
 0.5410	12.1570
 0.5420	12.2120
 0.5430	12.2550
 0.5440	12.3040
 0.5450	12.3530
 0.5460	12.3910
 0.5470	12.3940
 0.5480	12.3890
 0.5490	12.3940
 0.5500	12.4090
 0.5510	12.4160
 0.5520	12.4120
 0.5530	12.3950
 0.5540	12.3590
 0.5550	12.3140
 0.5560	12.2580
 0.5570	12.1810
 0.5580	12.0920
 0.5590	11.9900
 0.5600	11.8730
 0.5610	11.7370
 0.5620	11.5920
 0.5630	11.4390
 0.5640	11.2770
 0.5650	11.1070
 0.5660	10.9280
 0.5670	10.7440
 0.5680	10.5640
 0.5690	10.3810
 0.5700	10.1940
 0.5710	10.0070
 0.5720	 9.8410
 0.5730	 9.6840
 0.5740	 9.5330
 0.5750	 9.3880
 0.5760	 9.2630
 0.5770	 9.1450
 0.5780	 9.0260
 0.5790	 8.9180
 0.5800	 8.8140
 0.5810	 8.7140
 0.5820	 8.6260
 0.5830	 8.5440
 0.5840	 8.4670
 0.5850	 8.3970
 0.5860	 8.3370
 0.5870	 8.2750
 0.5880	 8.2130
 0.5890	 8.1560
 0.5900	 8.1010
 0.5910	 8.0510
 0.5920	 8.0090
 0.5930	 7.9720
 0.5940	 7.9430
 0.5950	 7.9120
 0.5960	 7.8790
 0.5970	 7.8500
 0.5980	 7.8230
 0.5990	 7.8000
 0.6000	 7.7760
 0.6010	 7.7400
 0.6020	 7.6990
 0.6030	 7.6590
 0.6040	 7.6170
 0.6050	 7.5700
 0.6060	 7.5180
 0.6070	 7.4610
 0.6080	 7.4000
 0.6090	 7.3470
 0.6100	 7.2990
 0.6110	 7.2500
 0.6120	 7.1910
 0.6130	 7.1200
 0.6140	 7.0430
 0.6150	 6.9840
 0.6160	 6.9280
 0.6170	 6.8790
 0.6180	 6.8380
 0.6190	 6.7980
 0.6200	 6.7610
 0.6210	 6.7270
 0.6220	 6.6960
 0.6230	 6.6740
 0.6240	 6.6550
 0.6250	 6.6360
 0.6260	 6.6140
 0.6270	 6.6030
 0.6280	 6.6000
 0.6290	 6.5940
 0.6300	 6.5840
 0.6310	 6.5720
 0.6320	 6.5580
 0.6330	 6.5420
 0.6340	 6.5230
 0.6350	 6.4960
 0.6360	 6.4580
 0.6370	 6.4190
 0.6380	 6.3750
 0.6390	 6.3260
 0.6400	 6.2750
 0.6410	 6.2190
 0.6420	 6.1650
 0.6430	 6.1170
 0.6440	 6.0660
 0.6450	 6.0190
 0.6460	 5.9770
 0.6470	 5.9430
 0.6480	 5.9090
 0.6490	 5.8750
 0.6500	 5.8470
 0.6510	 5.8310
 0.6520	 5.8180
 0.6530	 5.8030
 0.6540	 5.7870
 0.6550	 5.7790
 0.6560	 5.7650
 0.6570	 5.7480
 0.6580	 5.7360
 0.6590	 5.7210
 0.6600	 5.7090
 0.6610	 5.6970
 0.6620	 5.6760
 0.6630	 5.6670
 0.6640	 5.6650
 0.6650	 5.6620
 0.6660	 5.6630
 0.6670	 5.6670
 0.6680	 5.6740
 0.6690	 5.6880
 0.6700	 5.6990
 0.6710	 5.7160
 0.6720	 5.7400
 0.6730	 5.7700
 0.6740	 5.7930
 0.6750	 5.8180
 0.6760	 5.8520
 0.6770	 5.8850
 0.6780	 5.9200
 0.6790	 5.9600
 0.6800	 6.0070
 0.6810	 6.0520
 0.6820	 6.0950
 0.6830	 6.1410
 0.6840	 6.1940
 0.6850	 6.2420
 0.6860	 6.2970
 0.6870	 6.3700
 0.6880	 6.4530
 0.6890	 6.5610
 0.6900	 6.7030
 0.6910	 6.8840
 0.6920	 7.1270
 0.6930	 7.4370
 0.6940	 7.8220
 0.6950	 8.2950
 0.6960	 8.8520
 0.6970	 9.4920
 0.6980	10.2150
 0.6990	11.0100
 0.7000	11.8710
 0.7010	12.7870
 0.7020	13.7400
 0.7030	14.7180
 0.7040	15.7140
 0.7050	16.7210
 0.7060	17.7250
 0.7070	18.7240
 0.7080	19.7150
 0.7090	20.6950
 0.7100	21.6620
 0.7110	22.6190
 0.7120	23.5620
 0.7130	24.4780
 0.7140	25.3860
 0.7150	26.2780
 0.7160	27.1440
 0.7170	27.9890
 0.7180	28.8160
 0.7190	29.6220
 0.7200	30.4000
 0.7210	31.1530
 0.7220	31.8840
 0.7230	32.5910
 0.7240	33.2640
 0.7250	33.9040
 0.7260	34.5180
 0.7270	35.1090
 0.7280	35.6710
 0.7290	36.2020
 0.7300	36.7060
 0.7310	37.1910
 0.7320	37.6470
 0.7330	38.0720
 0.7340	38.4630
 0.7350	38.8170
 0.7360	39.1710
 0.7370	39.5120
 0.7380	39.8240
 0.7390	40.1110
 0.7400	40.3720
 0.7410	40.6180
 0.7420	40.8560
 0.7430	41.0520
 0.7440	41.2380
 0.7450	41.4210
 0.7460	41.5780
 0.7470	41.7070
 0.7480	41.8280
 0.7490	41.9500
 0.7500	42.0580
 0.7510	42.1480
 0.7520	42.2250
 0.7530	42.2960
 0.7540	42.3520
 0.7550	42.4040
 0.7560	42.4530
 0.7570	42.4970
 0.7580	42.5270
 0.7590	42.5570
 0.7600	42.5930
 0.7610	42.6180
 0.7620	42.6360
 0.7630	42.6500
 0.7640	42.6640
 0.7650	42.6650
 0.7660	42.6720
 0.7670	42.6850
 0.7680	42.6890
 0.7690	42.6910
 0.7700	42.6900
 0.7710	42.6890
 0.7720	42.6920
 0.7730	42.6870
 0.7740	42.6820
 0.7750	42.6820
 0.7760	42.6840
 0.7770	42.6830
 0.7780	42.6800
 0.7790	42.6770
 0.7800	42.6680
 0.7810	42.6640
 0.7820	42.6700
 0.7830	42.6840
 0.7840	42.6800
 0.7850	42.6790
 0.7860	42.6910
 0.7870	42.6800
 0.7880	42.6730
 0.7890	42.6720
 0.7900	42.6730
 0.7910	42.6640
 0.7920	42.6680
 0.7930	42.6790
 0.7940	42.6740
 0.7950	42.6680
 0.7960	42.6750
 0.7970	42.6860
 0.7980	42.6670
 0.7990	42.6490
 0.8000	42.6480
 0.8010	42.6610
 0.8020	42.6590
 0.8030	42.6500
 0.8040	42.6400
 0.8050	42.6320
 0.8060	42.6410
 0.8070	42.6350
 0.8080	42.6170
 0.8090	42.6200
 0.8100	42.6270
 0.8110	42.6210
 0.8120	42.5990
 0.8130	42.5910
 0.8140	42.5910
 0.8150	42.5910
 0.8160	42.5830
 0.8170	42.5770
 0.8180	42.5670
 0.8190	42.5550
 0.8200	42.5500
 0.8210	42.5470
 0.8220	42.5500
 0.8230	42.5500
 0.8240	42.5310
 0.8250	42.5200
 0.8260	42.5170
 0.8270	42.5140
 0.8280	42.5060
 0.8290	42.5100
 0.8300	42.5050
 0.8310	42.4800
 0.8320	42.4810
 0.8330	42.4970
 0.8340	42.5060
 0.8350	42.4880
 0.8360	42.4740
 0.8370	42.4730
 0.8380	42.4790
 0.8390	42.4740
 0.8400	42.4680
 0.8410	42.4560
 0.8420	42.4480
 0.8430	42.4720
 0.8440	42.4600
 0.8450	42.4480
 0.8460	42.4660
 0.8470	42.4670
 0.8480	42.4450
 0.8490	42.4280
 0.8500	42.4430
 0.8510	42.4610
 0.8520	42.4660
 0.8530	42.4550
 0.8540	42.4380
 0.8550	42.4520
 0.8560	42.4580
 0.8570	42.4490
 0.8580	42.4600
 0.8590	42.4660
 0.8600	42.4640
 0.8610	42.4570
 0.8620	42.4510
 0.8630	42.4480
 0.8640	42.4590
 0.8650	42.4790
 0.8660	42.4720
 0.8670	42.4680
 0.8680	42.4710
 0.8690	42.4730
 0.8700	42.4680
 0.8710	42.4560
 0.8720	42.4500
 0.8730	42.4620
 0.8740	42.4760
 0.8750	42.4780
 0.8760	42.4740
 0.8770	42.4820
 0.8780	42.4810
 0.8790	42.4730
 0.8800	42.4720
 0.8810	42.5020
 0.8820	42.5010
 0.8830	42.4930
 0.8840	42.4970
 0.8850	42.4830
 0.8860	42.4890
 0.8870	42.5030
 0.8880	42.5040
 0.8890	42.4880
 0.8900	42.4960
 0.8910	42.5140
 0.8920	42.5110
 0.8930	42.5120
 0.8940	42.5030
 0.8950	42.4960
 0.8960	42.5120
 0.8970	42.5240
 0.8980	42.5210
 0.8990	42.5120
 0.9000	42.5170
 0.9010	42.5190
 0.9020	42.5170
 0.9030	42.5130
 0.9040	42.5120
 0.9050	42.5140
 0.9060	42.5250
 0.9070	42.5430
 0.9080	42.5470
 0.9090	42.5430
 0.9100	42.5420
 0.9110	42.5430
 0.9120	42.5290
 0.9130	42.5330
 0.9140	42.5460
 0.9150	42.5480
 0.9160	42.5420
 0.9170	42.5370
 0.9180	42.5350
 0.9190	42.5340
 0.9200	42.5280
 0.9210	42.5280
 0.9220	42.5310
 0.9230	42.5270
 0.9240	42.5160
 0.9250	42.5160
 0.9260	42.5210
 0.9270	42.5060
 0.9280	42.5060
 0.9290	42.4920
 0.9300	42.4740
 0.9310	42.4870
 0.9320	42.4870
 0.9330	42.4890
 0.9340	42.4920
 0.9350	42.4700
 0.9360	42.4550
 0.9370	42.4500
 0.9380	42.4440
 0.9390	42.4120
 0.9400	42.4070
 0.9410	42.4120
 0.9420	42.3990
 0.9430	42.3590
 0.9440	42.3350
 0.9450	42.3270
 0.9460	42.3220
 0.9470	42.2950
 0.9480	42.2730
 0.9490	42.2500
 0.9500	42.2230
 0.9510	42.2150
 0.9520	42.2030
 0.9530	42.1760
 0.9540	42.1360
 0.9550	42.1100
 0.9560	42.0790
 0.9570	42.0410
 0.9580	42.0040
 0.9590	41.9870
 0.9600	41.9790
 0.9610	41.9760
 0.9620	41.9760
 0.9630	41.9770
 0.9640	41.9610
 0.9650	41.9450
 0.9660	41.9470
 0.9670	41.9180
 0.9680	41.8930
 0.9690	41.8820
 0.9700	41.8800
 0.9710	41.8630
 0.9720	41.8620
 0.9730	41.8600
 0.9740	41.8370
 0.9750	41.8690
 0.9760	41.8780
 0.9770	41.8730
 0.9780	41.8880
 0.9790	41.8580
 0.9800	41.8310
 0.9810	41.8280
 0.9820	41.8410
 0.9830	41.8370
 0.9840	41.8550
 0.9850	41.8710
 0.9860	41.8540
 0.9870	41.8730
 0.9880	41.8720
 0.9890	41.8490
 0.9900	41.8360
 0.9910	41.8630
 0.9920	41.9240
 0.9930	41.9860
 0.9940	42.0470
 0.9950	42.1090
 0.9960	42.1700
 0.9970	42.2320
 0.9980	42.2930
 0.9990	42.3550
 1.0000	42.4160
 1.0010	42.4780
 1.0020	42.5390
 1.0030	42.6010
 1.0040	42.6620
 1.0050	42.7240
 1.0060	42.7850
 1.0070	42.8470
 1.0080	42.9080
 1.0090	42.9700
 1.0100	42.9700
 1.0110	42.9760
 1.0120	42.9800
 1.0130	42.9900
 1.0140	42.9930
 1.0150	42.9880
 1.0160	42.9850
 1.0170	42.9860
 1.0180	42.9800
 1.0190	42.9760
 1.0200	42.9740
 1.0210	42.9760
 1.0220	42.9830
 1.0230	42.9880
 1.0240	42.9980
 1.0250	43.0060
 1.0260	43.0080
 1.0270	43.0100
 1.0280	43.0130
 1.0290	43.0150
 1.0300	43.0150
 1.0310	43.0180
 1.0320	43.0260
 1.0330	43.0310
 1.0340	43.0300
 1.0350	43.0310
 1.0360	43.0310
 1.0370	43.0330
 1.0380	43.0390
 1.0390	43.0520
 1.0400	43.0590
 1.0410	43.0680
 1.0420	43.0700
 1.0430	43.0650
 1.0440	43.0640
 1.0450	43.0580
 1.0460	43.0580
 1.0470	43.0640
 1.0480	43.0680
 1.0490	43.0750
 1.0500	43.0780
 1.0510	43.0750
 1.0520	43.0760
 1.0530	43.0760
 1.0540	43.0740
 1.0550	43.0750
 1.0560	43.0800
 1.0570	43.0810
 1.0580	43.0820
 1.0590	43.0820
 1.0600	43.0800
 1.0610	43.0800
 1.0620	43.0800
 1.0630	43.0790
 1.0640	43.0760
 1.0650	43.0750
 1.0660	43.0750
 1.0670	43.0740
 1.0680	43.0730
 1.0690	43.0740
 1.0700	43.0690
 1.0710	43.0580
 1.0720	43.0540
 1.0730	43.0500
 1.0740	43.0470
 1.0750	43.0520
 1.0760	43.0500
 1.0770	43.0460
 1.0780	43.0420
 1.0790	43.0350
 1.0800	43.0320
 1.0810	43.0350
 1.0820	43.0310
 1.0830	43.0240
 1.0840	43.0180
 1.0850	43.0090
 1.0860	42.9960
 1.0870	42.9890
 1.0880	42.9840
 1.0890	42.9790
 1.0900	42.9740
 1.0910	42.9710
 1.0920	42.9710
 1.0930	42.9670
 1.0940	42.9590
 1.0950	42.9540
 1.0960	42.9480
 1.0970	42.9400
 1.0980	42.9310
 1.0990	42.9240
 1.1000	42.9190
 1.1010	42.9110
 1.1020	42.9000
 1.1030	42.8980
 1.1040	42.8920
 1.1050	42.8770
 1.1060	42.8700
 1.1070	42.8660
 1.1080	42.8590
 1.1090	42.8530
 1.1100	42.8430
 1.1110	42.8270
 1.1120	42.8150
 1.1130	42.8030
 1.1140	42.7910
 1.1150	42.7810
 1.1160	42.7700
 1.1170	42.7600
 1.1180	42.7490
 1.1190	42.7390
 1.1200	42.7260
 1.1210	42.7130
 1.1220	42.6960
 1.1230	42.6770
 1.1240	42.6580
 1.1250	42.6370
 1.1260	42.6130
 1.1270	42.5890
 1.1280	42.5630
 1.1290	42.5350
 1.1300	42.5080
 1.1310	42.4750
 1.1320	42.4380
 1.1330	42.3990
 1.1340	42.3560
 1.1350	42.3120
 1.1360	42.2640
 1.1370	42.2150
 1.1380	42.1670
 1.1390	42.1130
 1.1400	42.0540
 1.1410	41.9970
 1.1420	41.9410
 1.1430	41.8820
 1.1440	41.8260
 1.1450	41.7770
 1.1460	41.7210
 1.1470	41.6580
 1.1480	41.6050
 1.1490	41.5510
 1.1500	41.5050
 1.1510	41.4680
 1.1520	41.4290
 1.1530	41.3900
 1.1540	41.3560
 1.1550	41.3240
 1.1560	41.2900
 1.1570	41.2620
 1.1580	41.2410
 1.1590	41.2210
 1.1600	41.2050
 1.1610	41.1910
 1.1620	41.1760
 1.1630	41.1650
 1.1640	41.1590
 1.1650	41.1520
 1.1660	41.1490
 1.1670	41.1470
 1.1680	41.1460
 1.1690	41.1430
 1.1700	41.1430
 1.1710	41.1410
 1.1720	41.1350
 1.1730	41.1310
 1.1740	41.1310
 1.1750	41.1260
 1.1760	41.1240
 1.1770	41.1240
 1.1780	41.1200
 1.1790	41.1190
 1.1800	41.1160
 1.1810	41.1070
 1.1820	41.1060
 1.1830	41.1030
 1.1840	41.0960
 1.1850	41.0940
 1.1860	41.0890
 1.1870	41.0850
 1.1880	41.0830
 1.1890	41.0850
 1.1900	41.0830
 1.1910	41.0780
 1.1920	41.0770
 1.1930	41.0760
 1.1940	41.0760
 1.1950	41.0820
 1.1960	41.0830
 1.1970	41.0810
 1.1980	41.0820
 1.1990	41.0820
 1.2000	41.0850
 1.2010	41.0920
 1.2020	41.0960
 1.2030	41.0970
 1.2040	41.1010
 1.2050	41.1030
 1.2060	41.1070
 1.2070	41.1140
 1.2080	41.1220
 1.2090	41.1310
 1.2100	41.1420
 1.2110	41.1510
 1.2120	41.1590
 1.2130	41.1670
 1.2140	41.1760
 1.2150	41.1830
 1.2160	41.1910
 1.2170	41.1990
 1.2180	41.2000
 1.2190	41.2030
 1.2200	41.2110
 1.2210	41.2170
 1.2220	41.2260
 1.2230	41.2370
 1.2240	41.2450
 1.2250	41.2520
 1.2260	41.2580
 1.2270	41.2650
 1.2280	41.2690
 1.2290	41.2750
 1.2300	41.2830
 1.2310	41.2900
 1.2320	41.3020
 1.2330	41.3110
 1.2340	41.3170
 1.2350	41.3240
 1.2360	41.3300
 1.2370	41.3320
 1.2380	41.3380
 1.2390	41.3440
 1.2400	41.3480
 1.2410	41.3540
 1.2420	41.3580
 1.2430	41.3600
 1.2440	41.3650
 1.2450	41.3650
 1.2460	41.3650
 1.2470	41.3680
 1.2480	41.3710
 1.2490	41.3770
 1.2500	41.3770
 1.2510	41.3840
 1.2520	41.3920
 1.2530	41.3930
 1.2540	41.3980
 1.2550	41.4000
 1.2560	41.4000
 1.2570	41.4010
 1.2580	41.4000
 1.2590	41.4000
 1.2600	41.4020
 1.2610	41.4010
 1.2620	41.4000
 1.2630	41.4010
 1.2640	41.3970
 1.2650	41.3910
 1.2660	41.3860
 1.2670	41.3860
 1.2680	41.3840
 1.2690	41.3810
 1.2700	41.3800
 1.2710	41.3770
 1.2720	41.3720
 1.2730	41.3720
 1.2740	41.3690
 1.2750	41.3610
 1.2760	41.3590
 1.2770	41.3550
 1.2780	41.3460
 1.2790	41.3410
 1.2800	41.3350
 1.2810	41.3250
 1.2820	41.3180
 1.2830	41.3110
 1.2840	41.3020
 1.2850	41.2940
 1.2860	41.2810
 1.2870	41.2700
 1.2880	41.2580
 1.2890	41.2490
 1.2900	41.2360
 1.2910	41.2260
 1.2920	41.2130
 1.2930	41.1930
 1.2940	41.1720
 1.2950	41.1510
 1.2960	41.1270
 1.2970	41.1020
 1.2980	41.0780
 1.2990	41.0550
 1.3000	41.0310
 1.3010	41.0070
 1.3020	40.9780
 1.3030	40.9460
 1.3040	40.9140
 1.3050	40.8810
 1.3060	40.8510
 1.3070	40.8250
 1.3080	40.7940
 1.3090	40.7590
 1.3100	40.7160
 1.3110	40.6660
 1.3120	40.6200
 1.3130	40.5750
 1.3140	40.5320
 1.3150	40.4960
 1.3160	40.4530
 1.3170	40.4070
 1.3180	40.3580
 1.3190	40.3080
 1.3200	40.2530
 1.3210	40.1970
 1.3220	40.1420
 1.3230	40.0830
 1.3240	40.0190
 1.3250	39.9570
 1.3260	39.8970
 1.3270	39.8360
 1.3280	39.7750
 1.3290	39.7160
 1.3300	39.6560
 1.3310	39.5960
 1.3320	39.5350
 1.3330	39.4720
 1.3340	39.4040
 1.3350	39.3310
 1.3360	39.2600
 1.3370	39.1910
 1.3380	39.1180
 1.3390	39.0480
 1.3400	38.9780
 1.3410	38.9050
 1.3420	38.8330
 1.3430	38.7620
 1.3440	38.6910
 1.3450	38.6190
 1.3460	38.5470
 1.3470	38.4750
 1.3480	38.4020
 1.3490	38.3300
 1.3500	38.2570
 1.3510	38.1860
 1.3520	38.1110
 1.3530	38.0350
 1.3540	37.9600
 1.3550	37.8810
 1.3560	37.8050
 1.3570	37.7310
 1.3580	37.6540
 1.3590	37.5810
 1.3600	37.5050
 1.3610	37.4250
 1.3620	37.3430
 1.3630	37.2580
 1.3640	37.1710
 1.3650	37.0810
 1.3660	36.9850
 1.3670	36.8830
 1.3680	36.7720
 1.3690	36.6540
 1.3700	36.5300
 1.3710	36.3970
 1.3720	36.2540
 1.3730	36.0980
 1.3740	35.9310
 1.3750	35.7500
 1.3760	35.5550
 1.3770	35.3450
 1.3780	35.1130
 1.3790	34.8680
 1.3800	34.6080
 1.3810	34.3240
 1.3820	34.0270
 1.3830	33.7160
 1.3840	33.3900
 1.3850	33.0490
 1.3860	32.6930
 1.3870	32.3220
 1.3880	31.9410
 1.3890	31.5440
 1.3900	31.1380
 1.3910	30.7270
 1.3920	30.3020
 1.3930	29.8670
 1.3940	29.4320
 1.3950	28.9900
 1.3960	28.5520
 1.3970	28.1180
 1.3980	27.6890
 1.3990	27.2720
 1.4000	26.8610
 1.4010	26.4610
 1.4020	26.0730
 1.4030	25.6930
 1.4040	25.3330
 1.4050	24.9920
 1.4060	24.6620
 1.4070	24.3550
 1.4080	24.0620
 1.4090	23.7820
 1.4100	23.5240
 1.4110	23.2830
 1.4120	23.0590
 1.4130	22.8530
 1.4140	22.6650
 1.4150	22.4920
 1.4160	22.3320
 1.4170	22.1840
 1.4180	22.0510
 1.4190	21.9300
 1.4200	21.8230
 1.4210	21.7280
 1.4220	21.6410
 1.4230	21.5660
 1.4240	21.5000
 1.4250	21.4390
 1.4260	21.3860
 1.4270	21.3410
 1.4280	21.3010
 1.4290	21.2690
 1.4300	21.2490
 1.4310	21.2310
 1.4320	21.2190
 1.4330	21.2090
 1.4340	21.2020
 1.4350	21.2010
 1.4360	21.2050
 1.4370	21.2110
 1.4380	21.2250
 1.4390	21.2390
 1.4400	21.2550
 1.4410	21.2750
 1.4420	21.2950
 1.4430	21.3180
 1.4440	21.3430
 1.4450	21.3660
 1.4460	21.3940
 1.4470	21.4240
 1.4480	21.4520
 1.4490	21.4810
 1.4500	21.5090
 1.4510	21.5360
 1.4520	21.5660
 1.4530	21.6000
 1.4540	21.6330
 1.4550	21.6700
 1.4560	21.7100
 1.4570	21.7530
 1.4580	21.8010
 1.4590	21.8520
 1.4600	21.9060
 1.4610	21.9640
 1.4620	22.0280
 1.4630	22.0970
 1.4640	22.1700
 1.4650	22.2470
 1.4660	22.3280
 1.4670	22.4120
 1.4680	22.5000
 1.4690	22.5920
 1.4700	22.6890
 1.4710	22.7880
 1.4720	22.8910
