Name: Acer rubrum
Type: Vegetation
Class: Tree
Genus: Acer
Species: rubrum
Sample No.: ACRU-1-15
Owner: UCSB
Wavelength Range: VSWIR
Origin: USA; Massachusetts; Harvard Forest
Collection Date: 7/8/2013
Description: Samples were collected as part of NSF Macrosystem Biology proposal titled: Collaborative Research: Thermal controls on ecosystem metabolism and function: scaling from leaves to canopies to regions. Samples were collected and overnighted to JPL facilities for processing. The same leaves were processed in the Nicolet and then measured using the ASD.
Measurement: Bidirectional reflectance
First Column: X
Second Column: Y
X Units: Wavelength (micrometers)
Y Units: Reflectance (percentage)
First X Value: 0.35
Last X Value: 2.5
Number of X Values: 2151
Additional Information: vegetation.tree.acer.rubrum.vswir.acru-1-15.ucsb.asd.ancillary.txt

 0.3500	 7.3560
 0.3510	 7.6360
 0.3520	 7.5870
 0.3530	 7.7070
 0.3540	 8.2850
 0.3550	 8.0540
 0.3560	 7.6690
 0.3570	 7.4770
 0.3580	 7.5900
 0.3590	 7.6210
 0.3600	 7.6450
 0.3610	 7.6410
 0.3620	 7.3600
 0.3630	 7.4390
 0.3640	 7.5840
 0.3650	 7.4560
 0.3660	 7.4970
 0.3670	 7.5200
 0.3680	 7.4900
 0.3690	 7.4850
 0.3700	 7.4650
 0.3710	 7.4540
 0.3720	 7.4540
 0.3730	 7.4110
 0.3740	 7.3790
 0.3750	 7.4010
 0.3760	 7.4600
 0.3770	 7.3080
 0.3780	 7.2790
 0.3790	 7.3700
 0.3800	 7.2980
 0.3810	 7.3640
 0.3820	 7.3880
 0.3830	 7.2680
 0.3840	 7.2220
 0.3850	 7.3450
 0.3860	 7.4350
 0.3870	 7.2830
 0.3880	 7.3210
 0.3890	 7.2900
 0.3900	 7.1830
 0.3910	 7.2800
 0.3920	 7.2840
 0.3930	 7.2740
 0.3940	 7.3370
 0.3950	 7.4020
 0.3960	 7.4250
 0.3970	 7.3870
 0.3980	 7.3030
 0.3990	 7.3570
 0.4000	 7.4080
 0.4010	 7.3900
 0.4020	 7.3760
 0.4030	 7.3750
 0.4040	 7.3830
 0.4050	 7.3880
 0.4060	 7.3720
 0.4070	 7.3380
 0.4080	 7.3260
 0.4090	 7.3810
 0.4100	 7.3950
 0.4110	 7.3690
 0.4120	 7.3330
 0.4130	 7.3390
 0.4140	 7.3740
 0.4150	 7.3920
 0.4160	 7.3650
 0.4170	 7.3980
 0.4180	 7.4050
 0.4190	 7.3750
 0.4200	 7.3770
 0.4210	 7.3660
 0.4220	 7.3580
 0.4230	 7.3720
 0.4240	 7.4160
 0.4250	 7.4120
 0.4260	 7.3840
 0.4270	 7.3940
 0.4280	 7.4140
 0.4290	 7.4080
 0.4300	 7.3820
 0.4310	 7.3890
 0.4320	 7.4030
 0.4330	 7.4120
 0.4340	 7.4130
 0.4350	 7.4190
 0.4360	 7.4140
 0.4370	 7.4010
 0.4380	 7.3980
 0.4390	 7.3900
 0.4400	 7.3780
 0.4410	 7.3670
 0.4420	 7.3610
 0.4430	 7.3770
 0.4440	 7.3920
 0.4450	 7.3770
 0.4460	 7.3730
 0.4470	 7.3660
 0.4480	 7.3580
 0.4490	 7.3690
 0.4500	 7.3870
 0.4510	 7.3940
 0.4520	 7.3850
 0.4530	 7.3940
 0.4540	 7.4000
 0.4550	 7.3970
 0.4560	 7.3890
 0.4570	 7.3880
 0.4580	 7.3930
 0.4590	 7.3980
 0.4600	 7.3960
 0.4610	 7.3930
 0.4620	 7.3940
 0.4630	 7.3980
 0.4640	 7.3920
 0.4650	 7.3830
 0.4660	 7.3790
 0.4670	 7.3850
 0.4680	 7.3810
 0.4690	 7.3750
 0.4700	 7.3780
 0.4710	 7.3840
 0.4720	 7.3660
 0.4730	 7.3470
 0.4740	 7.3700
 0.4750	 7.3690
 0.4760	 7.3690
 0.4770	 7.3800
 0.4780	 7.3740
 0.4790	 7.3640
 0.4800	 7.3570
 0.4810	 7.3570
 0.4820	 7.3650
 0.4830	 7.3730
 0.4840	 7.3740
 0.4850	 7.3660
 0.4860	 7.3680
 0.4870	 7.3750
 0.4880	 7.3820
 0.4890	 7.3940
 0.4900	 7.4010
 0.4910	 7.4040
 0.4920	 7.4070
 0.4930	 7.4140
 0.4940	 7.4160
 0.4950	 7.4190
 0.4960	 7.4460
 0.4970	 7.4680
 0.4980	 7.4820
 0.4990	 7.4960
 0.5000	 7.5190
 0.5010	 7.5420
 0.5020	 7.5640
 0.5030	 7.5930
 0.5040	 7.6250
 0.5050	 7.6580
 0.5060	 7.6910
 0.5070	 7.7380
 0.5080	 7.7870
 0.5090	 7.8430
 0.5100	 7.9150
 0.5110	 8.0050
 0.5120	 8.0970
 0.5130	 8.1940
 0.5140	 8.3260
 0.5150	 8.4490
 0.5160	 8.5760
 0.5170	 8.7290
 0.5180	 8.8850
 0.5190	 9.0670
 0.5200	 9.2690
 0.5210	 9.4680
 0.5220	 9.6720
 0.5230	 9.8780
 0.5240	10.0860
 0.5250	10.2920
 0.5260	10.4920
 0.5270	10.6850
 0.5280	10.8690
 0.5290	11.0370
 0.5300	11.1940
 0.5310	11.3390
 0.5320	11.4730
 0.5330	11.5950
 0.5340	11.7010
 0.5350	11.7920
 0.5360	11.8770
 0.5370	11.9460
 0.5380	12.0000
 0.5390	12.0540
 0.5400	12.1060
 0.5410	12.1460
 0.5420	12.1750
 0.5430	12.2180
 0.5440	12.2710
 0.5450	12.3230
 0.5460	12.3640
 0.5470	12.3960
 0.5480	12.4230
 0.5490	12.4450
 0.5500	12.4590
 0.5510	12.4680
 0.5520	12.4720
 0.5530	12.4660
 0.5540	12.4440
 0.5550	12.4070
 0.5560	12.3510
 0.5570	12.2760
 0.5580	12.1960
 0.5590	12.1110
 0.5600	12.0150
 0.5610	11.9060
 0.5620	11.7860
 0.5630	11.6610
 0.5640	11.5310
 0.5650	11.3900
 0.5660	11.2450
 0.5670	11.0970
 0.5680	10.9330
 0.5690	10.7810
 0.5700	10.6380
 0.5710	10.4930
 0.5720	10.3480
 0.5730	10.2140
 0.5740	10.0960
 0.5750	 9.9970
 0.5760	 9.9000
 0.5770	 9.8050
 0.5780	 9.7120
 0.5790	 9.6250
 0.5800	 9.5450
 0.5810	 9.4690
 0.5820	 9.3980
 0.5830	 9.3300
 0.5840	 9.2690
 0.5850	 9.2130
 0.5860	 9.1570
 0.5870	 9.1140
 0.5880	 9.0800
 0.5890	 9.0490
 0.5900	 9.0240
 0.5910	 8.9970
 0.5920	 8.9680
 0.5930	 8.9400
 0.5940	 8.9190
 0.5950	 8.8990
 0.5960	 8.8800
 0.5970	 8.8640
 0.5980	 8.8400
 0.5990	 8.8100
 0.6000	 8.7820
 0.6010	 8.7610
 0.6020	 8.7320
 0.6030	 8.6950
 0.6040	 8.6590
 0.6050	 8.6320
 0.6060	 8.6020
 0.6070	 8.5610
 0.6080	 8.5240
 0.6090	 8.4810
 0.6100	 8.4280
 0.6110	 8.3710
 0.6120	 8.3330
 0.6130	 8.3000
 0.6140	 8.2650
 0.6150	 8.2270
 0.6160	 8.1870
 0.6170	 8.1500
 0.6180	 8.1240
 0.6190	 8.1000
 0.6200	 8.0730
 0.6210	 8.0440
 0.6220	 8.0170
 0.6230	 8.0010
 0.6240	 7.9890
 0.6250	 7.9770
 0.6260	 7.9720
 0.6270	 7.9630
 0.6280	 7.9530
 0.6290	 7.9510
 0.6300	 7.9420
 0.6310	 7.9310
 0.6320	 7.9230
 0.6330	 7.9170
 0.6340	 7.9040
 0.6350	 7.8850
 0.6360	 7.8640
 0.6370	 7.8380
 0.6380	 7.8160
 0.6390	 7.7920
 0.6400	 7.7560
 0.6410	 7.7190
 0.6420	 7.6870
 0.6430	 7.6620
 0.6440	 7.6280
 0.6450	 7.5950
 0.6460	 7.5660
 0.6470	 7.5420
 0.6480	 7.5200
 0.6490	 7.5010
 0.6500	 7.4860
 0.6510	 7.4760
 0.6520	 7.4660
 0.6530	 7.4540
 0.6540	 7.4430
 0.6550	 7.4350
 0.6560	 7.4310
 0.6570	 7.4250
 0.6580	 7.4090
 0.6590	 7.3940
 0.6600	 7.3800
 0.6610	 7.3700
 0.6620	 7.3700
 0.6630	 7.3600
 0.6640	 7.3510
 0.6650	 7.3500
 0.6660	 7.3490
 0.6670	 7.3500
 0.6680	 7.3530
 0.6690	 7.3580
 0.6700	 7.3610
 0.6710	 7.3700
 0.6720	 7.3850
 0.6730	 7.3960
 0.6740	 7.4120
 0.6750	 7.4290
 0.6760	 7.4450
 0.6770	 7.4710
 0.6780	 7.4930
 0.6790	 7.5140
 0.6800	 7.5430
 0.6810	 7.5710
 0.6820	 7.6010
 0.6830	 7.6340
 0.6840	 7.6640
 0.6850	 7.6980
 0.6860	 7.7390
 0.6870	 7.7870
 0.6880	 7.8460
 0.6890	 7.9150
 0.6900	 8.0010
 0.6910	 8.1150
 0.6920	 8.2730
 0.6930	 8.4740
 0.6940	 8.7210
 0.6950	 9.0400
 0.6960	 9.4330
 0.6970	 9.9050
 0.6980	10.4590
 0.6990	11.0890
 0.7000	11.7950
 0.7010	12.5730
 0.7020	13.4120
 0.7030	14.2920
 0.7040	15.2120
 0.7050	16.1650
 0.7060	17.1350
 0.7070	18.1230
 0.7080	19.1240
 0.7090	20.1330
 0.7100	21.1400
 0.7110	22.1530
 0.7120	23.1720
 0.7130	24.1860
 0.7140	25.1960
 0.7150	26.2040
 0.7160	27.2120
 0.7170	28.2040
 0.7180	29.1810
 0.7190	30.1470
 0.7200	31.1050
 0.7210	32.0440
 0.7220	32.9620
 0.7230	33.8640
 0.7240	34.7550
 0.7250	35.6310
 0.7260	36.4790
 0.7270	37.2890
 0.7280	38.0560
 0.7290	38.8000
 0.7300	39.5290
 0.7310	40.2400
 0.7320	40.8970
 0.7330	41.5250
 0.7340	42.1350
 0.7350	42.7170
 0.7360	43.2590
 0.7370	43.7650
 0.7380	44.2420
 0.7390	44.7070
 0.7400	45.1340
 0.7410	45.5390
 0.7420	45.9400
 0.7430	46.2780
 0.7440	46.5960
 0.7450	46.9080
 0.7460	47.1950
 0.7470	47.4360
 0.7480	47.6560
 0.7490	47.8760
 0.7500	48.0890
 0.7510	48.2680
 0.7520	48.4230
 0.7530	48.5750
 0.7540	48.7110
 0.7550	48.8320
 0.7560	48.9360
 0.7570	49.0260
 0.7580	49.1160
 0.7590	49.2000
 0.7600	49.2710
 0.7610	49.3300
 0.7620	49.3950
 0.7630	49.4530
 0.7640	49.4880
 0.7650	49.5220
 0.7660	49.5440
 0.7670	49.5700
 0.7680	49.6230
 0.7690	49.6490
 0.7700	49.6510
 0.7710	49.6490
 0.7720	49.6780
 0.7730	49.6980
 0.7740	49.7060
 0.7750	49.7120
 0.7760	49.7210
 0.7770	49.7370
 0.7780	49.7520
 0.7790	49.7580
 0.7800	49.7490
 0.7810	49.7520
 0.7820	49.7700
 0.7830	49.7780
 0.7840	49.7740
 0.7850	49.7730
 0.7860	49.7840
 0.7870	49.7960
 0.7880	49.7950
 0.7890	49.7900
 0.7900	49.7970
 0.7910	49.8120
 0.7920	49.8080
 0.7930	49.8000
 0.7940	49.8210
 0.7950	49.8160
 0.7960	49.8010
 0.7970	49.7900
 0.7980	49.7810
 0.7990	49.7880
 0.8000	49.8000
 0.8010	49.7970
 0.8020	49.7700
 0.8030	49.7540
 0.8040	49.7560
 0.8050	49.7660
 0.8060	49.7620
 0.8070	49.7470
 0.8080	49.7340
 0.8090	49.7430
 0.8100	49.7370
 0.8110	49.7240
 0.8120	49.7110
 0.8130	49.6970
 0.8140	49.7010
 0.8150	49.6990
 0.8160	49.6740
 0.8170	49.6520
 0.8180	49.6350
 0.8190	49.6230
 0.8200	49.6140
 0.8210	49.6180
 0.8220	49.6190
 0.8230	49.6090
 0.8240	49.5970
 0.8250	49.5820
 0.8260	49.5760
 0.8270	49.5780
 0.8280	49.5720
 0.8290	49.5530
 0.8300	49.5380
 0.8310	49.5370
 0.8320	49.5140
 0.8330	49.4990
 0.8340	49.4940
 0.8350	49.4930
 0.8360	49.4950
 0.8370	49.4880
 0.8380	49.4780
 0.8390	49.4880
 0.8400	49.4880
 0.8410	49.4800
 0.8420	49.4670
 0.8430	49.4540
 0.8440	49.4480
 0.8450	49.4400
 0.8460	49.4310
 0.8470	49.4620
 0.8480	49.4660
 0.8490	49.4490
 0.8500	49.4390
 0.8510	49.4360
 0.8520	49.4400
 0.8530	49.4500
 0.8540	49.4650
 0.8550	49.4600
 0.8560	49.4550
 0.8570	49.4550
 0.8580	49.4560
 0.8590	49.4460
 0.8600	49.4440
 0.8610	49.4530
 0.8620	49.4450
 0.8630	49.4580
 0.8640	49.4650
 0.8650	49.4480
 0.8660	49.4690
 0.8670	49.4660
 0.8680	49.4560
 0.8690	49.4680
 0.8700	49.4600
 0.8710	49.4450
 0.8720	49.4450
 0.8730	49.4720
 0.8740	49.4870
 0.8750	49.4910
 0.8760	49.4910
 0.8770	49.4930
 0.8780	49.4840
 0.8790	49.4860
 0.8800	49.5020
 0.8810	49.5050
 0.8820	49.4940
 0.8830	49.4830
 0.8840	49.4830
 0.8850	49.4970
 0.8860	49.5190
 0.8870	49.5320
 0.8880	49.5250
 0.8890	49.5180
 0.8900	49.5100
 0.8910	49.5060
 0.8920	49.5090
 0.8930	49.5180
 0.8940	49.5190
 0.8950	49.5120
 0.8960	49.5030
 0.8970	49.5280
 0.8980	49.5520
 0.8990	49.5580
 0.9000	49.5500
 0.9010	49.5040
 0.9020	49.4960
 0.9030	49.5430
 0.9040	49.5710
 0.9050	49.5780
 0.9060	49.5630
 0.9070	49.5420
 0.9080	49.5520
 0.9090	49.5640
 0.9100	49.5750
 0.9110	49.5810
 0.9120	49.5550
 0.9130	49.5430
 0.9140	49.5520
 0.9150	49.5700
 0.9160	49.5810
 0.9170	49.5740
 0.9180	49.5570
 0.9190	49.5470
 0.9200	49.5590
 0.9210	49.5620
 0.9220	49.5580
 0.9230	49.5640
 0.9240	49.5510
 0.9250	49.5360
 0.9260	49.5300
 0.9270	49.5280
 0.9280	49.5160
 0.9290	49.5050
 0.9300	49.4980
 0.9310	49.4880
 0.9320	49.4640
 0.9330	49.4510
 0.9340	49.4510
 0.9350	49.4340
 0.9360	49.4110
 0.9370	49.3850
 0.9380	49.3690
 0.9390	49.3910
 0.9400	49.3980
 0.9410	49.3720
 0.9420	49.3240
 0.9430	49.2890
 0.9440	49.2690
 0.9450	49.2630
 0.9460	49.2530
 0.9470	49.1930
 0.9480	49.1690
 0.9490	49.1540
 0.9500	49.1170
 0.9510	49.0960
 0.9520	49.0590
 0.9530	49.0150
 0.9540	48.9780
 0.9550	48.9320
 0.9560	48.8910
 0.9570	48.8590
 0.9580	48.8320
 0.9590	48.7960
 0.9600	48.7540
 0.9610	48.7180
 0.9620	48.6970
 0.9630	48.6600
 0.9640	48.6470
 0.9650	48.6390
 0.9660	48.6090
 0.9670	48.5970
 0.9680	48.5680
 0.9690	48.5390
 0.9700	48.5400
 0.9710	48.5400
 0.9720	48.5280
 0.9730	48.5110
 0.9740	48.5010
 0.9750	48.5060
 0.9760	48.5040
 0.9770	48.4930
 0.9780	48.4850
 0.9790	48.4810
 0.9800	48.4420
 0.9810	48.4170
 0.9820	48.4610
 0.9830	48.4580
 0.9840	48.4430
 0.9850	48.4580
 0.9860	48.5150
 0.9870	48.4920
 0.9880	48.4780
 0.9890	48.4760
 0.9900	48.4580
 0.9910	48.4630
 0.9920	48.4550
 0.9930	48.4470
 0.9940	48.4380
 0.9950	48.4300
 0.9960	48.4220
 0.9970	48.4140
 0.9980	48.4060
 0.9990	48.3980
 1.0000	48.3890
 1.0010	48.3810
 1.0020	48.3730
 1.0030	48.3650
 1.0040	48.3570
 1.0050	48.3490
 1.0060	48.3400
 1.0070	48.3320
 1.0080	48.3240
 1.0090	48.3160
 1.0100	48.3160
 1.0110	48.3160
 1.0120	48.3250
 1.0130	48.3350
 1.0140	48.3460
 1.0150	48.3640
 1.0160	48.3840
 1.0170	48.3900
 1.0180	48.3880
 1.0190	48.3930
 1.0200	48.3970
 1.0210	48.3950
 1.0220	48.4010
 1.0230	48.4060
 1.0240	48.4080
 1.0250	48.4100
 1.0260	48.4150
 1.0270	48.4220
 1.0280	48.4260
 1.0290	48.4290
 1.0300	48.4340
 1.0310	48.4400
 1.0320	48.4430
 1.0330	48.4450
 1.0340	48.4520
 1.0350	48.4630
 1.0360	48.4670
 1.0370	48.4580
 1.0380	48.4580
 1.0390	48.4540
 1.0400	48.4590
 1.0410	48.4710
 1.0420	48.4770
 1.0430	48.4840
 1.0440	48.4850
 1.0450	48.4770
 1.0460	48.4770
 1.0470	48.4770
 1.0480	48.4820
 1.0490	48.5030
 1.0500	48.5080
 1.0510	48.5010
 1.0520	48.4970
 1.0530	48.4960
 1.0540	48.4880
 1.0550	48.4860
 1.0560	48.4940
 1.0570	48.4950
 1.0580	48.4880
 1.0590	48.4900
 1.0600	48.5000
 1.0610	48.5030
 1.0620	48.5040
 1.0630	48.5090
 1.0640	48.5150
 1.0650	48.5180
 1.0660	48.5240
 1.0670	48.5290
 1.0680	48.5330
 1.0690	48.5330
 1.0700	48.5350
 1.0710	48.5420
 1.0720	48.5400
 1.0730	48.5340
 1.0740	48.5300
 1.0750	48.5200
 1.0760	48.5180
 1.0770	48.5220
 1.0780	48.5240
 1.0790	48.5330
 1.0800	48.5340
 1.0810	48.5260
 1.0820	48.5230
 1.0830	48.5200
 1.0840	48.5130
 1.0850	48.5010
 1.0860	48.4940
 1.0870	48.4870
 1.0880	48.4760
 1.0890	48.4700
 1.0900	48.4720
 1.0910	48.4680
 1.0920	48.4660
 1.0930	48.4590
 1.0940	48.4470
 1.0950	48.4400
 1.0960	48.4310
 1.0970	48.4230
 1.0980	48.4220
 1.0990	48.4150
 1.1000	48.4040
 1.1010	48.3950
 1.1020	48.3870
 1.1030	48.3800
 1.1040	48.3690
 1.1050	48.3560
 1.1060	48.3470
 1.1070	48.3380
 1.1080	48.3230
 1.1090	48.3080
 1.1100	48.2940
 1.1110	48.2740
 1.1120	48.2560
 1.1130	48.2440
 1.1140	48.2230
 1.1150	48.1910
 1.1160	48.1680
 1.1170	48.1440
 1.1180	48.1230
 1.1190	48.1060
 1.1200	48.0900
 1.1210	48.0690
 1.1220	48.0430
 1.1230	48.0150
 1.1240	47.9840
 1.1250	47.9580
 1.1260	47.9360
 1.1270	47.9040
 1.1280	47.8710
 1.1290	47.8330
 1.1300	47.7840
 1.1310	47.7400
 1.1320	47.6980
 1.1330	47.6500
 1.1340	47.6020
 1.1350	47.5440
 1.1360	47.4770
 1.1370	47.4120
 1.1380	47.3400
 1.1390	47.2640
 1.1400	47.1910
 1.1410	47.1120
 1.1420	47.0250
 1.1430	46.9390
 1.1440	46.8520
 1.1450	46.7590
 1.1460	46.6730
 1.1470	46.5900
 1.1480	46.5110
 1.1490	46.4320
 1.1500	46.3630
 1.1510	46.2970
 1.1520	46.2350
 1.1530	46.1800
 1.1540	46.1280
 1.1550	46.0760
 1.1560	46.0330
 1.1570	45.9970
 1.1580	45.9600
 1.1590	45.9270
 1.1600	45.8970
 1.1610	45.8710
 1.1620	45.8510
 1.1630	45.8360
 1.1640	45.8270
 1.1650	45.8190
 1.1660	45.8180
 1.1670	45.8110
 1.1680	45.8030
 1.1690	45.7960
 1.1700	45.7860
 1.1710	45.7800
 1.1720	45.7780
 1.1730	45.7740
 1.1740	45.7710
 1.1750	45.7690
 1.1760	45.7650
 1.1770	45.7580
 1.1780	45.7550
 1.1790	45.7490
 1.1800	45.7440
 1.1810	45.7420
 1.1820	45.7330
 1.1830	45.7290
 1.1840	45.7300
 1.1850	45.7190
 1.1860	45.7150
 1.1870	45.7140
 1.1880	45.7080
 1.1890	45.6990
 1.1900	45.6950
 1.1910	45.6900
 1.1920	45.6860
 1.1930	45.6880
 1.1940	45.6860
 1.1950	45.6830
 1.1960	45.6780
 1.1970	45.6730
 1.1980	45.6690
 1.1990	45.6690
 1.2000	45.6680
 1.2010	45.6690
 1.2020	45.6750
 1.2030	45.6780
 1.2040	45.6800
 1.2050	45.6820
 1.2060	45.6800
 1.2070	45.6820
 1.2080	45.6880
 1.2090	45.6930
 1.2100	45.7000
 1.2110	45.7080
 1.2120	45.7150
 1.2130	45.7270
 1.2140	45.7430
 1.2150	45.7550
 1.2160	45.7680
 1.2170	45.7770
 1.2180	45.7860
 1.2190	45.7930
 1.2200	45.8030
 1.2210	45.8170
 1.2220	45.8290
 1.2230	45.8430
 1.2240	45.8590
 1.2250	45.8680
 1.2260	45.8750
 1.2270	45.8850
 1.2280	45.8900
 1.2290	45.9000
 1.2300	45.9170
 1.2310	45.9280
 1.2320	45.9380
 1.2330	45.9460
 1.2340	45.9500
 1.2350	45.9440
 1.2360	45.9480
 1.2370	45.9540
 1.2380	45.9570
 1.2390	45.9660
 1.2400	45.9700
 1.2410	45.9720
 1.2420	45.9770
 1.2430	45.9820
 1.2440	45.9910
 1.2450	45.9990
 1.2460	46.0050
 1.2470	46.0110
 1.2480	46.0140
 1.2490	46.0150
 1.2500	46.0150
 1.2510	46.0140
 1.2520	46.0140
 1.2530	46.0140
 1.2540	46.0130
 1.2550	46.0120
 1.2560	46.0160
 1.2570	46.0160
 1.2580	46.0150
 1.2590	46.0170
 1.2600	46.0220
 1.2610	46.0190
 1.2620	46.0140
 1.2630	46.0140
 1.2640	46.0060
 1.2650	45.9950
 1.2660	45.9900
 1.2670	45.9820
 1.2680	45.9700
 1.2690	45.9600
 1.2700	45.9480
 1.2710	45.9340
 1.2720	45.9210
 1.2730	45.9100
 1.2740	45.9050
 1.2750	45.8940
 1.2760	45.8770
 1.2770	45.8660
 1.2780	45.8510
 1.2790	45.8390
 1.2800	45.8320
 1.2810	45.8150
 1.2820	45.7940
 1.2830	45.7740
 1.2840	45.7560
 1.2850	45.7390
 1.2860	45.7240
 1.2870	45.7090
 1.2880	45.6920
 1.2890	45.6730
 1.2900	45.6540
 1.2910	45.6390
 1.2920	45.6220
 1.2930	45.6060
 1.2940	45.5880
 1.2950	45.5640
 1.2960	45.5420
 1.2970	45.5160
 1.2980	45.4850
 1.2990	45.4550
 1.3000	45.4240
 1.3010	45.3920
 1.3020	45.3630
 1.3030	45.3380
 1.3040	45.3090
 1.3050	45.2790
 1.3060	45.2460
 1.3070	45.2060
 1.3080	45.1630
 1.3090	45.1210
 1.3100	45.0770
 1.3110	45.0280
 1.3120	44.9760
 1.3130	44.9260
 1.3140	44.8720
 1.3150	44.8170
 1.3160	44.7580
 1.3170	44.7010
 1.3180	44.6320
 1.3190	44.5610
 1.3200	44.4900
 1.3210	44.4170
 1.3220	44.3440
 1.3230	44.2690
 1.3240	44.1910
 1.3250	44.1120
 1.3260	44.0280
 1.3270	43.9410
 1.3280	43.8530
 1.3290	43.7620
 1.3300	43.6710
 1.3310	43.5780
 1.3320	43.4820
 1.3330	43.3850
 1.3340	43.2850
 1.3350	43.1860
 1.3360	43.0890
 1.3370	42.9880
 1.3380	42.8880
 1.3390	42.7920
 1.3400	42.6930
 1.3410	42.5980
 1.3420	42.5040
 1.3430	42.4060
 1.3440	42.3040
 1.3450	42.2040
 1.3460	42.1030
 1.3470	42.0050
 1.3480	41.9080
 1.3490	41.8140
 1.3500	41.7210
 1.3510	41.6250
 1.3520	41.5290
 1.3530	41.4320
 1.3540	41.3340
 1.3550	41.2370
 1.3560	41.1390
 1.3570	41.0400
 1.3580	40.9410
 1.3590	40.8430
 1.3600	40.7380
 1.3610	40.6300
 1.3620	40.5200
 1.3630	40.4020
 1.3640	40.2820
 1.3650	40.1610
 1.3660	40.0340
 1.3670	39.9030
 1.3680	39.7640
 1.3690	39.6130
 1.3700	39.4500
 1.3710	39.2790
 1.3720	39.0960
 1.3730	38.9030
 1.3740	38.6960
 1.3750	38.4690
 1.3760	38.2260
 1.3770	37.9650
 1.3780	37.6810
 1.3790	37.3800
 1.3800	37.0600
 1.3810	36.7160
 1.3820	36.3590
 1.3830	35.9890
 1.3840	35.5960
 1.3850	35.1870
 1.3860	34.7590
 1.3870	34.3070
 1.3880	33.8480
 1.3890	33.3730
 1.3900	32.8830
 1.3910	32.3860
 1.3920	31.8800
 1.3930	31.3630
 1.3940	30.8440
 1.3950	30.3180
 1.3960	29.7920
 1.3970	29.2700
 1.3980	28.7540
 1.3990	28.2530
 1.4000	27.7610
 1.4010	27.2780
 1.4020	26.8100
 1.4030	26.3530
 1.4040	25.9140
 1.4050	25.4970
 1.4060	25.0970
 1.4070	24.7210
 1.4080	24.3650
 1.4090	24.0270
 1.4100	23.7130
 1.4110	23.4160
 1.4120	23.1410
 1.4130	22.8870
 1.4140	22.6530
 1.4150	22.4410
 1.4160	22.2460
 1.4170	22.0690
 1.4180	21.9110
 1.4190	21.7660
 1.4200	21.6380
 1.4210	21.5220
 1.4220	21.4170
 1.4230	21.3240
 1.4240	21.2440
 1.4250	21.1730
 1.4260	21.1140
 1.4270	21.0610
 1.4280	21.0160
 1.4290	20.9780
 1.4300	20.9480
 1.4310	20.9230
 1.4320	20.9070
 1.4330	20.8920
 1.4340	20.8810
 1.4350	20.8750
 1.4360	20.8750
 1.4370	20.8750
 1.4380	20.8790
 1.4390	20.8870
 1.4400	20.8940
 1.4410	20.9060
 1.4420	20.9230
 1.4430	20.9420
 1.4440	20.9650
 1.4450	20.9870
 1.4460	21.0090
 1.4470	21.0360
 1.4480	21.0600
 1.4490	21.0900
 1.4500	21.1230
 1.4510	21.1530
 1.4520	21.1860
 1.4530	21.2180
 1.4540	21.2510
 1.4550	21.2870
 1.4560	21.3270
 1.4570	21.3700
 1.4580	21.4140
 1.4590	21.4620
 1.4600	21.5130
 1.4610	21.5670
 1.4620	21.6280
 1.4630	21.6950
 1.4640	21.7660
 1.4650	21.8420
 1.4660	21.9220
 1.4670	22.0060
 1.4680	22.0980
 1.4690	22.1960
 1.4700	22.3010
 1.4710	22.4120
 1.4720	22.5240
 1.4730	22.6370
