Name: Pinus lambertiana 3
Type: vegetation
Class: Tree
Genus: Pinus
Species: lambertiana
Sample No.: VH070
Owner: UCSB
Wavelength Range: VSWIR
Origin: 37.0433; -119.3048; WGS84
Collection Date: 4/20/2013
Description: Samples were collected as part of the HyspIRI Airborne Campaign. 48 individual plants were sampled in three times in 2013 - spring  summer  and fall. The name of the sample includes a 1  2  or 3 which references a different individual of the species. Samples were taken to JPL and processed within 48 hours of collection. The same leaves were processed in the Nicolet and then measured using the ASD.
Measurement: Bidirectional reflectance
First Column: X
Second Column: Y
X Units: Wavelength (micrometers)
Y Units: Reflectance (percentage)
First X Value: 0.35
Last X Value: 2.5
Number of X Values: 2151
Additional Information: vegetation.tree.pinus.lambertiana.vswir.vh070.ucsb.asd.ancillary.txt

 0.3500	 6.7530
 0.3510	 6.8750
 0.3520	 6.8020
 0.3530	 6.6990
 0.3540	 6.7160
 0.3550	 6.6480
 0.3560	 6.4920
 0.3570	 6.4240
 0.3580	 6.6310
 0.3590	 6.6230
 0.3600	 6.6070
 0.3610	 6.6410
 0.3620	 6.4690
 0.3630	 6.4080
 0.3640	 6.3950
 0.3650	 6.3320
 0.3660	 6.3820
 0.3670	 6.4390
 0.3680	 6.4400
 0.3690	 6.3680
 0.3700	 6.3160
 0.3710	 6.2960
 0.3720	 6.3060
 0.3730	 6.3430
 0.3740	 6.3110
 0.3750	 6.2440
 0.3760	 6.2100
 0.3770	 6.2170
 0.3780	 6.2460
 0.3790	 6.2880
 0.3800	 6.3320
 0.3810	 6.2170
 0.3820	 6.1310
 0.3830	 6.1780
 0.3840	 6.1470
 0.3850	 6.1650
 0.3860	 6.2000
 0.3870	 6.1820
 0.3880	 6.1620
 0.3890	 6.1190
 0.3900	 6.0820
 0.3910	 6.1280
 0.3920	 6.1300
 0.3930	 6.1000
 0.3940	 6.0790
 0.3950	 6.1130
 0.3960	 6.1070
 0.3970	 6.0880
 0.3980	 6.1220
 0.3990	 6.1100
 0.4000	 6.0830
 0.4010	 6.0680
 0.4020	 6.0780
 0.4030	 6.1050
 0.4040	 6.1380
 0.4050	 6.1640
 0.4060	 6.1690
 0.4070	 6.1980
 0.4080	 6.2410
 0.4090	 6.2600
 0.4100	 6.2720
 0.4110	 6.3010
 0.4120	 6.3470
 0.4130	 6.3700
 0.4140	 6.4040
 0.4150	 6.4360
 0.4160	 6.4570
 0.4170	 6.5400
 0.4180	 6.5820
 0.4190	 6.5760
 0.4200	 6.6090
 0.4210	 6.6550
 0.4220	 6.7120
 0.4230	 6.7700
 0.4240	 6.7950
 0.4250	 6.8330
 0.4260	 6.8760
 0.4270	 6.8980
 0.4280	 6.9220
 0.4290	 6.9630
 0.4300	 7.0150
 0.4310	 7.0410
 0.4320	 7.0690
 0.4330	 7.0950
 0.4340	 7.1070
 0.4350	 7.1120
 0.4360	 7.1240
 0.4370	 7.1450
 0.4380	 7.1610
 0.4390	 7.2000
 0.4400	 7.2180
 0.4410	 7.2060
 0.4420	 7.2390
 0.4430	 7.2580
 0.4440	 7.2590
 0.4450	 7.2620
 0.4460	 7.2800
 0.4470	 7.3000
 0.4480	 7.3130
 0.4490	 7.3200
 0.4500	 7.3190
 0.4510	 7.3240
 0.4520	 7.3430
 0.4530	 7.3420
 0.4540	 7.3410
 0.4550	 7.3470
 0.4560	 7.3610
 0.4570	 7.3600
 0.4580	 7.3580
 0.4590	 7.3670
 0.4600	 7.3750
 0.4610	 7.3790
 0.4620	 7.3750
 0.4630	 7.3620
 0.4640	 7.3590
 0.4650	 7.3490
 0.4660	 7.3380
 0.4670	 7.3480
 0.4680	 7.3500
 0.4690	 7.3420
 0.4700	 7.3320
 0.4710	 7.3330
 0.4720	 7.3420
 0.4730	 7.3430
 0.4740	 7.3190
 0.4750	 7.3180
 0.4760	 7.3230
 0.4770	 7.3200
 0.4780	 7.3100
 0.4790	 7.3140
 0.4800	 7.3160
 0.4810	 7.3000
 0.4820	 7.3020
 0.4830	 7.3100
 0.4840	 7.3150
 0.4850	 7.3090
 0.4860	 7.3050
 0.4870	 7.3020
 0.4880	 7.2990
 0.4890	 7.3110
 0.4900	 7.3210
 0.4910	 7.3280
 0.4920	 7.3360
 0.4930	 7.3470
 0.4940	 7.3590
 0.4950	 7.3750
 0.4960	 7.3990
 0.4970	 7.4170
 0.4980	 7.4400
 0.4990	 7.4800
 0.5000	 7.5170
 0.5010	 7.5540
 0.5020	 7.5970
 0.5030	 7.6490
 0.5040	 7.7090
 0.5050	 7.7750
 0.5060	 7.8480
 0.5070	 7.9330
 0.5080	 8.0220
 0.5090	 8.1230
 0.5100	 8.2480
 0.5110	 8.3740
 0.5120	 8.5090
 0.5130	 8.6600
 0.5140	 8.8230
 0.5150	 9.0120
 0.5160	 9.2150
 0.5170	 9.4180
 0.5180	 9.6370
 0.5190	 9.8650
 0.5200	10.0980
 0.5210	10.3320
 0.5220	10.5690
 0.5230	10.8060
 0.5240	11.0400
 0.5250	11.2700
 0.5260	11.4910
 0.5270	11.6990
 0.5280	11.8920
 0.5290	12.0670
 0.5300	12.2290
 0.5310	12.3810
 0.5320	12.5270
 0.5330	12.6530
 0.5340	12.7610
 0.5350	12.8580
 0.5360	12.9470
 0.5370	13.0230
 0.5380	13.0880
 0.5390	13.1490
 0.5400	13.1960
 0.5410	13.2320
 0.5420	13.2650
 0.5430	13.2990
 0.5440	13.3380
 0.5450	13.3810
 0.5460	13.4290
 0.5470	13.4750
 0.5480	13.5190
 0.5490	13.5570
 0.5500	13.5850
 0.5510	13.6010
 0.5520	13.6090
 0.5530	13.6110
 0.5540	13.5890
 0.5550	13.5510
 0.5560	13.5010
 0.5570	13.4430
 0.5580	13.3720
 0.5590	13.2880
 0.5600	13.1890
 0.5610	13.0750
 0.5620	12.9530
 0.5630	12.8230
 0.5640	12.6870
 0.5650	12.5450
 0.5660	12.3930
 0.5670	12.2340
 0.5680	12.0740
 0.5690	11.9090
 0.5700	11.7450
 0.5710	11.5890
 0.5720	11.4340
 0.5730	11.2850
 0.5740	11.1440
 0.5750	11.0160
 0.5760	10.8980
 0.5770	10.7950
 0.5780	10.7050
 0.5790	10.6110
 0.5800	10.5210
 0.5810	10.4380
 0.5820	10.3610
 0.5830	10.2830
 0.5840	10.2050
 0.5850	10.1300
 0.5860	10.0600
 0.5870	 9.9870
 0.5880	 9.9140
 0.5890	 9.8470
 0.5900	 9.7940
 0.5910	 9.7470
 0.5920	 9.7060
 0.5930	 9.6700
 0.5940	 9.6380
 0.5950	 9.6100
 0.5960	 9.5830
 0.5970	 9.5520
 0.5980	 9.5200
 0.5990	 9.4890
 0.6000	 9.4560
 0.6010	 9.4250
 0.6020	 9.3910
 0.6030	 9.3510
 0.6040	 9.3080
 0.6050	 9.2590
 0.6060	 9.2050
 0.6070	 9.1470
 0.6080	 9.0860
 0.6090	 9.0190
 0.6100	 8.9450
 0.6110	 8.8640
 0.6120	 8.8000
 0.6130	 8.7450
 0.6140	 8.6900
 0.6150	 8.6330
 0.6160	 8.5780
 0.6170	 8.5250
 0.6180	 8.4730
 0.6190	 8.4250
 0.6200	 8.3830
 0.6210	 8.3460
 0.6220	 8.3150
 0.6230	 8.2870
 0.6240	 8.2640
 0.6250	 8.2480
 0.6260	 8.2330
 0.6270	 8.2180
 0.6280	 8.2060
 0.6290	 8.2020
 0.6300	 8.1880
 0.6310	 8.1770
 0.6320	 8.1690
 0.6330	 8.1510
 0.6340	 8.1240
 0.6350	 8.0900
 0.6360	 8.0500
 0.6370	 7.9970
 0.6380	 7.9360
 0.6390	 7.8690
 0.6400	 7.7940
 0.6410	 7.7200
 0.6420	 7.6460
 0.6430	 7.5730
 0.6440	 7.4950
 0.6450	 7.4240
 0.6460	 7.3580
 0.6470	 7.2920
 0.6480	 7.2390
 0.6490	 7.1960
 0.6500	 7.1610
 0.6510	 7.1310
 0.6520	 7.1080
 0.6530	 7.0850
 0.6540	 7.0620
 0.6550	 7.0430
 0.6560	 7.0190
 0.6570	 6.9910
 0.6580	 6.9590
 0.6590	 6.9290
 0.6600	 6.8980
 0.6610	 6.8630
 0.6620	 6.8260
 0.6630	 6.7950
 0.6640	 6.7680
 0.6650	 6.7420
 0.6660	 6.7170
 0.6670	 6.6970
 0.6680	 6.6850
 0.6690	 6.6820
 0.6700	 6.6770
 0.6710	 6.6730
 0.6720	 6.6730
 0.6730	 6.6800
 0.6740	 6.6890
 0.6750	 6.7010
 0.6760	 6.7180
 0.6770	 6.7350
 0.6780	 6.7550
 0.6790	 6.7800
 0.6800	 6.8090
 0.6810	 6.8430
 0.6820	 6.8820
 0.6830	 6.9270
 0.6840	 6.9790
 0.6850	 7.0460
 0.6860	 7.1310
 0.6870	 7.2350
 0.6880	 7.3740
 0.6890	 7.5570
 0.6900	 7.7920
 0.6910	 8.0860
 0.6920	 8.4520
 0.6930	 8.8950
 0.6940	 9.4140
 0.6950	10.0000
 0.6960	10.6580
 0.6970	11.3800
 0.6980	12.1560
 0.6990	12.9910
 0.7000	13.8720
 0.7010	14.7920
 0.7020	15.7400
 0.7030	16.7130
 0.7040	17.7050
 0.7050	18.7140
 0.7060	19.7320
 0.7070	20.7640
 0.7080	21.8110
 0.7090	22.8760
 0.7100	23.9560
 0.7110	25.0520
 0.7120	26.1640
 0.7130	27.2920
 0.7140	28.4350
 0.7150	29.5960
 0.7160	30.7750
 0.7170	31.9640
 0.7180	33.1690
 0.7190	34.3910
 0.7200	35.6260
 0.7210	36.8700
 0.7220	38.1190
 0.7230	39.3720
 0.7240	40.6240
 0.7250	41.8770
 0.7260	43.1190
 0.7270	44.3450
 0.7280	45.5570
 0.7290	46.7530
 0.7300	47.9260
 0.7310	49.0680
 0.7320	50.1900
 0.7330	51.2850
 0.7340	52.3470
 0.7350	53.3730
 0.7360	54.3690
 0.7370	55.3300
 0.7380	56.2500
 0.7390	57.1320
 0.7400	57.9790
 0.7410	58.7890
 0.7420	59.5580
 0.7430	60.2810
 0.7440	60.9720
 0.7450	61.6300
 0.7460	62.2390
 0.7470	62.8060
 0.7480	63.3380
 0.7490	63.8370
 0.7500	64.2980
 0.7510	64.7230
 0.7520	65.1150
 0.7530	65.4780
 0.7540	65.8070
 0.7550	66.1080
 0.7560	66.3850
 0.7570	66.6450
 0.7580	66.8780
 0.7590	67.0860
 0.7600	67.2750
 0.7610	67.4530
 0.7620	67.6130
 0.7630	67.7580
 0.7640	67.8880
 0.7650	68.0130
 0.7660	68.1280
 0.7670	68.2290
 0.7680	68.3120
 0.7690	68.3950
 0.7700	68.4750
 0.7710	68.5490
 0.7720	68.6140
 0.7730	68.6690
 0.7740	68.7220
 0.7750	68.7780
 0.7760	68.8260
 0.7770	68.8730
 0.7780	68.9210
 0.7790	68.9650
 0.7800	69.0020
 0.7810	69.0370
 0.7820	69.0730
 0.7830	69.1120
 0.7840	69.1450
 0.7850	69.1760
 0.7860	69.2080
 0.7870	69.2320
 0.7880	69.2580
 0.7890	69.2860
 0.7900	69.3150
 0.7910	69.3410
 0.7920	69.3660
 0.7930	69.3890
 0.7940	69.4090
 0.7950	69.4280
 0.7960	69.4520
 0.7970	69.4790
 0.7980	69.4960
 0.7990	69.5120
 0.8000	69.5300
 0.8010	69.5510
 0.8020	69.5730
 0.8030	69.5860
 0.8040	69.5960
 0.8050	69.6130
 0.8060	69.6290
 0.8070	69.6390
 0.8080	69.6490
 0.8090	69.6680
 0.8100	69.6800
 0.8110	69.6940
 0.8120	69.7130
 0.8130	69.7240
 0.8140	69.7350
 0.8150	69.7490
 0.8160	69.7670
 0.8170	69.7840
 0.8180	69.8020
 0.8190	69.8170
 0.8200	69.8270
 0.8210	69.8470
 0.8220	69.8620
 0.8230	69.8700
 0.8240	69.8830
 0.8250	69.8960
 0.8260	69.9070
 0.8270	69.9120
 0.8280	69.9130
 0.8290	69.9140
 0.8300	69.9190
 0.8310	69.9280
 0.8320	69.9320
 0.8330	69.9340
 0.8340	69.9390
 0.8350	69.9530
 0.8360	69.9730
 0.8370	69.9920
 0.8380	70.0120
 0.8390	70.0380
 0.8400	70.0590
 0.8410	70.0840
 0.8420	70.1130
 0.8430	70.1380
 0.8440	70.1620
 0.8450	70.1860
 0.8460	70.2120
 0.8470	70.2410
 0.8480	70.2670
 0.8490	70.2890
 0.8500	70.3090
 0.8510	70.3320
 0.8520	70.3590
 0.8530	70.3850
 0.8540	70.4050
 0.8550	70.4260
 0.8560	70.4490
 0.8570	70.4720
 0.8580	70.4910
 0.8590	70.5130
 0.8600	70.5270
 0.8610	70.5370
 0.8620	70.5620
 0.8630	70.5790
 0.8640	70.5880
 0.8650	70.5950
 0.8660	70.6070
 0.8670	70.6180
 0.8680	70.6300
 0.8690	70.6450
 0.8700	70.6580
 0.8710	70.6690
 0.8720	70.6840
 0.8730	70.7030
 0.8740	70.7100
 0.8750	70.7130
 0.8760	70.7180
 0.8770	70.7200
 0.8780	70.7230
 0.8790	70.7270
 0.8800	70.7350
 0.8810	70.7450
 0.8820	70.7440
 0.8830	70.7390
 0.8840	70.7360
 0.8850	70.7220
 0.8860	70.7190
 0.8870	70.7160
 0.8880	70.7040
 0.8890	70.7010
 0.8900	70.6870
 0.8910	70.6700
 0.8920	70.6620
 0.8930	70.6490
 0.8940	70.6360
 0.8950	70.6270
 0.8960	70.6190
 0.8970	70.6080
 0.8980	70.5850
 0.8990	70.5570
 0.9000	70.5420
 0.9010	70.5280
 0.9020	70.5060
 0.9030	70.4770
 0.9040	70.4570
 0.9050	70.4300
 0.9060	70.4070
 0.9070	70.3950
 0.9080	70.3870
 0.9090	70.3750
 0.9100	70.3500
 0.9110	70.3140
 0.9120	70.2930
 0.9130	70.2730
 0.9140	70.2500
 0.9150	70.2270
 0.9160	70.2020
 0.9170	70.1730
 0.9180	70.1440
 0.9190	70.1190
 0.9200	70.0720
 0.9210	70.0250
 0.9220	69.9830
 0.9230	69.9370
 0.9240	69.8870
 0.9250	69.8350
 0.9260	69.7760
 0.9270	69.7080
 0.9280	69.6180
 0.9290	69.5330
 0.9300	69.4550
 0.9310	69.3590
 0.9320	69.2580
 0.9330	69.1570
 0.9340	69.0590
 0.9350	68.9590
 0.9360	68.8450
 0.9370	68.7340
 0.9380	68.6240
 0.9390	68.4820
 0.9400	68.3480
 0.9410	68.2210
 0.9420	68.0850
 0.9430	67.9280
 0.9440	67.7560
 0.9450	67.5800
 0.9460	67.4020
 0.9470	67.2040
 0.9480	67.0180
 0.9490	66.8110
 0.9500	66.5580
 0.9510	66.2830
 0.9520	66.0280
 0.9530	65.7690
 0.9540	65.4870
 0.9550	65.2350
 0.9560	64.9720
 0.9570	64.7110
 0.9580	64.4700
 0.9590	64.2290
 0.9600	64.0310
 0.9610	63.8620
 0.9620	63.6960
 0.9630	63.5560
 0.9640	63.4300
 0.9650	63.3110
 0.9660	63.1990
 0.9670	63.1180
 0.9680	63.0360
 0.9690	62.9470
 0.9700	62.8610
 0.9710	62.8210
 0.9720	62.7660
 0.9730	62.6990
 0.9740	62.6470
 0.9750	62.6180
 0.9760	62.6010
 0.9770	62.5870
 0.9780	62.5680
 0.9790	62.5590
 0.9800	62.5640
 0.9810	62.5760
 0.9820	62.5830
 0.9830	62.5940
 0.9840	62.6350
 0.9850	62.6790
 0.9860	62.6870
 0.9870	62.7000
 0.9880	62.7700
 0.9890	62.8610
 0.9900	62.9080
 0.9910	62.9480
 0.9920	63.1170
 0.9930	63.2860
 0.9940	63.4550
 0.9950	63.6240
 0.9960	63.7930
 0.9970	63.9620
 0.9980	64.1310
 0.9990	64.3000
 1.0000	64.4690
 1.0010	64.6380
 1.0020	64.8070
 1.0030	64.9760
 1.0040	65.1450
 1.0050	65.3140
 1.0060	65.4830
 1.0070	65.6520
 1.0080	65.8210
 1.0090	65.9900
 1.0100	65.9900
 1.0110	66.1080
 1.0120	66.2210
 1.0130	66.3320
 1.0140	66.4460
 1.0150	66.5580
 1.0160	66.6710
 1.0170	66.7920
 1.0180	66.9050
 1.0190	67.0140
 1.0200	67.1280
 1.0210	67.2430
 1.0220	67.3540
 1.0230	67.4640
 1.0240	67.5750
 1.0250	67.6830
 1.0260	67.7850
 1.0270	67.8900
 1.0280	68.0000
 1.0290	68.1030
 1.0300	68.2000
 1.0310	68.3010
 1.0320	68.4020
 1.0330	68.4990
 1.0340	68.6000
 1.0350	68.7030
 1.0360	68.7870
 1.0370	68.8700
 1.0380	68.9600
 1.0390	69.0490
 1.0400	69.1380
 1.0410	69.2390
 1.0420	69.3240
 1.0430	69.3980
 1.0440	69.4750
 1.0450	69.5520
 1.0460	69.6260
 1.0470	69.7010
 1.0480	69.7700
 1.0490	69.8350
 1.0500	69.8980
 1.0510	69.9570
 1.0520	70.0170
 1.0530	70.0750
 1.0540	70.1330
 1.0550	70.1840
 1.0560	70.2300
 1.0570	70.2770
 1.0580	70.3200
 1.0590	70.3640
 1.0600	70.4130
 1.0610	70.4550
 1.0620	70.4940
 1.0630	70.5290
 1.0640	70.5610
 1.0650	70.5890
 1.0660	70.6150
 1.0670	70.6380
 1.0680	70.6600
 1.0690	70.6780
 1.0700	70.6940
 1.0710	70.7080
 1.0720	70.7190
 1.0730	70.7260
 1.0740	70.7340
 1.0750	70.7410
 1.0760	70.7440
 1.0770	70.7450
 1.0780	70.7410
 1.0790	70.7330
 1.0800	70.7220
 1.0810	70.7090
 1.0820	70.6900
 1.0830	70.6630
 1.0840	70.6390
 1.0850	70.6120
 1.0860	70.5860
 1.0870	70.5580
 1.0880	70.5330
 1.0890	70.4990
 1.0900	70.4600
 1.0910	70.4180
 1.0920	70.3710
 1.0930	70.3250
 1.0940	70.2810
 1.0950	70.2300
 1.0960	70.1750
 1.0970	70.1200
 1.0980	70.0590
 1.0990	70.0000
 1.1000	69.9430
 1.1010	69.8850
 1.1020	69.8280
 1.1030	69.7670
 1.1040	69.7030
 1.1050	69.6350
 1.1060	69.5650
 1.1070	69.4910
 1.1080	69.4180
 1.1090	69.3460
 1.1100	69.2690
 1.1110	69.1900
 1.1120	69.1080
 1.1130	69.0240
 1.1140	68.9320
 1.1150	68.8370
 1.1160	68.7330
 1.1170	68.6240
 1.1180	68.5040
 1.1190	68.3790
 1.1200	68.2400
 1.1210	68.0870
 1.1220	67.9250
 1.1230	67.7440
 1.1240	67.5480
 1.1250	67.3310
 1.1260	67.1010
 1.1270	66.8430
 1.1280	66.5660
 1.1290	66.2640
 1.1300	65.9400
 1.1310	65.5920
 1.1320	65.2210
 1.1330	64.8300
 1.1340	64.4130
 1.1350	63.9780
 1.1360	63.5210
 1.1370	63.0490
 1.1380	62.5600
 1.1390	62.0620
 1.1400	61.5520
 1.1410	61.0380
 1.1420	60.5230
 1.1430	60.0110
 1.1440	59.5100
 1.1450	59.0080
 1.1460	58.5300
 1.1470	58.0570
 1.1480	57.6110
 1.1490	57.1820
 1.1500	56.7800
 1.1510	56.3980
 1.1520	56.0430
 1.1530	55.7120
 1.1540	55.4060
 1.1550	55.1230
 1.1560	54.8660
 1.1570	54.6330
 1.1580	54.4230
 1.1590	54.2340
 1.1600	54.0610
 1.1610	53.9060
 1.1620	53.7660
 1.1630	53.6400
 1.1640	53.5280
 1.1650	53.4230
 1.1660	53.3320
 1.1670	53.2440
 1.1680	53.1650
 1.1690	53.0890
 1.1700	53.0190
 1.1710	52.9510
 1.1720	52.8870
 1.1730	52.8230
 1.1740	52.7610
 1.1750	52.7020
 1.1760	52.6400
 1.1770	52.5760
 1.1780	52.5140
 1.1790	52.4490
 1.1800	52.3830
 1.1810	52.3200
 1.1820	52.2550
 1.1830	52.1890
 1.1840	52.1240
 1.1850	52.0590
 1.1860	51.9920
 1.1870	51.9280
 1.1880	51.8700
 1.1890	51.8150
 1.1900	51.7650
 1.1910	51.7220
 1.1920	51.6820
 1.1930	51.6450
 1.1940	51.6160
 1.1950	51.5920
 1.1960	51.5730
 1.1970	51.5620
 1.1980	51.5570
 1.1990	51.5520
 1.2000	51.5540
 1.2010	51.5620
 1.2020	51.5750
 1.2030	51.5960
 1.2040	51.6220
 1.2050	51.6490
 1.2060	51.6780
 1.2070	51.7110
 1.2080	51.7510
 1.2090	51.7940
 1.2100	51.8420
 1.2110	51.8950
 1.2120	51.9520
 1.2130	52.0130
 1.2140	52.0790
 1.2150	52.1490
 1.2160	52.2240
 1.2170	52.3020
 1.2180	52.3820
 1.2190	52.4660
 1.2200	52.5510
 1.2210	52.6370
 1.2220	52.7280
 1.2230	52.8190
 1.2240	52.9100
 1.2250	53.0000
 1.2260	53.0880
 1.2270	53.1740
 1.2280	53.2630
 1.2290	53.3510
 1.2300	53.4340
 1.2310	53.5160
 1.2320	53.5970
 1.2330	53.6730
 1.2340	53.7490
 1.2350	53.8250
 1.2360	53.8980
 1.2370	53.9670
 1.2380	54.0370
 1.2390	54.1080
 1.2400	54.1760
 1.2410	54.2430
 1.2420	54.3080
 1.2430	54.3710
 1.2440	54.4320
 1.2450	54.4920
 1.2460	54.5470
 1.2470	54.6000
 1.2480	54.6530
 1.2490	54.7040
 1.2500	54.7530
 1.2510	54.8000
 1.2520	54.8470
 1.2530	54.8880
 1.2540	54.9290
 1.2550	54.9690
 1.2560	55.0030
 1.2570	55.0360
 1.2580	55.0660
 1.2590	55.0950
 1.2600	55.1240
 1.2610	55.1500
 1.2620	55.1740
 1.2630	55.1930
 1.2640	55.2060
 1.2650	55.2160
 1.2660	55.2250
 1.2670	55.2310
 1.2680	55.2380
 1.2690	55.2430
 1.2700	55.2420
 1.2710	55.2380
 1.2720	55.2310
 1.2730	55.2190
 1.2740	55.2060
 1.2750	55.1910
 1.2760	55.1700
 1.2770	55.1450
 1.2780	55.1160
 1.2790	55.0850
 1.2800	55.0500
 1.2810	55.0120
 1.2820	54.9700
 1.2830	54.9220
 1.2840	54.8690
 1.2850	54.8100
 1.2860	54.7470
 1.2870	54.6790
 1.2880	54.6060
 1.2890	54.5250
 1.2900	54.4380
 1.2910	54.3460
 1.2920	54.2480
 1.2930	54.1450
 1.2940	54.0390
 1.2950	53.9240
 1.2960	53.8000
 1.2970	53.6720
 1.2980	53.5390
 1.2990	53.3960
 1.3000	53.2490
 1.3010	53.0970
 1.3020	52.9340
 1.3030	52.7680
 1.3040	52.5930
 1.3050	52.4070
 1.3060	52.2140
 1.3070	52.0140
 1.3080	51.8080
 1.3090	51.5980
 1.3100	51.3810
 1.3110	51.1570
 1.3120	50.9270
 1.3130	50.6930
 1.3140	50.4490
 1.3150	50.1960
 1.3160	49.9390
 1.3170	49.6760
 1.3180	49.4070
 1.3190	49.1310
 1.3200	48.8530
 1.3210	48.5660
 1.3220	48.2740
 1.3230	47.9810
 1.3240	47.6830
 1.3250	47.3860
 1.3260	47.0830
 1.3270	46.7740
 1.3280	46.4640
 1.3290	46.1490
 1.3300	45.8350
 1.3310	45.5220
 1.3320	45.2050
 1.3330	44.8910
 1.3340	44.5790
 1.3350	44.2660
 1.3360	43.9600
 1.3370	43.6560
 1.3380	43.3520
 1.3390	43.0530
 1.3400	42.7570
 1.3410	42.4680
 1.3420	42.1840
 1.3430	41.9050
 1.3440	41.6320
 1.3450	41.3640
 1.3460	41.1000
 1.3470	40.8430
 1.3480	40.5920
 1.3490	40.3460
 1.3500	40.1070
 1.3510	39.8700
 1.3520	39.6360
 1.3530	39.4070
 1.3540	39.1790
 1.3550	38.9530
 1.3560	38.7300
 1.3570	38.5040
 1.3580	38.2790
 1.3590	38.0510
 1.3600	37.8170
 1.3610	37.5810
 1.3620	37.3360
 1.3630	37.0890
 1.3640	36.8340
 1.3650	36.5670
 1.3660	36.2940
 1.3670	36.0080
 1.3680	35.7100
 1.3690	35.3990
 1.3700	35.0680
 1.3710	34.7230
 1.3720	34.3610
 1.3730	33.9780
 1.3740	33.5800
 1.3750	33.1580
 1.3760	32.7130
 1.3770	32.2470
 1.3780	31.7500
 1.3790	31.2340
 1.3800	30.6960
 1.3810	30.1310
 1.3820	29.5540
 1.3830	28.9600
 1.3840	28.3530
 1.3850	27.7290
 1.3860	27.1000
 1.3870	26.4530
 1.3880	25.8140
 1.3890	25.1710
 1.3900	24.5290
 1.3910	23.8990
 1.3920	23.2760
 1.3930	22.6590
 1.3940	22.0570
 1.3950	21.4620
 1.3960	20.8860
 1.3970	20.3310
 1.3980	19.7970
 1.3990	19.2910
 1.4000	18.8050
 1.4010	18.3390
 1.4020	17.8970
 1.4030	17.4750
 1.4040	17.0760
 1.4050	16.7020
 1.4060	16.3480
 1.4070	16.0200
 1.4080	15.7120
 1.4090	15.4220
 1.4100	15.1530
 1.4110	14.9000
 1.4120	14.6660
 1.4130	14.4480
 1.4140	14.2460
 1.4150	14.0600
 1.4160	13.8860
 1.4170	13.7250
 1.4180	13.5760
 1.4190	13.4370
 1.4200	13.3090
 1.4210	13.1900
 1.4220	13.0800
 1.4230	12.9790
 1.4240	12.8870
 1.4250	12.8010
 1.4260	12.7230
 1.4270	12.6510
 1.4280	12.5860
 1.4290	12.5260
 1.4300	12.4710
 1.4310	12.4210
 1.4320	12.3780
 1.4330	12.3380
 1.4340	12.3030
 1.4350	12.2710
 1.4360	12.2420
 1.4370	12.2160
 1.4380	12.1940
 1.4390	12.1760
 1.4400	12.1600
 1.4410	12.1480
 1.4420	12.1370
 1.4430	12.1290
 1.4440	12.1230
 1.4450	12.1190
 1.4460	12.1170
 1.4470	12.1180
 1.4480	12.1210
 1.4490	12.1240
 1.4500	12.1280
 1.4510	12.1330
 1.4520	12.1400
 1.4530	12.1470
 1.4540	12.1570
 1.4550	12.1700
 1.4560	12.1830
 1.4570	12.1980
 1.4580	12.2150
 1.4590	12.2340
 1.4600	12.2560
 1.4610	12.2820
 1.4620	12.3100
 1.4630	12.3410
 1.4640	12.3740
 1.4650	12.4100
 1.4660	12.4490
 1.4670	12.4930
 1.4680	12.5410
 1.4690	12.5910
 1.4700	12.6440
