Name: Podocarpus gracilior
Type: vegetation
Class: Tree
Genus: Podocarpus
Species: gracilior
Sample No.: JPL173
Owner: JPL
Wavelength Range: VSWIR
Origin: 34.13033; -118.1123; WGS84
Collection Date: 9/14/2016
Description: Samples were collected at the Huntington Garden in San Marino California as part of a JPL Subcontract studying HyTES imagery. Samples were taken to JPL and processed within 48 hours of collection. The same leaves were processed in the Nicolet and then measured using the ASD.
Measurement: Bidirectional reflectance
First Column: X
Second Column: Y
X Units: Wavelength (micrometer)
Y Units: Reflectance (percentage)
First X Value: 0.35
Last X Value: 2.5
Number of X Values: 2151
Additional Information: vegetation.tree.podocarpus.gracilior.vswir.jpl173.jpl.asd.ancillary.txt

 0.3500	 7.7520
 0.3510	 7.5940
 0.3520	 7.5700
 0.3530	 7.5850
 0.3540	 7.5320
 0.3550	 7.4630
 0.3560	 7.4590
 0.3570	 7.5250
 0.3580	 7.6080
 0.3590	 7.5040
 0.3600	 7.4490
 0.3610	 7.5000
 0.3620	 7.3970
 0.3630	 7.3200
 0.3640	 7.3550
 0.3650	 7.4850
 0.3660	 7.4210
 0.3670	 7.4180
 0.3680	 7.4820
 0.3690	 7.4560
 0.3700	 7.4200
 0.3710	 7.3800
 0.3720	 7.3620
 0.3730	 7.4560
 0.3740	 7.4280
 0.3750	 7.3520
 0.3760	 7.3680
 0.3770	 7.4030
 0.3780	 7.4020
 0.3790	 7.3670
 0.3800	 7.3480
 0.3810	 7.3710
 0.3820	 7.3990
 0.3830	 7.3990
 0.3840	 7.3700
 0.3850	 7.3660
 0.3860	 7.3780
 0.3870	 7.3810
 0.3880	 7.4040
 0.3890	 7.4140
 0.3900	 7.4260
 0.3910	 7.4960
 0.3920	 7.4970
 0.3930	 7.4900
 0.3940	 7.5270
 0.3950	 7.5200
 0.3960	 7.5170
 0.3970	 7.5240
 0.3980	 7.5330
 0.3990	 7.5700
 0.4000	 7.5670
 0.4010	 7.5200
 0.4020	 7.5170
 0.4030	 7.5230
 0.4040	 7.5330
 0.4050	 7.5460
 0.4060	 7.5550
 0.4070	 7.5740
 0.4080	 7.5930
 0.4090	 7.5900
 0.4100	 7.6070
 0.4110	 7.6380
 0.4120	 7.6660
 0.4130	 7.6560
 0.4140	 7.6510
 0.4150	 7.6600
 0.4160	 7.6740
 0.4170	 7.6780
 0.4180	 7.6840
 0.4190	 7.6880
 0.4200	 7.6730
 0.4210	 7.6800
 0.4220	 7.6850
 0.4230	 7.6690
 0.4240	 7.6740
 0.4250	 7.6800
 0.4260	 7.6770
 0.4270	 7.6680
 0.4280	 7.6670
 0.4290	 7.6630
 0.4300	 7.6500
 0.4310	 7.6320
 0.4320	 7.6100
 0.4330	 7.5930
 0.4340	 7.5880
 0.4350	 7.5760
 0.4360	 7.5630
 0.4370	 7.5610
 0.4380	 7.5830
 0.4390	 7.6090
 0.4400	 7.6270
 0.4410	 7.6360
 0.4420	 7.6440
 0.4430	 7.6490
 0.4440	 7.6550
 0.4450	 7.6670
 0.4460	 7.6770
 0.4470	 7.6810
 0.4480	 7.6850
 0.4490	 7.6940
 0.4500	 7.7010
 0.4510	 7.7060
 0.4520	 7.7100
 0.4530	 7.7210
 0.4540	 7.7260
 0.4550	 7.7290
 0.4560	 7.7380
 0.4570	 7.7450
 0.4580	 7.7470
 0.4590	 7.7450
 0.4600	 7.7400
 0.4610	 7.7390
 0.4620	 7.7430
 0.4630	 7.7500
 0.4640	 7.7490
 0.4650	 7.7460
 0.4660	 7.7450
 0.4670	 7.7490
 0.4680	 7.7520
 0.4690	 7.7550
 0.4700	 7.7590
 0.4710	 7.7570
 0.4720	 7.7510
 0.4730	 7.7500
 0.4740	 7.7600
 0.4750	 7.7680
 0.4760	 7.7720
 0.4770	 7.7740
 0.4780	 7.7730
 0.4790	 7.7730
 0.4800	 7.7720
 0.4810	 7.7670
 0.4820	 7.7650
 0.4830	 7.7610
 0.4840	 7.7570
 0.4850	 7.7560
 0.4860	 7.7530
 0.4870	 7.7520
 0.4880	 7.7580
 0.4890	 7.7680
 0.4900	 7.7890
 0.4910	 7.8110
 0.4920	 7.8200
 0.4930	 7.8370
 0.4940	 7.8660
 0.4950	 7.9050
 0.4960	 7.9390
 0.4970	 7.9730
 0.4980	 8.0120
 0.4990	 8.0600
 0.5000	 8.1180
 0.5010	 8.1770
 0.5020	 8.2400
 0.5030	 8.3170
 0.5040	 8.4060
 0.5050	 8.5030
 0.5060	 8.6090
 0.5070	 8.7240
 0.5080	 8.8520
 0.5090	 8.9970
 0.5100	 9.1590
 0.5110	 9.3270
 0.5120	 9.5090
 0.5130	 9.7060
 0.5140	 9.9100
 0.5150	10.1240
 0.5160	10.3480
 0.5170	10.5840
 0.5180	10.8190
 0.5190	11.0570
 0.5200	11.2960
 0.5210	11.5320
 0.5220	11.7590
 0.5230	11.9770
 0.5240	12.1870
 0.5250	12.3830
 0.5260	12.5640
 0.5270	12.7280
 0.5280	12.8770
 0.5290	13.0090
 0.5300	13.1250
 0.5310	13.2270
 0.5320	13.3140
 0.5330	13.3910
 0.5340	13.4570
 0.5350	13.5110
 0.5360	13.5590
 0.5370	13.5950
 0.5380	13.6160
 0.5390	13.6220
 0.5400	13.6160
 0.5410	13.6020
 0.5420	13.5880
 0.5430	13.5850
 0.5440	13.5910
 0.5450	13.6120
 0.5460	13.6480
 0.5470	13.6880
 0.5480	13.7240
 0.5490	13.7530
 0.5500	13.7670
 0.5510	13.7760
 0.5520	13.7770
 0.5530	13.7660
 0.5540	13.7500
 0.5550	13.7200
 0.5560	13.6700
 0.5570	13.6030
 0.5580	13.5250
 0.5590	13.4340
 0.5600	13.3300
 0.5610	13.2200
 0.5620	13.1010
 0.5630	12.9740
 0.5640	12.8430
 0.5650	12.7100
 0.5660	12.5750
 0.5670	12.4370
 0.5680	12.2970
 0.5690	12.1590
 0.5700	12.0190
 0.5710	11.8780
 0.5720	11.7410
 0.5730	11.6140
 0.5740	11.4960
 0.5750	11.3880
 0.5760	11.2830
 0.5770	11.1850
 0.5780	11.0940
 0.5790	11.0100
 0.5800	10.9330
 0.5810	10.8590
 0.5820	10.7890
 0.5830	10.7160
 0.5840	10.6450
 0.5850	10.5760
 0.5860	10.5100
 0.5870	10.4480
 0.5880	10.3950
 0.5890	10.3520
 0.5900	10.3190
 0.5910	10.2820
 0.5920	10.2420
 0.5930	10.2040
 0.5940	10.1790
 0.5950	10.1610
 0.5960	10.1460
 0.5970	10.1290
 0.5980	10.1120
 0.5990	10.0910
 0.6000	10.0660
 0.6010	10.0410
 0.6020	10.0120
 0.6030	 9.9790
 0.6040	 9.9420
 0.6050	 9.9000
 0.6060	 9.8510
 0.6070	 9.7970
 0.6080	 9.7400
 0.6090	 9.6670
 0.6100	 9.5700
 0.6110	 9.4610
 0.6120	 9.4050
 0.6130	 9.3780
 0.6140	 9.3560
 0.6150	 9.3170
 0.6160	 9.2750
 0.6170	 9.2330
 0.6180	 9.1890
 0.6190	 9.1430
 0.6200	 9.1040
 0.6210	 9.0720
 0.6220	 9.0440
 0.6230	 9.0200
 0.6240	 9.0010
 0.6250	 8.9850
 0.6260	 8.9720
 0.6270	 8.9600
 0.6280	 8.9490
 0.6290	 8.9390
 0.6300	 8.9260
 0.6310	 8.9160
 0.6320	 8.9090
 0.6330	 8.8980
 0.6340	 8.8820
 0.6350	 8.8580
 0.6360	 8.8270
 0.6370	 8.7890
 0.6380	 8.7440
 0.6390	 8.6960
 0.6400	 8.6440
 0.6410	 8.5890
 0.6420	 8.5320
 0.6430	 8.4750
 0.6440	 8.4200
 0.6450	 8.3680
 0.6460	 8.3160
 0.6470	 8.2660
 0.6480	 8.2220
 0.6490	 8.1830
 0.6500	 8.1500
 0.6510	 8.1220
 0.6520	 8.1030
 0.6530	 8.0880
 0.6540	 8.0720
 0.6550	 8.0570
 0.6560	 8.0420
 0.6570	 8.0270
 0.6580	 8.0110
 0.6590	 7.9960
 0.6600	 7.9810
 0.6610	 7.9660
 0.6620	 7.9500
 0.6630	 7.9370
 0.6640	 7.9270
 0.6650	 7.9190
 0.6660	 7.9120
 0.6670	 7.9090
 0.6680	 7.9100
 0.6690	 7.9160
 0.6700	 7.9260
 0.6710	 7.9400
 0.6720	 7.9560
 0.6730	 7.9780
 0.6740	 8.0000
 0.6750	 8.0250
 0.6760	 8.0530
 0.6770	 8.0870
 0.6780	 8.1260
 0.6790	 8.1680
 0.6800	 8.2110
 0.6810	 8.2550
 0.6820	 8.3050
 0.6830	 8.3620
 0.6840	 8.4230
 0.6850	 8.4900
 0.6860	 8.5660
 0.6870	 8.6540
 0.6880	 8.7660
 0.6890	 8.9050
 0.6900	 9.0810
 0.6910	 9.3050
 0.6920	 9.5840
 0.6930	 9.9240
 0.6940	10.3290
 0.6950	10.8000
 0.6960	11.3360
 0.6970	11.9340
 0.6980	12.5890
 0.6990	13.2930
 0.7000	14.0400
 0.7010	14.8230
 0.7020	15.6340
 0.7030	16.4660
 0.7040	17.3150
 0.7050	18.1730
 0.7060	19.0360
 0.7070	19.9030
 0.7080	20.7740
 0.7090	21.6480
 0.7100	22.5290
 0.7110	23.4070
 0.7120	24.2820
 0.7130	25.1580
 0.7140	26.0310
 0.7150	26.9000
 0.7160	27.7650
 0.7170	28.6230
 0.7180	29.4720
 0.7190	30.3130
 0.7200	31.1430
 0.7210	31.9600
 0.7220	32.7620
 0.7230	33.5460
 0.7240	34.3080
 0.7250	35.0500
 0.7260	35.7690
 0.7270	36.4630
 0.7280	37.1320
 0.7290	37.7720
 0.7300	38.3850
 0.7310	38.9740
 0.7320	39.5340
 0.7330	40.0670
 0.7340	40.5720
 0.7350	41.0470
 0.7360	41.4990
 0.7370	41.9250
 0.7380	42.3250
 0.7390	42.7020
 0.7400	43.0550
 0.7410	43.3850
 0.7420	43.6940
 0.7430	43.9810
 0.7440	44.2440
 0.7450	44.4860
 0.7460	44.7090
 0.7470	44.9140
 0.7480	45.1030
 0.7490	45.2760
 0.7500	45.4290
 0.7510	45.5700
 0.7520	45.7000
 0.7530	45.8150
 0.7540	45.9220
 0.7550	46.0180
 0.7560	46.1030
 0.7570	46.1800
 0.7580	46.2500
 0.7590	46.3150
 0.7600	46.3770
 0.7610	46.4320
 0.7620	46.4770
 0.7630	46.5170
 0.7640	46.5570
 0.7650	46.5890
 0.7660	46.6150
 0.7670	46.6390
 0.7680	46.6630
 0.7690	46.6840
 0.7700	46.7030
 0.7710	46.7220
 0.7720	46.7390
 0.7730	46.7520
 0.7740	46.7650
 0.7750	46.7800
 0.7760	46.7900
 0.7770	46.7970
 0.7780	46.8050
 0.7790	46.8170
 0.7800	46.8260
 0.7810	46.8340
 0.7820	46.8440
 0.7830	46.8560
 0.7840	46.8630
 0.7850	46.8680
 0.7860	46.8710
 0.7870	46.8730
 0.7880	46.8770
 0.7890	46.8820
 0.7900	46.8850
 0.7910	46.8870
 0.7920	46.8890
 0.7930	46.8890
 0.7940	46.8910
 0.7950	46.8890
 0.7960	46.8870
 0.7970	46.8840
 0.7980	46.8820
 0.7990	46.8740
 0.8000	46.8680
 0.8010	46.8680
 0.8020	46.8610
 0.8030	46.8530
 0.8040	46.8470
 0.8050	46.8390
 0.8060	46.8290
 0.8070	46.8180
 0.8080	46.8050
 0.8090	46.7920
 0.8100	46.7830
 0.8110	46.7720
 0.8120	46.7590
 0.8130	46.7510
 0.8140	46.7370
 0.8150	46.7220
 0.8160	46.7090
 0.8170	46.6970
 0.8180	46.6850
 0.8190	46.6740
 0.8200	46.6650
 0.8210	46.6540
 0.8220	46.6420
 0.8230	46.6280
 0.8240	46.6140
 0.8250	46.6010
 0.8260	46.5890
 0.8270	46.5770
 0.8280	46.5650
 0.8290	46.5540
 0.8300	46.5410
 0.8310	46.5260
 0.8320	46.5140
 0.8330	46.5030
 0.8340	46.4960
 0.8350	46.4910
 0.8360	46.4850
 0.8370	46.4790
 0.8380	46.4740
 0.8390	46.4680
 0.8400	46.4650
 0.8410	46.4650
 0.8420	46.4660
 0.8430	46.4610
 0.8440	46.4590
 0.8450	46.4600
 0.8460	46.4590
 0.8470	46.4580
 0.8480	46.4590
 0.8490	46.4610
 0.8500	46.4620
 0.8510	46.4640
 0.8520	46.4720
 0.8530	46.4800
 0.8540	46.4790
 0.8550	46.4830
 0.8560	46.4880
 0.8570	46.4930
 0.8580	46.5020
 0.8590	46.5140
 0.8600	46.5240
 0.8610	46.5280
 0.8620	46.5340
 0.8630	46.5440
 0.8640	46.5540
 0.8650	46.5630
 0.8660	46.5760
 0.8670	46.5860
 0.8680	46.5950
 0.8690	46.6080
 0.8700	46.6240
 0.8710	46.6370
 0.8720	46.6490
 0.8730	46.6590
 0.8740	46.6710
 0.8750	46.6880
 0.8760	46.7060
 0.8770	46.7140
 0.8780	46.7240
 0.8790	46.7360
 0.8800	46.7480
 0.8810	46.7630
 0.8820	46.7760
 0.8830	46.7890
 0.8840	46.8020
 0.8850	46.8140
 0.8860	46.8350
 0.8870	46.8550
 0.8880	46.8660
 0.8890	46.8790
 0.8900	46.8890
 0.8910	46.8980
 0.8920	46.9100
 0.8930	46.9250
 0.8940	46.9390
 0.8950	46.9520
 0.8960	46.9640
 0.8970	46.9780
 0.8980	46.9920
 0.8990	47.0040
 0.9000	47.0120
 0.9010	47.0230
 0.9020	47.0360
 0.9030	47.0490
 0.9040	47.0590
 0.9050	47.0680
 0.9060	47.0790
 0.9070	47.0910
 0.9080	47.1010
 0.9090	47.1070
 0.9100	47.1150
 0.9110	47.1250
 0.9120	47.1330
 0.9130	47.1390
 0.9140	47.1410
 0.9150	47.1400
 0.9160	47.1450
 0.9170	47.1550
 0.9180	47.1610
 0.9190	47.1580
 0.9200	47.1590
 0.9210	47.1630
 0.9220	47.1630
 0.9230	47.1500
 0.9240	47.1510
 0.9250	47.1520
 0.9260	47.1470
 0.9270	47.1390
 0.9280	47.1260
 0.9290	47.1140
 0.9300	47.1000
 0.9310	47.0830
 0.9320	47.0690
 0.9330	47.0560
 0.9340	47.0410
 0.9350	47.0230
 0.9360	47.0060
 0.9370	46.9830
 0.9380	46.9520
 0.9390	46.9290
 0.9400	46.9140
 0.9410	46.9000
 0.9420	46.8810
 0.9430	46.8560
 0.9440	46.8220
 0.9450	46.7870
 0.9460	46.7540
 0.9470	46.7170
 0.9480	46.6730
 0.9490	46.6280
 0.9500	46.5860
 0.9510	46.5330
 0.9520	46.4820
 0.9530	46.4290
 0.9540	46.3740
 0.9550	46.3360
 0.9560	46.2850
 0.9570	46.2300
 0.9580	46.1860
 0.9590	46.1490
 0.9600	46.1080
 0.9610	46.0740
 0.9620	46.0540
 0.9630	46.0180
 0.9640	45.9840
 0.9650	45.9610
 0.9660	45.9450
 0.9670	45.9210
 0.9680	45.9060
 0.9690	45.9000
 0.9700	45.8920
 0.9710	45.8990
 0.9720	45.8920
 0.9730	45.8690
 0.9740	45.8490
 0.9750	45.8570
 0.9760	45.8570
 0.9770	45.8460
 0.9780	45.8410
 0.9790	45.8470
 0.9800	45.8490
 0.9810	45.8440
 0.9820	45.8400
 0.9830	45.8520
 0.9840	45.8640
 0.9850	45.8740
 0.9860	45.8840
 0.9870	45.8900
 0.9880	45.8930
 0.9890	45.8990
 0.9900	45.9130
 0.9910	45.9310
 0.9920	45.9430
 0.9930	45.9520
 0.9940	45.9670
 0.9950	45.9790
 0.9960	45.9950
 0.9970	46.0110
 0.9980	46.0230
 0.9990	46.0530
 1.0000	46.0720
 1.0010	48.2820
 1.0020	48.2950
 1.0030	48.3100
 1.0040	48.3290
 1.0050	48.3490
 1.0060	48.3690
 1.0070	48.3880
 1.0080	48.4030
 1.0090	48.4130
 1.0100	48.4260
 1.0110	48.4370
 1.0120	48.4510
 1.0130	48.4670
 1.0140	48.4830
 1.0150	48.5010
 1.0160	48.5160
 1.0170	48.5300
 1.0180	48.5450
 1.0190	48.5570
 1.0200	48.5740
 1.0210	48.5900
 1.0220	48.6060
 1.0230	48.6220
 1.0240	48.6360
 1.0250	48.6520
 1.0260	48.6720
 1.0270	48.6860
 1.0280	48.6960
 1.0290	48.7090
 1.0300	48.7220
 1.0310	48.7360
 1.0320	48.7540
 1.0330	48.7740
 1.0340	48.7930
 1.0350	48.8060
 1.0360	48.8210
 1.0370	48.8370
 1.0380	48.8490
 1.0390	48.8590
 1.0400	48.8700
 1.0410	48.8790
 1.0420	48.8910
 1.0430	48.9060
 1.0440	48.9180
 1.0450	48.9330
 1.0460	48.9440
 1.0470	48.9530
 1.0480	48.9620
 1.0490	48.9690
 1.0500	48.9770
 1.0510	48.9880
 1.0520	48.9960
 1.0530	49.0050
 1.0540	49.0130
 1.0550	49.0230
 1.0560	49.0350
 1.0570	49.0430
 1.0580	49.0540
 1.0590	49.0590
 1.0600	49.0580
 1.0610	49.0590
 1.0620	49.0560
 1.0630	49.0570
 1.0640	49.0610
 1.0650	49.0630
 1.0660	49.0670
 1.0670	49.0680
 1.0680	49.0670
 1.0690	49.0630
 1.0700	49.0610
 1.0710	49.0570
 1.0720	49.0530
 1.0730	49.0480
 1.0740	49.0460
 1.0750	49.0480
 1.0760	49.0450
 1.0770	49.0440
 1.0780	49.0400
 1.0790	49.0280
 1.0800	49.0240
 1.0810	49.0250
 1.0820	49.0220
 1.0830	49.0200
 1.0840	49.0160
 1.0850	49.0080
 1.0860	48.9980
 1.0870	48.9910
 1.0880	48.9850
 1.0890	48.9800
 1.0900	48.9740
 1.0910	48.9690
 1.0920	48.9650
 1.0930	48.9590
 1.0940	48.9540
 1.0950	48.9470
 1.0960	48.9380
 1.0970	48.9300
 1.0980	48.9210
 1.0990	48.9120
 1.1000	48.9030
 1.1010	48.8950
 1.1020	48.8850
 1.1030	48.8760
 1.1040	48.8710
 1.1050	48.8640
 1.1060	48.8560
 1.1070	48.8470
 1.1080	48.8380
 1.1090	48.8250
 1.1100	48.8150
 1.1110	48.8070
 1.1120	48.7970
 1.1130	48.7890
 1.1140	48.7770
 1.1150	48.7620
 1.1160	48.7490
 1.1170	48.7360
 1.1180	48.7210
 1.1190	48.7080
 1.1200	48.6910
 1.1210	48.6690
 1.1220	48.6450
 1.1230	48.6160
 1.1240	48.5860
 1.1250	48.5520
 1.1260	48.5160
 1.1270	48.4730
 1.1280	48.4260
 1.1290	48.3720
 1.1300	48.3120
 1.1310	48.2480
 1.1320	48.1810
 1.1330	48.1070
 1.1340	48.0280
 1.1350	47.9420
 1.1360	47.8520
 1.1370	47.7540
 1.1380	47.6510
 1.1390	47.5440
 1.1400	47.4320
 1.1410	47.3170
 1.1420	47.2010
 1.1430	47.0820
 1.1440	46.9660
 1.1450	46.8460
 1.1460	46.7310
 1.1470	46.6160
 1.1480	46.5090
 1.1490	46.4030
 1.1500	46.3070
 1.1510	46.2200
 1.1520	46.1370
 1.1530	46.0580
 1.1540	45.9860
 1.1550	45.9180
 1.1560	45.8560
 1.1570	45.8030
 1.1580	45.7580
 1.1590	45.7200
 1.1600	45.6850
 1.1610	45.6530
 1.1620	45.6260
 1.1630	45.6010
 1.1640	45.5780
 1.1650	45.5580
 1.1660	45.5410
 1.1670	45.5260
 1.1680	45.5140
 1.1690	45.5020
 1.1700	45.4920
 1.1710	45.4830
 1.1720	45.4740
 1.1730	45.4650
 1.1740	45.4580
 1.1750	45.4470
 1.1760	45.4350
 1.1770	45.4230
 1.1780	45.4100
 1.1790	45.3980
 1.1800	45.3850
 1.1810	45.3700
 1.1820	45.3550
 1.1830	45.3410
 1.1840	45.3260
 1.1850	45.3120
 1.1860	45.2970
 1.1870	45.2820
 1.1880	45.2680
 1.1890	45.2540
 1.1900	45.2420
 1.1910	45.2320
 1.1920	45.2230
 1.1930	45.2160
 1.1940	45.2080
 1.1950	45.2000
 1.1960	45.1950
 1.1970	45.1900
 1.1980	45.1880
 1.1990	45.1900
 1.2000	45.1920
 1.2010	45.1980
 1.2020	45.2040
 1.2030	45.2080
 1.2040	45.2140
 1.2050	45.2230
 1.2060	45.2320
 1.2070	45.2450
 1.2080	45.2580
 1.2090	45.2700
 1.2100	45.2840
 1.2110	45.3000
 1.2120	45.3170
 1.2130	45.3350
 1.2140	45.3520
 1.2150	45.3710
 1.2160	45.3890
 1.2170	45.4110
 1.2180	45.4330
 1.2190	45.4560
 1.2200	45.4790
 1.2210	45.5010
 1.2220	45.5240
 1.2230	45.5490
 1.2240	45.5740
 1.2250	45.5980
 1.2260	45.6210
 1.2270	45.6440
 1.2280	45.6670
 1.2290	45.6890
 1.2300	45.7090
 1.2310	45.7270
 1.2320	45.7450
 1.2330	45.7620
 1.2340	45.7790
 1.2350	45.7970
 1.2360	45.8140
 1.2370	45.8310
 1.2380	45.8460
 1.2390	45.8620
 1.2400	45.8750
 1.2410	45.8870
 1.2420	45.9000
 1.2430	45.9100
 1.2440	45.9210
 1.2450	45.9320
 1.2460	45.9420
 1.2470	45.9530
 1.2480	45.9640
 1.2490	45.9720
 1.2500	45.9810
 1.2510	45.9890
 1.2520	45.9950
 1.2530	46.0020
 1.2540	46.0070
 1.2550	46.0110
 1.2560	46.0160
 1.2570	46.0200
 1.2580	46.0220
 1.2590	46.0240
 1.2600	46.0270
 1.2610	46.0280
 1.2620	46.0270
 1.2630	46.0250
 1.2640	46.0250
 1.2650	46.0230
 1.2660	46.0200
 1.2670	46.0170
 1.2680	46.0120
 1.2690	46.0070
 1.2700	46.0030
 1.2710	45.9990
 1.2720	45.9930
 1.2730	45.9860
 1.2740	45.9780
 1.2750	45.9690
 1.2760	45.9610
 1.2770	45.9510
 1.2780	45.9370
 1.2790	45.9210
 1.2800	45.9060
 1.2810	45.8900
 1.2820	45.8710
 1.2830	45.8530
 1.2840	45.8320
 1.2850	45.8080
 1.2860	45.7820
 1.2870	45.7540
 1.2880	45.7240
 1.2890	45.6910
 1.2900	45.6560
 1.2910	45.6180
 1.2920	45.5760
 1.2930	45.5330
 1.2940	45.4880
 1.2950	45.4430
 1.2960	45.3960
 1.2970	45.3440
 1.2980	45.2890
 1.2990	45.2330
 1.3000	45.1760
 1.3010	45.1180
 1.3020	45.0570
 1.3030	44.9930
 1.3040	44.9250
 1.3050	44.8590
 1.3060	44.7890
 1.3070	44.7190
 1.3080	44.6500
 1.3090	44.5780
 1.3100	44.5050
 1.3110	44.4320
 1.3120	44.3550
 1.3130	44.2760
 1.3140	44.1940
 1.3150	44.1080
 1.3160	44.0210
 1.3170	43.9320
 1.3180	43.8430
 1.3190	43.7520
 1.3200	43.6620
 1.3210	43.5690
 1.3220	43.4750
 1.3230	43.3790
 1.3240	43.2820
 1.3250	43.1840
 1.3260	43.0830
 1.3270	42.9810
 1.3280	42.8770
 1.3290	42.7720
 1.3300	42.6660
 1.3310	42.5580
 1.3320	42.4510
 1.3330	42.3420
 1.3340	42.2330
 1.3350	42.1230
 1.3360	42.0130
 1.3370	41.9040
 1.3380	41.7950
 1.3390	41.6870
 1.3400	41.5800
 1.3410	41.4740
 1.3420	41.3670
 1.3430	41.2630
 1.3440	41.1590
 1.3450	41.0550
 1.3460	40.9520
 1.3470	40.8500
 1.3480	40.7470
 1.3490	40.6480
 1.3500	40.5510
 1.3510	40.4530
 1.3520	40.3550
 1.3530	40.2570
 1.3540	40.1580
 1.3550	40.0570
 1.3560	39.9570
 1.3570	39.8550
 1.3580	39.7520
 1.3590	39.6460
 1.3600	39.5400
 1.3610	39.4310
 1.3620	39.3160
 1.3630	39.1990
 1.3640	39.0750
 1.3650	38.9440
 1.3660	38.8090
 1.3670	38.6660
 1.3680	38.5140
 1.3690	38.3530
 1.3700	38.1780
 1.3710	37.9920
 1.3720	37.7930
 1.3730	37.5770
 1.3740	37.3500
 1.3750	37.1050
 1.3760	36.8420
 1.3770	36.5610
 1.3780	36.2580
 1.3790	35.9370
 1.3800	35.5970
 1.3810	35.2360
 1.3820	34.8610
 1.3830	34.4700
 1.3840	34.0630
 1.3850	33.6390
 1.3860	33.2060
 1.3870	32.7560
 1.3880	32.3040
 1.3890	31.8420
 1.3900	31.3730
 1.3910	30.9030
 1.3920	30.4290
 1.3930	29.9540
 1.3940	29.4830
 1.3950	29.0120
 1.3960	28.5510
 1.3970	28.0990
 1.3980	27.6570
 1.3990	27.2320
 1.4000	26.8210
 1.4010	26.4220
 1.4020	26.0420
 1.4030	25.6760
 1.4040	25.3270
 1.4050	24.9970
 1.4060	24.6830
 1.4070	24.3900
 1.4080	24.1140
 1.4090	23.8550
 1.4100	23.6140
 1.4110	23.3870
 1.4120	23.1750
 1.4130	22.9800
 1.4140	22.7990
 1.4150	22.6340
 1.4160	22.4820
 1.4170	22.3400
 1.4180	22.2090
 1.4190	22.0880
 1.4200	21.9770
 1.4210	21.8760
 1.4220	21.7840
 1.4230	21.7000
 1.4240	21.6240
 1.4250	21.5550
 1.4260	21.4930
 1.4270	21.4360
 1.4280	21.3870
 1.4290	21.3420
 1.4300	21.3030
 1.4310	21.2690
 1.4320	21.2410
 1.4330	21.2150
 1.4340	21.1950
 1.4350	21.1780
 1.4360	21.1640
 1.4370	21.1540
 1.4380	21.1470
 1.4390	21.1420
 1.4400	21.1400
 1.4410	21.1400
 1.4420	21.1440
 1.4430	21.1500
 1.4440	21.1580
 1.4450	21.1680
 1.4460	21.1800
 1.4470	21.1930
 1.4480	21.2060
 1.4490	21.2210
 1.4500	21.2380
 1.4510	21.2570
 1.4520	21.2770
 1.4530	21.2980
 1.4540	21.3200
 1.4550	21.3430
 1.4560	21.3680
 1.4570	21.3950
 1.4580	21.4240
 1.4590	21.4560
 1.4600	21.4920
 1.4610	21.5310
 1.4620	21.5750
 1.4630	21.6220
 1.4640	21.6720
 1.4650	21.7280
 1.4660	21.7880
 1.4670	21.8500
 1.4680	21.9170
 1.4690	21.9880
 1.4700	22.0620
 1.4710	22.1410
 1.4720	22.2220
 1.4730	22.3060
 1.4740	22.3940
 1.4750	22.4830
 1.4760	22.5750
 1.4770	22.6700
