Name: Calodendrum capense
Type: vegetation
Class: Tree
Genus: Calodendrum
Species: capense
Sample No.: JPL193
Owner: JPL
Wavelength Range: VSWIR
Origin: 34.12568; -118.11443; WGS84
Collection Date: 10/3/2016
Description: Samples were collected at the Huntington Garden in San Marino California as part of a JPL Subcontract studying HyTES imagery. Samples were taken to JPL and processed within 48 hours of collection. The same leaves were processed in the Nicolet and then measured using the ASD.
Measurement: Bidirectional reflectance
First Column: X
Second Column: Y
X Units: Wavelength (micrometer)
Y Units: Reflectance (percentage)
First X Value: 0.35
Last X Value: 2.5
Number of X Values: 2151
Additional Information: vegetation.tree.calodendrum.capense.vswir.jpl193.jpl.asd.ancillary.txt

 0.3500	 7.2870
 0.3510	 7.2440
 0.3520	 7.1190
 0.3530	 6.9990
 0.3540	 6.9510
 0.3550	 6.9730
 0.3560	 6.9380
 0.3570	 6.9060
 0.3580	 6.9970
 0.3590	 6.9560
 0.3600	 6.9190
 0.3610	 6.9420
 0.3620	 6.9100
 0.3630	 6.9070
 0.3640	 6.9020
 0.3650	 6.8620
 0.3660	 6.8610
 0.3670	 6.8570
 0.3680	 6.8430
 0.3690	 6.8360
 0.3700	 6.8630
 0.3710	 6.8620
 0.3720	 6.8100
 0.3730	 6.7650
 0.3740	 6.7600
 0.3750	 6.7840
 0.3760	 6.8010
 0.3770	 6.7680
 0.3780	 6.7440
 0.3790	 6.7580
 0.3800	 6.8050
 0.3810	 6.7780
 0.3820	 6.7420
 0.3830	 6.7520
 0.3840	 6.7770
 0.3850	 6.7830
 0.3860	 6.7540
 0.3870	 6.7050
 0.3880	 6.7600
 0.3890	 6.8020
 0.3900	 6.7880
 0.3910	 6.7700
 0.3920	 6.7610
 0.3930	 6.7410
 0.3940	 6.7110
 0.3950	 6.7360
 0.3960	 6.7560
 0.3970	 6.7510
 0.3980	 6.7290
 0.3990	 6.7200
 0.4000	 6.7260
 0.4010	 6.7340
 0.4020	 6.7240
 0.4030	 6.7090
 0.4040	 6.7070
 0.4050	 6.7300
 0.4060	 6.7660
 0.4070	 6.7800
 0.4080	 6.7720
 0.4090	 6.7690
 0.4100	 6.7840
 0.4110	 6.7990
 0.4120	 6.8080
 0.4130	 6.8270
 0.4140	 6.8440
 0.4150	 6.8560
 0.4160	 6.8650
 0.4170	 6.8630
 0.4180	 6.8670
 0.4190	 6.8790
 0.4200	 6.8860
 0.4210	 6.9040
 0.4220	 6.9110
 0.4230	 6.9010
 0.4240	 6.9130
 0.4250	 6.9270
 0.4260	 6.9350
 0.4270	 6.9350
 0.4280	 6.9440
 0.4290	 6.9510
 0.4300	 6.9450
 0.4310	 6.9200
 0.4320	 6.9040
 0.4330	 6.9000
 0.4340	 6.9010
 0.4350	 6.8930
 0.4360	 6.8910
 0.4370	 6.9030
 0.4380	 6.9280
 0.4390	 6.9460
 0.4400	 6.9670
 0.4410	 6.9940
 0.4420	 7.0140
 0.4430	 7.0240
 0.4440	 7.0310
 0.4450	 7.0420
 0.4460	 7.0400
 0.4470	 7.0500
 0.4480	 7.0750
 0.4490	 7.0850
 0.4500	 7.0930
 0.4510	 7.0980
 0.4520	 7.1010
 0.4530	 7.1110
 0.4540	 7.1190
 0.4550	 7.1260
 0.4560	 7.1330
 0.4570	 7.1380
 0.4580	 7.1440
 0.4590	 7.1520
 0.4600	 7.1450
 0.4610	 7.1550
 0.4620	 7.1680
 0.4630	 7.1640
 0.4640	 7.1670
 0.4650	 7.1660
 0.4660	 7.1630
 0.4670	 7.1700
 0.4680	 7.1740
 0.4690	 7.1770
 0.4700	 7.1810
 0.4710	 7.1820
 0.4720	 7.1840
 0.4730	 7.1880
 0.4740	 7.1960
 0.4750	 7.1920
 0.4760	 7.1920
 0.4770	 7.2010
 0.4780	 7.2020
 0.4790	 7.2000
 0.4800	 7.2000
 0.4810	 7.2020
 0.4820	 7.2060
 0.4830	 7.2060
 0.4840	 7.2000
 0.4850	 7.1890
 0.4860	 7.1870
 0.4870	 7.1900
 0.4880	 7.1940
 0.4890	 7.2000
 0.4900	 7.2090
 0.4910	 7.2210
 0.4920	 7.2400
 0.4930	 7.2590
 0.4940	 7.2780
 0.4950	 7.2990
 0.4960	 7.3250
 0.4970	 7.3490
 0.4980	 7.3730
 0.4990	 7.4030
 0.5000	 7.4280
 0.5010	 7.4540
 0.5020	 7.4870
 0.5030	 7.5300
 0.5040	 7.5710
 0.5050	 7.6110
 0.5060	 7.6550
 0.5070	 7.7070
 0.5080	 7.7620
 0.5090	 7.8230
 0.5100	 7.8930
 0.5110	 7.9680
 0.5120	 8.0530
 0.5130	 8.1470
 0.5140	 8.2380
 0.5150	 8.3430
 0.5160	 8.4630
 0.5170	 8.5910
 0.5180	 8.7220
 0.5190	 8.8640
 0.5200	 9.0170
 0.5210	 9.1760
 0.5220	 9.3370
 0.5230	 9.5000
 0.5240	 9.6630
 0.5250	 9.8240
 0.5260	 9.9850
 0.5270	10.1420
 0.5280	10.2870
 0.5290	10.4260
 0.5300	10.5580
 0.5310	10.6810
 0.5320	10.7900
 0.5330	10.8900
 0.5340	10.9800
 0.5350	11.0590
 0.5360	11.1270
 0.5370	11.1810
 0.5380	11.2220
 0.5390	11.2520
 0.5400	11.2660
 0.5410	11.2640
 0.5420	11.2550
 0.5430	11.2500
 0.5440	11.2620
 0.5450	11.2940
 0.5460	11.3420
 0.5470	11.3990
 0.5480	11.4490
 0.5490	11.4860
 0.5500	11.5100
 0.5510	11.5300
 0.5520	11.5420
 0.5530	11.5440
 0.5540	11.5400
 0.5550	11.5240
 0.5560	11.4930
 0.5570	11.4490
 0.5580	11.3940
 0.5590	11.3300
 0.5600	11.2580
 0.5610	11.1750
 0.5620	11.0850
 0.5630	10.9900
 0.5640	10.8900
 0.5650	10.7820
 0.5660	10.6750
 0.5670	10.5710
 0.5680	10.4630
 0.5690	10.3560
 0.5700	10.2490
 0.5710	10.1440
 0.5720	10.0430
 0.5730	 9.9460
 0.5740	 9.8530
 0.5750	 9.7650
 0.5760	 9.6850
 0.5770	 9.6100
 0.5780	 9.5370
 0.5790	 9.4650
 0.5800	 9.4000
 0.5810	 9.3400
 0.5820	 9.2820
 0.5830	 9.2270
 0.5840	 9.1810
 0.5850	 9.1440
 0.5860	 9.1060
 0.5870	 9.0720
 0.5880	 9.0450
 0.5890	 9.0270
 0.5900	 9.0130
 0.5910	 8.9930
 0.5920	 8.9660
 0.5930	 8.9410
 0.5940	 8.9230
 0.5950	 8.9120
 0.5960	 8.9050
 0.5970	 8.8970
 0.5980	 8.8900
 0.5990	 8.8800
 0.6000	 8.8650
 0.6010	 8.8500
 0.6020	 8.8350
 0.6030	 8.8140
 0.6040	 8.7860
 0.6050	 8.7540
 0.6060	 8.7190
 0.6070	 8.6800
 0.6080	 8.6350
 0.6090	 8.5760
 0.6100	 8.4960
 0.6110	 8.4040
 0.6120	 8.3630
 0.6130	 8.3520
 0.6140	 8.3460
 0.6150	 8.3240
 0.6160	 8.2980
 0.6170	 8.2700
 0.6180	 8.2380
 0.6190	 8.2090
 0.6200	 8.1840
 0.6210	 8.1620
 0.6220	 8.1430
 0.6230	 8.1310
 0.6240	 8.1210
 0.6250	 8.1100
 0.6260	 8.1030
 0.6270	 8.0990
 0.6280	 8.0950
 0.6290	 8.0890
 0.6300	 8.0800
 0.6310	 8.0750
 0.6320	 8.0750
 0.6330	 8.0730
 0.6340	 8.0640
 0.6350	 8.0490
 0.6360	 8.0310
 0.6370	 8.0070
 0.6380	 7.9820
 0.6390	 7.9560
 0.6400	 7.9260
 0.6410	 7.8940
 0.6420	 7.8620
 0.6430	 7.8320
 0.6440	 7.8000
 0.6450	 7.7700
 0.6460	 7.7430
 0.6470	 7.7200
 0.6480	 7.6970
 0.6490	 7.6780
 0.6500	 7.6630
 0.6510	 7.6510
 0.6520	 7.6450
 0.6530	 7.6410
 0.6540	 7.6370
 0.6550	 7.6260
 0.6560	 7.6200
 0.6570	 7.6130
 0.6580	 7.6000
 0.6590	 7.5860
 0.6600	 7.5720
 0.6610	 7.5600
 0.6620	 7.5480
 0.6630	 7.5390
 0.6640	 7.5330
 0.6650	 7.5310
 0.6660	 7.5310
 0.6670	 7.5360
 0.6680	 7.5450
 0.6690	 7.5560
 0.6700	 7.5730
 0.6710	 7.5960
 0.6720	 7.6250
 0.6730	 7.6590
 0.6740	 7.6960
 0.6750	 7.7350
 0.6760	 7.7790
 0.6770	 7.8280
 0.6780	 7.8810
 0.6790	 7.9390
 0.6800	 8.0010
 0.6810	 8.0670
 0.6820	 8.1350
 0.6830	 8.2030
 0.6840	 8.2730
 0.6850	 8.3410
 0.6860	 8.4080
 0.6870	 8.4770
 0.6880	 8.5530
 0.6890	 8.6420
 0.6900	 8.7500
 0.6910	 8.8840
 0.6920	 9.0490
 0.6930	 9.2530
 0.6940	 9.5040
 0.6950	 9.8090
 0.6960	10.1710
 0.6970	10.5910
 0.6980	11.0710
 0.6990	11.6090
 0.7000	12.2020
 0.7010	12.8460
 0.7020	13.5360
 0.7030	14.2620
 0.7040	15.0200
 0.7050	15.8080
 0.7060	16.6200
 0.7070	17.4570
 0.7080	18.3160
 0.7090	19.1990
 0.7100	20.1060
 0.7110	21.0330
 0.7120	21.9780
 0.7130	22.9380
 0.7140	23.9200
 0.7150	24.9190
 0.7160	25.9250
 0.7170	26.9400
 0.7180	27.9610
 0.7190	28.9870
 0.7200	30.0140
 0.7210	31.0340
 0.7220	32.0460
 0.7230	33.0480
 0.7240	34.0360
 0.7250	35.0030
 0.7260	35.9470
 0.7270	36.8650
 0.7280	37.7560
 0.7290	38.6140
 0.7300	39.4410
 0.7310	40.2370
 0.7320	40.9960
 0.7330	41.7170
 0.7340	42.4000
 0.7350	43.0510
 0.7360	43.6630
 0.7370	44.2380
 0.7380	44.7760
 0.7390	45.2790
 0.7400	45.7480
 0.7410	46.1830
 0.7420	46.5830
 0.7430	46.9530
 0.7440	47.2910
 0.7450	47.5980
 0.7460	47.8780
 0.7470	48.1310
 0.7480	48.3590
 0.7490	48.5650
 0.7500	48.7470
 0.7510	48.9100
 0.7520	49.0550
 0.7530	49.1830
 0.7540	49.3010
 0.7550	49.4050
 0.7560	49.4960
 0.7570	49.5760
 0.7580	49.6500
 0.7590	49.7140
 0.7600	49.7680
 0.7610	49.8160
 0.7620	49.8600
 0.7630	49.8980
 0.7640	49.9280
 0.7650	49.9520
 0.7660	49.9720
 0.7670	49.9880
 0.7680	50.0030
 0.7690	50.0150
 0.7700	50.0240
 0.7710	50.0300
 0.7720	50.0350
 0.7730	50.0380
 0.7740	50.0410
 0.7750	50.0430
 0.7760	50.0440
 0.7770	50.0490
 0.7780	50.0540
 0.7790	50.0540
 0.7800	50.0590
 0.7810	50.0660
 0.7820	50.0710
 0.7830	50.0730
 0.7840	50.0750
 0.7850	50.0770
 0.7860	50.0780
 0.7870	50.0760
 0.7880	50.0730
 0.7890	50.0720
 0.7900	50.0710
 0.7910	50.0720
 0.7920	50.0710
 0.7930	50.0690
 0.7940	50.0660
 0.7950	50.0630
 0.7960	50.0590
 0.7970	50.0530
 0.7980	50.0440
 0.7990	50.0360
 0.8000	50.0290
 0.8010	50.0210
 0.8020	50.0120
 0.8030	50.0050
 0.8040	49.9990
 0.8050	49.9880
 0.8060	49.9780
 0.8070	49.9660
 0.8080	49.9540
 0.8090	49.9430
 0.8100	49.9320
 0.8110	49.9190
 0.8120	49.9050
 0.8130	49.8900
 0.8140	49.8800
 0.8150	49.8690
 0.8160	49.8510
 0.8170	49.8370
 0.8180	49.8230
 0.8190	49.8100
 0.8200	49.7970
 0.8210	49.7840
 0.8220	49.7720
 0.8230	49.7590
 0.8240	49.7470
 0.8250	49.7310
 0.8260	49.7160
 0.8270	49.7020
 0.8280	49.6880
 0.8290	49.6730
 0.8300	49.6600
 0.8310	49.6510
 0.8320	49.6400
 0.8330	49.6290
 0.8340	49.6190
 0.8350	49.6090
 0.8360	49.6040
 0.8370	49.5950
 0.8380	49.5840
 0.8390	49.5780
 0.8400	49.5720
 0.8410	49.5670
 0.8420	49.5630
 0.8430	49.5590
 0.8440	49.5540
 0.8450	49.5500
 0.8460	49.5490
 0.8470	49.5480
 0.8480	49.5490
 0.8490	49.5510
 0.8500	49.5550
 0.8510	49.5560
 0.8520	49.5600
 0.8530	49.5640
 0.8540	49.5620
 0.8550	49.5580
 0.8560	49.5590
 0.8570	49.5650
 0.8580	49.5670
 0.8590	49.5730
 0.8600	49.5800
 0.8610	49.5860
 0.8620	49.5910
 0.8630	49.5970
 0.8640	49.6060
 0.8650	49.6170
 0.8660	49.6260
 0.8670	49.6330
 0.8680	49.6410
 0.8690	49.6510
 0.8700	49.6540
 0.8710	49.6580
 0.8720	49.6670
 0.8730	49.6780
 0.8740	49.6890
 0.8750	49.7000
 0.8760	49.7090
 0.8770	49.7160
 0.8780	49.7280
 0.8790	49.7390
 0.8800	49.7480
 0.8810	49.7670
 0.8820	49.7760
 0.8830	49.7820
 0.8840	49.7940
 0.8850	49.8020
 0.8860	49.8060
 0.8870	49.8120
 0.8880	49.8240
 0.8890	49.8350
 0.8900	49.8450
 0.8910	49.8560
 0.8920	49.8650
 0.8930	49.8780
 0.8940	49.8900
 0.8950	49.8970
 0.8960	49.9020
 0.8970	49.9110
 0.8980	49.9220
 0.8990	49.9310
 0.9000	49.9370
 0.9010	49.9470
 0.9020	49.9550
 0.9030	49.9600
 0.9040	49.9700
 0.9050	49.9750
 0.9060	49.9790
 0.9070	49.9850
 0.9080	49.9910
 0.9090	49.9950
 0.9100	49.9980
 0.9110	50.0010
 0.9120	50.0070
 0.9130	50.0150
 0.9140	50.0200
 0.9150	50.0200
 0.9160	50.0150
 0.9170	50.0150
 0.9180	50.0180
 0.9190	50.0170
 0.9200	50.0080
 0.9210	50.0050
 0.9220	50.0070
 0.9230	50.0050
 0.9240	49.9960
 0.9250	49.9900
 0.9260	49.9860
 0.9270	49.9760
 0.9280	49.9590
 0.9290	49.9450
 0.9300	49.9360
 0.9310	49.9200
 0.9320	49.9010
 0.9330	49.8820
 0.9340	49.8640
 0.9350	49.8410
 0.9360	49.8170
 0.9370	49.7940
 0.9380	49.7720
 0.9390	49.7450
 0.9400	49.7220
 0.9410	49.7010
 0.9420	49.6750
 0.9430	49.6430
 0.9440	49.6030
 0.9450	49.5620
 0.9460	49.5250
 0.9470	49.4870
 0.9480	49.4410
 0.9490	49.3930
 0.9500	49.3480
 0.9510	49.2880
 0.9520	49.2400
 0.9530	49.1950
 0.9540	49.1400
 0.9550	49.0770
 0.9560	49.0190
 0.9570	48.9680
 0.9580	48.9240
 0.9590	48.8860
 0.9600	48.8510
 0.9610	48.8110
 0.9620	48.7630
 0.9630	48.7330
 0.9640	48.7020
 0.9650	48.6730
 0.9660	48.6530
 0.9670	48.6320
 0.9680	48.6150
 0.9690	48.6060
 0.9700	48.5990
 0.9710	48.5930
 0.9720	48.5680
 0.9730	48.5390
 0.9740	48.5290
 0.9750	48.5360
 0.9760	48.5290
 0.9770	48.5140
 0.9780	48.5090
 0.9790	48.4980
 0.9800	48.4980
 0.9810	48.5030
 0.9820	48.5030
 0.9830	48.5090
 0.9840	48.5170
 0.9850	48.5210
 0.9860	48.5210
 0.9870	48.5250
 0.9880	48.5450
 0.9890	48.5690
 0.9900	48.5790
 0.9910	48.5810
 0.9920	48.5840
 0.9930	48.5880
 0.9940	48.5940
 0.9950	48.6180
 0.9960	48.6360
 0.9970	48.6440
 0.9980	48.6490
 0.9990	48.6560
 1.0000	48.6700
 1.0010	49.5720
 1.0020	49.5860
 1.0030	49.5950
 1.0040	49.6080
 1.0050	49.6230
 1.0060	49.6410
 1.0070	49.6600
 1.0080	49.6770
 1.0090	49.6960
 1.0100	49.7120
 1.0110	49.7220
 1.0120	49.7380
 1.0130	49.7550
 1.0140	49.7720
 1.0150	49.7910
 1.0160	49.8110
 1.0170	49.8290
 1.0180	49.8440
 1.0190	49.8600
 1.0200	49.8780
 1.0210	49.8950
 1.0220	49.9110
 1.0230	49.9290
 1.0240	49.9460
 1.0250	49.9620
 1.0260	49.9800
 1.0270	49.9970
 1.0280	50.0110
 1.0290	50.0260
 1.0300	50.0430
 1.0310	50.0570
 1.0320	50.0690
 1.0330	50.0810
 1.0340	50.0930
 1.0350	50.1050
 1.0360	50.1180
 1.0370	50.1330
 1.0380	50.1480
 1.0390	50.1640
 1.0400	50.1770
 1.0410	50.1910
 1.0420	50.2030
 1.0430	50.2100
 1.0440	50.2220
 1.0450	50.2390
 1.0460	50.2510
 1.0470	50.2640
 1.0480	50.2740
 1.0490	50.2800
 1.0500	50.2870
 1.0510	50.2930
 1.0520	50.3010
 1.0530	50.3090
 1.0540	50.3180
 1.0550	50.3270
 1.0560	50.3390
 1.0570	50.3450
 1.0580	50.3480
 1.0590	50.3500
 1.0600	50.3450
 1.0610	50.3460
 1.0620	50.3520
 1.0630	50.3540
 1.0640	50.3550
 1.0650	50.3560
 1.0660	50.3550
 1.0670	50.3550
 1.0680	50.3550
 1.0690	50.3570
 1.0700	50.3570
 1.0710	50.3560
 1.0720	50.3550
 1.0730	50.3530
 1.0740	50.3520
 1.0750	50.3480
 1.0760	50.3470
 1.0770	50.3480
 1.0780	50.3460
 1.0790	50.3450
 1.0800	50.3420
 1.0810	50.3340
 1.0820	50.3280
 1.0830	50.3230
 1.0840	50.3170
 1.0850	50.3090
 1.0860	50.3040
 1.0870	50.2980
 1.0880	50.2900
 1.0890	50.2830
 1.0900	50.2760
 1.0910	50.2690
 1.0920	50.2630
 1.0930	50.2560
 1.0940	50.2490
 1.0950	50.2430
 1.0960	50.2380
 1.0970	50.2300
 1.0980	50.2230
 1.0990	50.2150
 1.1000	50.2030
 1.1010	50.1930
 1.1020	50.1850
 1.1030	50.1770
 1.1040	50.1660
 1.1050	50.1570
 1.1060	50.1470
 1.1070	50.1370
 1.1080	50.1270
 1.1090	50.1200
 1.1100	50.1090
 1.1110	50.0970
 1.1120	50.0850
 1.1130	50.0740
 1.1140	50.0610
 1.1150	50.0480
 1.1160	50.0340
 1.1170	50.0190
 1.1180	50.0010
 1.1190	49.9840
 1.1200	49.9620
 1.1210	49.9370
 1.1220	49.9100
 1.1230	49.8810
 1.1240	49.8500
 1.1250	49.8150
 1.1260	49.7790
 1.1270	49.7330
 1.1280	49.6820
 1.1290	49.6250
 1.1300	49.5620
 1.1310	49.4930
 1.1320	49.4200
 1.1330	49.3380
 1.1340	49.2480
 1.1350	49.1540
 1.1360	49.0520
 1.1370	48.9460
 1.1380	48.8310
 1.1390	48.7140
 1.1400	48.5940
 1.1410	48.4690
 1.1420	48.3450
 1.1430	48.2210
 1.1440	48.0940
 1.1450	47.9640
 1.1460	47.8380
 1.1470	47.7070
 1.1480	47.5870
 1.1490	47.4720
 1.1500	47.3630
 1.1510	47.2600
 1.1520	47.1610
 1.1530	47.0630
 1.1540	46.9750
 1.1550	46.8940
 1.1560	46.8190
 1.1570	46.7510
 1.1580	46.6910
 1.1590	46.6330
 1.1600	46.5800
 1.1610	46.5310
 1.1620	46.4860
 1.1630	46.4480
 1.1640	46.4120
 1.1650	46.3790
 1.1660	46.3490
 1.1670	46.3190
 1.1680	46.2910
 1.1690	46.2650
 1.1700	46.2410
 1.1710	46.2180
 1.1720	46.1990
 1.1730	46.1780
 1.1740	46.1560
 1.1750	46.1370
 1.1760	46.1170
 1.1770	46.0960
 1.1780	46.0760
 1.1790	46.0550
 1.1800	46.0320
 1.1810	46.0130
 1.1820	45.9910
 1.1830	45.9700
 1.1840	45.9510
 1.1850	45.9280
 1.1860	45.9070
 1.1870	45.8900
 1.1880	45.8730
 1.1890	45.8570
 1.1900	45.8420
 1.1910	45.8290
 1.1920	45.8160
 1.1930	45.8040
 1.1940	45.7930
 1.1950	45.7830
 1.1960	45.7740
 1.1970	45.7670
 1.1980	45.7630
 1.1990	45.7620
 1.2000	45.7620
 1.2010	45.7640
 1.2020	45.7680
 1.2030	45.7740
 1.2040	45.7820
 1.2050	45.7930
 1.2060	45.8050
 1.2070	45.8180
 1.2080	45.8320
 1.2090	45.8450
 1.2100	45.8610
 1.2110	45.8780
 1.2120	45.8960
 1.2130	45.9150
 1.2140	45.9360
 1.2150	45.9560
 1.2160	45.9760
 1.2170	45.9970
 1.2180	46.0180
 1.2190	46.0390
 1.2200	46.0590
 1.2210	46.0800
 1.2220	46.1010
 1.2230	46.1210
 1.2240	46.1450
 1.2250	46.1680
 1.2260	46.1900
 1.2270	46.2130
 1.2280	46.2310
 1.2290	46.2490
 1.2300	46.2700
 1.2310	46.2880
 1.2320	46.3060
 1.2330	46.3260
 1.2340	46.3440
 1.2350	46.3580
 1.2360	46.3740
 1.2370	46.3890
 1.2380	46.4030
 1.2390	46.4160
 1.2400	46.4290
 1.2410	46.4420
 1.2420	46.4560
 1.2430	46.4690
 1.2440	46.4820
 1.2450	46.4950
 1.2460	46.5040
 1.2470	46.5130
 1.2480	46.5230
 1.2490	46.5310
 1.2500	46.5390
 1.2510	46.5480
 1.2520	46.5560
 1.2530	46.5650
 1.2540	46.5750
 1.2550	46.5810
 1.2560	46.5870
 1.2570	46.5920
 1.2580	46.5960
 1.2590	46.5980
 1.2600	46.6000
 1.2610	46.6000
 1.2620	46.5980
 1.2630	46.5950
 1.2640	46.5920
 1.2650	46.5910
 1.2660	46.5880
 1.2670	46.5860
 1.2680	46.5830
 1.2690	46.5760
 1.2700	46.5690
 1.2710	46.5610
 1.2720	46.5510
 1.2730	46.5400
 1.2740	46.5280
 1.2750	46.5170
 1.2760	46.5030
 1.2770	46.4890
 1.2780	46.4740
 1.2790	46.4590
 1.2800	46.4420
 1.2810	46.4190
 1.2820	46.3970
 1.2830	46.3740
 1.2840	46.3460
 1.2850	46.3220
 1.2860	46.2950
 1.2870	46.2640
 1.2880	46.2300
 1.2890	46.1960
 1.2900	46.1580
 1.2910	46.1170
 1.2920	46.0750
 1.2930	46.0350
 1.2940	45.9920
 1.2950	45.9450
 1.2960	45.8990
 1.2970	45.8510
 1.2980	45.7980
 1.2990	45.7440
 1.3000	45.6880
 1.3010	45.6290
 1.3020	45.5680
 1.3030	45.5070
 1.3040	45.4420
 1.3050	45.3750
 1.3060	45.3060
 1.3070	45.2350
 1.3080	45.1640
 1.3090	45.0910
 1.3100	45.0140
 1.3110	44.9350
 1.3120	44.8530
 1.3130	44.7670
 1.3140	44.6800
 1.3150	44.5910
 1.3160	44.5010
 1.3170	44.4100
 1.3180	44.3160
 1.3190	44.2190
 1.3200	44.1200
 1.3210	44.0170
 1.3220	43.9140
 1.3230	43.8090
 1.3240	43.7010
 1.3250	43.5900
 1.3260	43.4780
 1.3270	43.3630
 1.3280	43.2470
 1.3290	43.1290
 1.3300	43.0100
 1.3310	42.8900
 1.3320	42.7670
 1.3330	42.6450
 1.3340	42.5220
 1.3350	42.3980
 1.3360	42.2760
 1.3370	42.1520
 1.3380	42.0280
 1.3390	41.9060
 1.3400	41.7840
 1.3410	41.6630
 1.3420	41.5420
 1.3430	41.4210
 1.3440	41.3020
 1.3450	41.1840
 1.3460	41.0690
 1.3470	40.9540
 1.3480	40.8390
 1.3490	40.7270
 1.3500	40.6160
 1.3510	40.5040
 1.3520	40.3950
 1.3530	40.2870
 1.3540	40.1770
 1.3550	40.0700
 1.3560	39.9600
 1.3570	39.8470
 1.3580	39.7340
 1.3590	39.6170
 1.3600	39.4970
 1.3610	39.3750
 1.3620	39.2470
 1.3630	39.1140
 1.3640	38.9760
 1.3650	38.8290
 1.3660	38.6760
 1.3670	38.5150
 1.3680	38.3420
 1.3690	38.1590
 1.3700	37.9620
 1.3710	37.7530
 1.3720	37.5310
 1.3730	37.2920
 1.3740	37.0380
 1.3750	36.7630
 1.3760	36.4690
 1.3770	36.1540
 1.3780	35.8120
 1.3790	35.4480
 1.3800	35.0620
 1.3810	34.6460
 1.3820	34.2130
 1.3830	33.7600
 1.3840	33.2860
 1.3850	32.7890
 1.3860	32.2790
 1.3870	31.7470
 1.3880	31.2100
 1.3890	30.6590
 1.3900	30.0980
 1.3910	29.5340
 1.3920	28.9660
 1.3930	28.3940
 1.3940	27.8270
 1.3950	27.2570
 1.3960	26.6960
 1.3970	26.1450
 1.3980	25.6050
 1.3990	25.0850
 1.4000	24.5810
 1.4010	24.0910
 1.4020	23.6210
 1.4030	23.1660
 1.4040	22.7320
 1.4050	22.3200
 1.4060	21.9270
 1.4070	21.5590
 1.4080	21.2110
 1.4090	20.8800
 1.4100	20.5710
 1.4110	20.2790
 1.4120	20.0050
 1.4130	19.7490
 1.4140	19.5090
 1.4150	19.2870
 1.4160	19.0800
 1.4170	18.8860
 1.4180	18.7040
 1.4190	18.5340
 1.4200	18.3760
 1.4210	18.2290
 1.4220	18.0920
 1.4230	17.9660
 1.4240	17.8480
 1.4250	17.7370
 1.4260	17.6360
 1.4270	17.5400
 1.4280	17.4510
 1.4290	17.3680
 1.4300	17.2940
 1.4310	17.2250
 1.4320	17.1640
 1.4330	17.1060
 1.4340	17.0530
 1.4350	17.0050
 1.4360	16.9610
 1.4370	16.9210
 1.4380	16.8870
 1.4390	16.8570
 1.4400	16.8300
 1.4410	16.8070
 1.4420	16.7860
 1.4430	16.7690
 1.4440	16.7560
 1.4450	16.7450
 1.4460	16.7350
 1.4470	16.7290
 1.4480	16.7240
 1.4490	16.7210
 1.4500	16.7210
 1.4510	16.7240
 1.4520	16.7280
 1.4530	16.7340
 1.4540	16.7430
 1.4550	16.7540
 1.4560	16.7680
 1.4570	16.7860
 1.4580	16.8070
 1.4590	16.8310
 1.4600	16.8590
 1.4610	16.8910
 1.4620	16.9270
 1.4630	16.9670
 1.4640	17.0130
 1.4650	17.0630
 1.4660	17.1170
 1.4670	17.1760
 1.4680	17.2400
 1.4690	17.3070
 1.4700	17.3790
 1.4710	17.4550
 1.4720	17.5350
 1.4730	17.6190
 1.4740	17.7070
 1.4750	17.7970
 1.4760	17.8900
 1.4770	17.9870
