Name: Heteromeles arbutifolia 1
Type: vegetation
Class: Shrub
Genus: Heteromeles
Species: arbutifolia
Sample No.: VH206
Owner: UCSB
Wavelength Range: VSWIR
Origin: 34.4907; -119.791; WGS84
Collection Date: 10/13/2013
Description: Samples were collected as part of the HyspIRI Airborne Campaign. 48 individual plants were sampled in three times in 2013 - spring  summer  and fall. The name of the sample includes a 1  2  or 3 which references a different individual of the species. Samples were taken to JPL and processed within 48 hours of collection. The same leaves were processed in the Nicolet and then measured using the ASD.
Measurement: Bidirectional reflectance
First Column: X
Second Column: Y
X Units: Wavelength (micrometers)
Y Units: Reflectance (percentage)
First X Value: 0.35
Last X Value: 2.5
Number of X Values: 2151
Additional Information: vegetation.shrub.heteromeles.arbutifolia.vswir.vh206.ucsb.asd.ancillary.txt

 0.3500	11.4790
 0.3510	11.4270
 0.3520	11.3540
 0.3530	11.2620
 0.3540	11.1660
 0.3550	11.1010
 0.3560	11.0760
 0.3570	11.1030
 0.3580	11.1660
 0.3590	11.0100
 0.3600	10.9410
 0.3610	11.0270
 0.3620	10.9330
 0.3630	10.9080
 0.3640	10.9570
 0.3650	10.9910
 0.3660	10.7950
 0.3670	10.6930
 0.3680	10.7260
 0.3690	10.7370
 0.3700	10.7790
 0.3710	10.7570
 0.3720	10.6730
 0.3730	10.7370
 0.3740	10.8070
 0.3750	10.7670
 0.3760	10.5940
 0.3770	10.6330
 0.3780	10.7320
 0.3790	10.8020
 0.3800	10.8240
 0.3810	10.7480
 0.3820	10.7130
 0.3830	10.7470
 0.3840	10.5530
 0.3850	10.4420
 0.3860	10.4900
 0.3870	10.6420
 0.3880	10.6870
 0.3890	10.6490
 0.3900	10.5850
 0.3910	10.5620
 0.3920	10.4950
 0.3930	10.4580
 0.3940	10.4980
 0.3950	10.5120
 0.3960	10.5360
 0.3970	10.5150
 0.3980	10.3910
 0.3990	10.4020
 0.4000	10.4600
 0.4010	10.4710
 0.4020	10.3800
 0.4030	10.3830
 0.4040	10.4090
 0.4050	10.3750
 0.4060	10.4140
 0.4070	10.4060
 0.4080	10.3810
 0.4090	10.4460
 0.4100	10.4410
 0.4110	10.4360
 0.4120	10.4650
 0.4130	10.4480
 0.4140	10.4240
 0.4150	10.4270
 0.4160	10.4690
 0.4170	10.4860
 0.4180	10.4900
 0.4190	10.4960
 0.4200	10.5220
 0.4210	10.5470
 0.4220	10.5520
 0.4230	10.5380
 0.4240	10.5640
 0.4250	10.5890
 0.4260	10.6080
 0.4270	10.6300
 0.4280	10.6350
 0.4290	10.6290
 0.4300	10.6210
 0.4310	10.6270
 0.4320	10.6250
 0.4330	10.6220
 0.4340	10.6230
 0.4350	10.6050
 0.4360	10.6070
 0.4370	10.6310
 0.4380	10.6470
 0.4390	10.6490
 0.4400	10.6730
 0.4410	10.7270
 0.4420	10.7500
 0.4430	10.7510
 0.4440	10.7450
 0.4450	10.7480
 0.4460	10.7730
 0.4470	10.7890
 0.4480	10.7840
 0.4490	10.7750
 0.4500	10.7820
 0.4510	10.7930
 0.4520	10.7970
 0.4530	10.8080
 0.4540	10.8260
 0.4550	10.8390
 0.4560	10.8300
 0.4570	10.8350
 0.4580	10.8270
 0.4590	10.8040
 0.4600	10.8160
 0.4610	10.8350
 0.4620	10.8360
 0.4630	10.8110
 0.4640	10.8210
 0.4650	10.8320
 0.4660	10.8260
 0.4670	10.8100
 0.4680	10.8080
 0.4690	10.8080
 0.4700	10.8010
 0.4710	10.8140
 0.4720	10.8170
 0.4730	10.8110
 0.4740	10.8070
 0.4750	10.8020
 0.4760	10.8030
 0.4770	10.8110
 0.4780	10.8190
 0.4790	10.8090
 0.4800	10.7950
 0.4810	10.7960
 0.4820	10.8010
 0.4830	10.7960
 0.4840	10.7830
 0.4850	10.7800
 0.4860	10.7790
 0.4870	10.7820
 0.4880	10.7910
 0.4890	10.7830
 0.4900	10.7920
 0.4910	10.8140
 0.4920	10.8270
 0.4930	10.8560
 0.4940	10.8770
 0.4950	10.8880
 0.4960	10.9190
 0.4970	10.9480
 0.4980	10.9750
 0.4990	11.0030
 0.5000	11.0340
 0.5010	11.0600
 0.5020	11.0900
 0.5030	11.1450
 0.5040	11.1930
 0.5050	11.2440
 0.5060	11.3040
 0.5070	11.3660
 0.5080	11.4330
 0.5090	11.5060
 0.5100	11.5870
 0.5110	11.6770
 0.5120	11.7790
 0.5130	11.8920
 0.5140	12.0050
 0.5150	12.1370
 0.5160	12.2770
 0.5170	12.4150
 0.5180	12.5690
 0.5190	12.7340
 0.5200	12.9060
 0.5210	13.0820
 0.5220	13.2600
 0.5230	13.4500
 0.5240	13.6470
 0.5250	13.8210
 0.5260	13.9900
 0.5270	14.1610
 0.5280	14.3330
 0.5290	14.4930
 0.5300	14.6400
 0.5310	14.7760
 0.5320	14.9010
 0.5330	15.0150
 0.5340	15.1230
 0.5350	15.2250
 0.5360	15.3190
 0.5370	15.3990
 0.5380	15.4650
 0.5390	15.5210
 0.5400	15.5650
 0.5410	15.5990
 0.5420	15.6260
 0.5430	15.6460
 0.5440	15.6840
 0.5450	15.7360
 0.5460	15.7940
 0.5470	15.8800
 0.5480	15.9630
 0.5490	16.0240
 0.5500	16.0660
 0.5510	16.0900
 0.5520	16.1050
 0.5530	16.1180
 0.5540	16.1190
 0.5550	16.1030
 0.5560	16.0730
 0.5570	16.0410
 0.5580	15.9980
 0.5590	15.9370
 0.5600	15.8580
 0.5610	15.7730
 0.5620	15.6800
 0.5630	15.5770
 0.5640	15.4620
 0.5650	15.3360
 0.5660	15.2090
 0.5670	15.0840
 0.5680	14.9520
 0.5690	14.8240
 0.5700	14.6980
 0.5710	14.5690
 0.5720	14.4400
 0.5730	14.3210
 0.5740	14.2110
 0.5750	14.1040
 0.5760	13.9890
 0.5770	13.8870
 0.5780	13.8060
 0.5790	13.7220
 0.5800	13.6510
 0.5810	13.5850
 0.5820	13.5160
 0.5830	13.4510
 0.5840	13.4000
 0.5850	13.3590
 0.5860	13.3110
 0.5870	13.2590
 0.5880	13.2070
 0.5890	13.1600
 0.5900	13.1120
 0.5910	13.0690
 0.5920	13.0310
 0.5930	12.9960
 0.5940	12.9730
 0.5950	12.9570
 0.5960	12.9390
 0.5970	12.9150
 0.5980	12.8980
 0.5990	12.8800
 0.6000	12.8520
 0.6010	12.8250
 0.6020	12.7990
 0.6030	12.7700
 0.6040	12.7320
 0.6050	12.6920
 0.6060	12.6480
 0.6070	12.6010
 0.6080	12.5480
 0.6090	12.4820
 0.6100	12.3950
 0.6110	12.2920
 0.6120	12.2470
 0.6130	12.2330
 0.6140	12.2190
 0.6150	12.1830
 0.6160	12.1490
 0.6170	12.1180
 0.6180	12.0840
 0.6190	12.0540
 0.6200	12.0200
 0.6210	11.9880
 0.6220	11.9720
 0.6230	11.9580
 0.6240	11.9440
 0.6250	11.9310
 0.6260	11.9190
 0.6270	11.9110
 0.6280	11.9060
 0.6290	11.9000
 0.6300	11.8900
 0.6310	11.8810
 0.6320	11.8750
 0.6330	11.8700
 0.6340	11.8570
 0.6350	11.8370
 0.6360	11.8100
 0.6370	11.7760
 0.6380	11.7380
 0.6390	11.6940
 0.6400	11.6400
 0.6410	11.5900
 0.6420	11.5380
 0.6430	11.4820
 0.6440	11.4300
 0.6450	11.3800
 0.6460	11.3310
 0.6470	11.2800
 0.6480	11.2360
 0.6490	11.2000
 0.6500	11.1680
 0.6510	11.1360
 0.6520	11.1150
 0.6530	11.0970
 0.6540	11.0730
 0.6550	11.0540
 0.6560	11.0320
 0.6570	11.0090
 0.6580	10.9850
 0.6590	10.9550
 0.6600	10.9250
 0.6610	10.8980
 0.6620	10.8740
 0.6630	10.8480
 0.6640	10.8260
 0.6650	10.8100
 0.6660	10.7910
 0.6670	10.7800
 0.6680	10.7760
 0.6690	10.7730
 0.6700	10.7730
 0.6710	10.7780
 0.6720	10.7880
 0.6730	10.8000
 0.6740	10.8180
 0.6750	10.8390
 0.6760	10.8590
 0.6770	10.8770
 0.6780	10.9070
 0.6790	10.9460
 0.6800	10.9810
 0.6810	11.0270
 0.6820	11.0750
 0.6830	11.1240
 0.6840	11.1830
 0.6850	11.2580
 0.6860	11.3440
 0.6870	11.4380
 0.6880	11.5560
 0.6890	11.6990
 0.6900	11.8730
 0.6910	12.0830
 0.6920	12.3360
 0.6930	12.6450
 0.6940	13.0210
 0.6950	13.4720
 0.6960	14.0070
 0.6970	14.6230
 0.6980	15.3190
 0.6990	16.1120
 0.7000	16.9880
 0.7010	17.9350
 0.7020	18.9440
 0.7030	20.0260
 0.7040	21.1540
 0.7050	22.3070
 0.7060	23.5050
 0.7070	24.7250
 0.7080	25.9610
 0.7090	27.2190
 0.7100	28.4890
 0.7110	29.7550
 0.7120	31.0140
 0.7130	32.2770
 0.7140	33.5430
 0.7150	34.7910
 0.7160	36.0080
 0.7170	37.2220
 0.7180	38.4110
 0.7190	39.5760
 0.7200	40.7200
 0.7210	41.8310
 0.7220	42.9100
 0.7230	43.9610
 0.7240	44.9800
 0.7250	45.9590
 0.7260	46.8950
 0.7270	47.7900
 0.7280	48.6490
 0.7290	49.4710
 0.7300	50.2510
 0.7310	50.9860
 0.7320	51.6840
 0.7330	52.3420
 0.7340	52.9660
 0.7350	53.5680
 0.7360	54.1290
 0.7370	54.6480
 0.7380	55.1310
 0.7390	55.5770
 0.7400	56.0210
 0.7410	56.4490
 0.7420	56.8300
 0.7430	57.1760
 0.7440	57.4970
 0.7450	57.7990
 0.7460	58.0880
 0.7470	58.3480
 0.7480	58.5890
 0.7490	58.8160
 0.7500	59.0130
 0.7510	59.2010
 0.7520	59.3740
 0.7530	59.5220
 0.7540	59.6870
 0.7550	59.8190
 0.7560	59.9190
 0.7570	60.0300
 0.7580	60.1280
 0.7590	60.2190
 0.7600	60.3060
 0.7610	60.3860
 0.7620	60.4500
 0.7630	60.5050
 0.7640	60.5560
 0.7650	60.6040
 0.7660	60.6460
 0.7670	60.6830
 0.7680	60.7170
 0.7690	60.7500
 0.7700	60.7900
 0.7710	60.8310
 0.7720	60.8610
 0.7730	60.8810
 0.7740	60.8990
 0.7750	60.9230
 0.7760	60.9410
 0.7770	60.9520
 0.7780	60.9730
 0.7790	61.0190
 0.7800	61.0360
 0.7810	61.0370
 0.7820	61.0460
 0.7830	61.0850
 0.7840	61.1070
 0.7850	61.1220
 0.7860	61.1440
 0.7870	61.1680
 0.7880	61.1740
 0.7890	61.1810
 0.7900	61.2100
 0.7910	61.2230
 0.7920	61.2500
 0.7930	61.2780
 0.7940	61.2760
 0.7950	61.2870
 0.7960	61.3120
 0.7970	61.3350
 0.7980	61.3350
 0.7990	61.3650
 0.8000	61.4030
 0.8010	61.4260
 0.8020	61.4420
 0.8030	61.4580
 0.8040	61.4740
 0.8050	61.4860
 0.8060	61.5180
 0.8070	61.5320
 0.8080	61.5320
 0.8090	61.5630
 0.8100	61.5810
 0.8110	61.5950
 0.8120	61.6140
 0.8130	61.6320
 0.8140	61.6570
 0.8150	61.6830
 0.8160	61.7040
 0.8170	61.7070
 0.8180	61.7330
 0.8190	61.7700
 0.8200	61.7910
 0.8210	61.8080
 0.8220	61.8270
 0.8230	61.8460
 0.8240	61.8550
 0.8250	61.8830
 0.8260	61.8990
 0.8270	61.9030
 0.8280	61.9560
 0.8290	61.9740
 0.8300	61.9790
 0.8310	62.0010
 0.8320	62.0100
 0.8330	62.0200
 0.8340	62.0370
 0.8350	62.0590
 0.8360	62.0820
 0.8370	62.1030
 0.8380	62.1240
 0.8390	62.1530
 0.8400	62.1810
 0.8410	62.1940
 0.8420	62.1930
 0.8430	62.2000
 0.8440	62.2150
 0.8450	62.2440
 0.8460	62.2870
 0.8470	62.3300
 0.8480	62.3350
 0.8490	62.3250
 0.8500	62.3410
 0.8510	62.3790
 0.8520	62.4000
 0.8530	62.4020
 0.8540	62.4090
 0.8550	62.4370
 0.8560	62.4620
 0.8570	62.4750
 0.8580	62.4880
 0.8590	62.4860
 0.8600	62.5030
 0.8610	62.5400
 0.8620	62.5260
 0.8630	62.5170
 0.8640	62.5330
 0.8650	62.5700
 0.8660	62.5760
 0.8670	62.5850
 0.8680	62.6030
 0.8690	62.6160
 0.8700	62.5970
 0.8710	62.6130
 0.8720	62.6440
 0.8730	62.6320
 0.8740	62.6340
 0.8750	62.6410
 0.8760	62.6480
 0.8770	62.6600
 0.8780	62.6790
 0.8790	62.6810
 0.8800	62.6670
 0.8810	62.6810
 0.8820	62.6760
 0.8830	62.6680
 0.8840	62.6740
 0.8850	62.6770
 0.8860	62.6810
 0.8870	62.6850
 0.8880	62.6870
 0.8890	62.6940
 0.8900	62.7100
 0.8910	62.7220
 0.8920	62.7130
 0.8930	62.7030
 0.8940	62.6970
 0.8950	62.6930
 0.8960	62.6870
 0.8970	62.7010
 0.8980	62.7030
 0.8990	62.6880
 0.9000	62.6730
 0.9010	62.6640
 0.9020	62.6630
 0.9030	62.6690
 0.9040	62.6800
 0.9050	62.6850
 0.9060	62.6730
 0.9070	62.6480
 0.9080	62.6510
 0.9090	62.6650
 0.9100	62.6780
 0.9110	62.6790
 0.9120	62.6610
 0.9130	62.6460
 0.9140	62.6430
 0.9150	62.6510
 0.9160	62.6450
 0.9170	62.6420
 0.9180	62.6510
 0.9190	62.6680
 0.9200	62.6810
 0.9210	62.6500
 0.9220	62.6000
 0.9230	62.5840
 0.9240	62.5770
 0.9250	62.5770
 0.9260	62.5820
 0.9270	62.5880
 0.9280	62.5610
 0.9290	62.5420
 0.9300	62.5270
 0.9310	62.4750
 0.9320	62.4740
 0.9330	62.4810
 0.9340	62.4680
 0.9350	62.4510
 0.9360	62.4330
 0.9370	62.4060
 0.9380	62.3690
 0.9390	62.3380
 0.9400	62.3090
 0.9410	62.2900
 0.9420	62.2690
 0.9430	62.2010
 0.9440	62.1640
 0.9450	62.1430
 0.9460	62.1120
 0.9470	62.0700
 0.9480	62.0360
 0.9490	61.9900
 0.9500	61.9180
 0.9510	61.8600
 0.9520	61.7680
 0.9530	61.6770
 0.9540	61.6180
 0.9550	61.5390
 0.9560	61.4840
 0.9570	61.4360
 0.9580	61.3730
 0.9590	61.3240
 0.9600	61.2580
 0.9610	61.1900
 0.9620	61.1430
 0.9630	61.0970
 0.9640	61.0450
 0.9650	61.0110
 0.9660	61.0120
 0.9670	60.9680
 0.9680	60.9440
 0.9690	60.9500
 0.9700	60.9600
 0.9710	60.9230
 0.9720	60.8940
 0.9730	60.8820
 0.9740	60.8800
 0.9750	60.9040
 0.9760	60.8800
 0.9770	60.8500
 0.9780	60.8860
 0.9790	60.9200
 0.9800	60.9370
 0.9810	60.9240
 0.9820	60.8880
 0.9830	60.9330
 0.9840	60.9340
 0.9850	60.9100
 0.9860	60.9460
 0.9870	61.0360
 0.9880	61.0820
 0.9890	61.0860
 0.9900	61.1030
 0.9910	61.1440
 0.9920	61.1970
 0.9930	61.2500
 0.9940	61.3030
 0.9950	61.3560
 0.9960	61.4090
 0.9970	61.4620
 0.9980	61.5150
 0.9990	61.5670
 1.0000	61.6200
 1.0010	61.6730
 1.0020	61.7260
 1.0030	61.7790
 1.0040	61.8320
 1.0050	61.8850
 1.0060	61.9370
 1.0070	61.9900
 1.0080	62.0430
 1.0090	62.0960
 1.0100	62.0960
 1.0110	62.1220
 1.0120	62.1450
 1.0130	62.1590
 1.0140	62.1860
 1.0150	62.2180
 1.0160	62.2440
 1.0170	62.2780
 1.0180	62.3190
 1.0190	62.3580
 1.0200	62.3880
 1.0210	62.4230
 1.0220	62.4560
 1.0230	62.4880
 1.0240	62.5200
 1.0250	62.5520
 1.0260	62.5810
 1.0270	62.6110
 1.0280	62.6480
 1.0290	62.6710
 1.0300	62.6770
 1.0310	62.6990
 1.0320	62.7220
 1.0330	62.7420
 1.0340	62.7710
 1.0350	62.8160
 1.0360	62.8450
 1.0370	62.8560
 1.0380	62.8780
 1.0390	62.8980
 1.0400	62.9170
 1.0410	62.9380
 1.0420	62.9600
 1.0430	62.9850
 1.0440	63.0030
 1.0450	63.0260
 1.0460	63.0390
 1.0470	63.0310
 1.0480	63.0390
 1.0490	63.0520
 1.0500	63.0620
 1.0510	63.0740
 1.0520	63.0990
 1.0530	63.1130
 1.0540	63.1210
 1.0550	63.1340
 1.0560	63.1540
 1.0570	63.1630
 1.0580	63.1720
 1.0590	63.1750
 1.0600	63.1640
 1.0610	63.1650
 1.0620	63.1710
 1.0630	63.1760
 1.0640	63.1890
 1.0650	63.1960
 1.0660	63.2010
 1.0670	63.2030
 1.0680	63.2040
 1.0690	63.2020
 1.0700	63.2000
 1.0710	63.1970
 1.0720	63.1910
 1.0730	63.1820
 1.0740	63.1740
 1.0750	63.1620
 1.0760	63.1560
 1.0770	63.1560
 1.0780	63.1540
 1.0790	63.1600
 1.0800	63.1560
 1.0810	63.1470
 1.0820	63.1400
 1.0830	63.1270
 1.0840	63.1180
 1.0850	63.1120
 1.0860	63.1090
 1.0870	63.1030
 1.0880	63.1010
 1.0890	63.0890
 1.0900	63.0690
 1.0910	63.0620
 1.0920	63.0630
 1.0930	63.0520
 1.0940	63.0480
 1.0950	63.0330
 1.0960	62.9980
 1.0970	62.9780
 1.0980	62.9680
 1.0990	62.9500
 1.1000	62.9320
 1.1010	62.9140
 1.1020	62.8910
 1.1030	62.8700
 1.1040	62.8570
 1.1050	62.8420
 1.1060	62.8310
 1.1070	62.8280
 1.1080	62.8170
 1.1090	62.8080
 1.1100	62.7930
 1.1110	62.7730
 1.1120	62.7550
 1.1130	62.7360
 1.1140	62.7170
 1.1150	62.7040
 1.1160	62.6780
 1.1170	62.6510
 1.1180	62.6130
 1.1190	62.5620
 1.1200	62.5090
 1.1210	62.4520
 1.1220	62.3960
 1.1230	62.3420
 1.1240	62.2820
 1.1250	62.2150
 1.1260	62.1470
 1.1270	62.0690
 1.1280	61.9840
 1.1290	61.8930
 1.1300	61.7970
 1.1310	61.6930
 1.1320	61.5830
 1.1330	61.4630
 1.1340	61.3330
 1.1350	61.1940
 1.1360	61.0460
 1.1370	60.8870
 1.1380	60.7250
 1.1390	60.5590
 1.1400	60.3880
 1.1410	60.2190
 1.1420	60.0470
 1.1430	59.8700
 1.1440	59.6930
 1.1450	59.5090
 1.1460	59.3300
 1.1470	59.1460
 1.1480	58.9750
 1.1490	58.8060
 1.1500	58.6470
 1.1510	58.4960
 1.1520	58.3550
 1.1530	58.2210
 1.1540	58.0970
 1.1550	57.9840
 1.1560	57.8810
 1.1570	57.7800
 1.1580	57.6950
 1.1590	57.6160
 1.1600	57.5370
 1.1610	57.4750
 1.1620	57.4170
 1.1630	57.3630
 1.1640	57.3220
 1.1650	57.2810
 1.1660	57.2420
 1.1670	57.2090
 1.1680	57.1830
 1.1690	57.1570
 1.1700	57.1360
 1.1710	57.1120
 1.1720	57.0850
 1.1730	57.0630
 1.1740	57.0430
 1.1750	57.0260
 1.1760	57.0120
 1.1770	56.9960
 1.1780	56.9690
 1.1790	56.9420
 1.1800	56.9120
 1.1810	56.8750
 1.1820	56.8430
 1.1830	56.8140
 1.1840	56.7840
 1.1850	56.7530
 1.1860	56.7270
 1.1870	56.7070
 1.1880	56.6870
 1.1890	56.6700
 1.1900	56.6560
 1.1910	56.6430
 1.1920	56.6280
 1.1930	56.6170
 1.1940	56.6060
 1.1950	56.5940
 1.1960	56.5830
 1.1970	56.5770
 1.1980	56.5730
 1.1990	56.5750
 1.2000	56.5790
 1.2010	56.5910
 1.2020	56.6030
 1.2030	56.6190
 1.2040	56.6460
 1.2050	56.6730
 1.2060	56.7050
 1.2070	56.7370
 1.2080	56.7660
 1.2090	56.7970
 1.2100	56.8350
 1.2110	56.8780
 1.2120	56.9260
 1.2130	56.9760
 1.2140	57.0380
 1.2150	57.0920
 1.2160	57.1430
 1.2170	57.1980
 1.2180	57.2530
 1.2190	57.2990
 1.2200	57.3490
 1.2210	57.4030
 1.2220	57.4560
 1.2230	57.5080
 1.2240	57.5560
 1.2250	57.6080
 1.2260	57.6570
 1.2270	57.7040
 1.2280	57.7560
 1.2290	57.8040
 1.2300	57.8510
 1.2310	57.9010
 1.2320	57.9390
 1.2330	57.9780
 1.2340	58.0200
 1.2350	58.0640
 1.2360	58.1040
 1.2370	58.1480
 1.2380	58.1870
 1.2390	58.2190
 1.2400	58.2460
 1.2410	58.2790
 1.2420	58.3140
 1.2430	58.3460
 1.2440	58.3820
 1.2450	58.4120
 1.2460	58.4370
 1.2470	58.4620
 1.2480	58.4790
 1.2490	58.5000
 1.2500	58.5260
 1.2510	58.5510
 1.2520	58.5800
 1.2530	58.5980
 1.2540	58.6080
 1.2550	58.6190
 1.2560	58.6230
 1.2570	58.6310
 1.2580	58.6470
 1.2590	58.6630
 1.2600	58.6840
 1.2610	58.6990
 1.2620	58.7150
 1.2630	58.7230
 1.2640	58.7210
 1.2650	58.7260
 1.2660	58.7330
 1.2670	58.7280
 1.2680	58.7250
 1.2690	58.7180
 1.2700	58.7090
 1.2710	58.7080
 1.2720	58.7090
 1.2730	58.7030
 1.2740	58.6920
 1.2750	58.6780
 1.2760	58.6670
 1.2770	58.6590
 1.2780	58.6480
 1.2790	58.6340
 1.2800	58.6230
 1.2810	58.6090
 1.2820	58.5910
 1.2830	58.5750
 1.2840	58.5520
 1.2850	58.5260
 1.2860	58.5070
 1.2870	58.4790
 1.2880	58.4460
 1.2890	58.4120
 1.2900	58.3760
 1.2910	58.3250
 1.2920	58.2830
 1.2930	58.2390
 1.2940	58.1900
 1.2950	58.1500
 1.2960	58.1040
 1.2970	58.0550
 1.2980	58.0040
 1.2990	57.9420
 1.3000	57.8750
 1.3010	57.8050
 1.3020	57.7300
 1.3030	57.6560
 1.3040	57.5810
 1.3050	57.5000
 1.3060	57.4160
 1.3070	57.3250
 1.3080	57.2250
 1.3090	57.1260
 1.3100	57.0240
 1.3110	56.9160
 1.3120	56.8090
 1.3130	56.7000
 1.3140	56.5850
 1.3150	56.4670
 1.3160	56.3440
 1.3170	56.2160
 1.3180	56.0840
 1.3190	55.9490
 1.3200	55.8100
 1.3210	55.6640
 1.3220	55.5140
 1.3230	55.3650
 1.3240	55.2120
 1.3250	55.0640
 1.3260	54.9150
 1.3270	54.7500
 1.3280	54.5840
 1.3290	54.4150
 1.3300	54.2420
 1.3310	54.0780
 1.3320	53.9060
 1.3330	53.7260
 1.3340	53.5440
 1.3350	53.3570
 1.3360	53.1690
 1.3370	52.9830
 1.3380	52.7940
 1.3390	52.6020
 1.3400	52.4080
 1.3410	52.2180
 1.3420	52.0280
 1.3430	51.8390
 1.3440	51.6550
 1.3450	51.4710
 1.3460	51.2880
 1.3470	51.1110
 1.3480	50.9390
 1.3490	50.7650
 1.3500	50.5950
 1.3510	50.4220
 1.3520	50.2450
 1.3530	50.0690
 1.3540	49.8950
 1.3550	49.7230
 1.3560	49.5510
 1.3570	49.3800
 1.3580	49.2040
 1.3590	49.0220
 1.3600	48.8320
 1.3610	48.6370
 1.3620	48.4400
 1.3630	48.2390
 1.3640	48.0320
 1.3650	47.8150
 1.3660	47.5860
 1.3670	47.3430
 1.3680	47.0810
 1.3690	46.8080
 1.3700	46.5250
 1.3710	46.2270
 1.3720	45.9180
 1.3730	45.5880
 1.3740	45.2380
 1.3750	44.8700
 1.3760	44.4790
 1.3770	44.0620
 1.3780	43.6210
 1.3790	43.1550
 1.3800	42.6650
 1.3810	42.1510
 1.3820	41.6110
 1.3830	41.0470
 1.3840	40.4580
 1.3850	39.8390
 1.3860	39.2070
 1.3870	38.5510
 1.3880	37.8880
 1.3890	37.2100
 1.3900	36.5200
 1.3910	35.8310
 1.3920	35.1360
 1.3930	34.4380
 1.3940	33.7450
 1.3950	33.0460
 1.3960	32.3600
 1.3970	31.6890
 1.3980	31.0280
 1.3990	30.3940
 1.4000	29.7740
 1.4010	29.1700
 1.4020	28.5930
 1.4030	28.0360
 1.4040	27.5070
 1.4050	27.0080
 1.4060	26.5300
 1.4070	26.0820
 1.4080	25.6580
 1.4090	25.2560
 1.4100	24.8790
 1.4110	24.5260
 1.4120	24.1990
 1.4130	23.8950
 1.4140	23.6180
 1.4150	23.3680
 1.4160	23.1350
 1.4170	22.9190
 1.4180	22.7220
 1.4190	22.5410
 1.4200	22.3780
 1.4210	22.2310
 1.4220	22.0990
 1.4230	21.9810
 1.4240	21.8730
 1.4250	21.7760
 1.4260	21.6900
 1.4270	21.6130
 1.4280	21.5460
 1.4290	21.4880
 1.4300	21.4410
 1.4310	21.3980
 1.4320	21.3630
 1.4330	21.3340
 1.4340	21.3100
 1.4350	21.2930
 1.4360	21.2830
 1.4370	21.2770
 1.4380	21.2760
 1.4390	21.2810
 1.4400	21.2900
 1.4410	21.3020
 1.4420	21.3180
 1.4430	21.3370
 1.4440	21.3600
 1.4450	21.3850
 1.4460	21.4110
 1.4470	21.4420
 1.4480	21.4740
 1.4490	21.5060
 1.4500	21.5410
 1.4510	21.5750
 1.4520	21.6110
 1.4530	21.6470
 1.4540	21.6810
 1.4550	21.7150
 1.4560	21.7500
 1.4570	21.7920
 1.4580	21.8390
 1.4590	21.8900
 1.4600	21.9460
 1.4610	22.0030
 1.4620	22.0630
 1.4630	22.1310
 1.4640	22.2040
 1.4650	22.2840
 1.4660	22.3690
 1.4670	22.4580
 1.4680	22.5510
 1.4690	22.6490
