Name: Quercus lobata 2
Type: vegetation
Class: Tree
Genus: Quercus
Species: lobata
Sample No.: VH088
Owner: UCSB
Wavelength Range: VSWIR
Origin: 34.7146; -120.0588; WGS84
Collection Date: 4/21/2013
Description: Samples were collected as part of the HyspIRI Airborne Campaign. 48 individual plants were sampled in three times in 2013 - spring  summer  and fall. The name of the sample includes a 1  2  or 3 which references a different individual of the species. Samples were taken to JPL and processed within 48 hours of collection. The same leaves were processed in the Nicolet and then measured using the ASD.
Measurement: Bidirectional reflectance
First Column: X
Second Column: Y
X Units: Wavelength (micrometers)
Y Units: Reflectance (percentage)
First X Value: 0.35
Last X Value: 2.5
Number of X Values: 2151
Additional Information: vegetation.tree.quercus.lobata.vswir.vh088.ucsb.asd.ancillary.txt

 0.3500	 6.4700
 0.3510	 6.4760
 0.3520	 6.2450
 0.3530	 6.0370
 0.3540	 6.0500
 0.3550	 6.0440
 0.3560	 5.9870
 0.3570	 5.9360
 0.3580	 5.9840
 0.3590	 6.1260
 0.3600	 6.1570
 0.3610	 6.0080
 0.3620	 5.8080
 0.3630	 5.8590
 0.3640	 6.0170
 0.3650	 6.0770
 0.3660	 6.0900
 0.3670	 6.1000
 0.3680	 6.0870
 0.3690	 6.0040
 0.3700	 6.0560
 0.3710	 6.0710
 0.3720	 5.9740
 0.3730	 5.9490
 0.3740	 6.0160
 0.3750	 6.1160
 0.3760	 6.1720
 0.3770	 6.1870
 0.3780	 6.1960
 0.3790	 6.1780
 0.3800	 6.0840
 0.3810	 6.1560
 0.3820	 6.2500
 0.3830	 6.2490
 0.3840	 6.2250
 0.3850	 6.3130
 0.3860	 6.3870
 0.3870	 6.2860
 0.3880	 6.2610
 0.3890	 6.3060
 0.3900	 6.3800
 0.3910	 6.4210
 0.3920	 6.4400
 0.3930	 6.4370
 0.3940	 6.4290
 0.3950	 6.4740
 0.3960	 6.5440
 0.3970	 6.6220
 0.3980	 6.6970
 0.3990	 6.7530
 0.4000	 6.7900
 0.4010	 6.8230
 0.4020	 6.8880
 0.4030	 6.9340
 0.4040	 6.9750
 0.4050	 7.0340
 0.4060	 7.1300
 0.4070	 7.2110
 0.4080	 7.2620
 0.4090	 7.2990
 0.4100	 7.3720
 0.4110	 7.4620
 0.4120	 7.5460
 0.4130	 7.6070
 0.4140	 7.6910
 0.4150	 7.7620
 0.4160	 7.7850
 0.4170	 7.8630
 0.4180	 7.9390
 0.4190	 7.9930
 0.4200	 8.0430
 0.4210	 8.1180
 0.4220	 8.1850
 0.4230	 8.2280
 0.4240	 8.3050
 0.4250	 8.3640
 0.4260	 8.4060
 0.4270	 8.4530
 0.4280	 8.4960
 0.4290	 8.5400
 0.4300	 8.5840
 0.4310	 8.6210
 0.4320	 8.6560
 0.4330	 8.6790
 0.4340	 8.6850
 0.4350	 8.7170
 0.4360	 8.7460
 0.4370	 8.7710
 0.4380	 8.8090
 0.4390	 8.8260
 0.4400	 8.8470
 0.4410	 8.8850
 0.4420	 8.9120
 0.4430	 8.9270
 0.4440	 8.9380
 0.4450	 8.9530
 0.4460	 8.9680
 0.4470	 8.9810
 0.4480	 8.9930
 0.4490	 9.0160
 0.4500	 9.0200
 0.4510	 9.0240
 0.4520	 9.0420
 0.4530	 9.0580
 0.4540	 9.0640
 0.4550	 9.0690
 0.4560	 9.0920
 0.4570	 9.1020
 0.4580	 9.1120
 0.4590	 9.1270
 0.4600	 9.1260
 0.4610	 9.1250
 0.4620	 9.1280
 0.4630	 9.1320
 0.4640	 9.1440
 0.4650	 9.1520
 0.4660	 9.1510
 0.4670	 9.1500
 0.4680	 9.1570
 0.4690	 9.1620
 0.4700	 9.1570
 0.4710	 9.1580
 0.4720	 9.1540
 0.4730	 9.1490
 0.4740	 9.1530
 0.4750	 9.1510
 0.4760	 9.1490
 0.4770	 9.1490
 0.4780	 9.1470
 0.4790	 9.1560
 0.4800	 9.1630
 0.4810	 9.1580
 0.4820	 9.1750
 0.4830	 9.1760
 0.4840	 9.1650
 0.4850	 9.1840
 0.4860	 9.1960
 0.4870	 9.1940
 0.4880	 9.1890
 0.4890	 9.2130
 0.4900	 9.2340
 0.4910	 9.2490
 0.4920	 9.2670
 0.4930	 9.2760
 0.4940	 9.2880
 0.4950	 9.3100
 0.4960	 9.3400
 0.4970	 9.3630
 0.4980	 9.3880
 0.4990	 9.4260
 0.5000	 9.4670
 0.5010	 9.5060
 0.5020	 9.5450
 0.5030	 9.5960
 0.5040	 9.6560
 0.5050	 9.7260
 0.5060	 9.8060
 0.5070	 9.8870
 0.5080	 9.9760
 0.5090	10.0760
 0.5100	10.1880
 0.5110	10.3130
 0.5120	10.4560
 0.5130	10.6150
 0.5140	10.7830
 0.5150	10.9670
 0.5160	11.1680
 0.5170	11.3820
 0.5180	11.6020
 0.5190	11.8400
 0.5200	12.0900
 0.5210	12.3370
 0.5220	12.5980
 0.5230	12.8640
 0.5240	13.1250
 0.5250	13.3830
 0.5260	13.6350
 0.5270	13.8780
 0.5280	14.1160
 0.5290	14.3390
 0.5300	14.5490
 0.5310	14.7450
 0.5320	14.9300
 0.5330	15.1060
 0.5340	15.2680
 0.5350	15.4120
 0.5360	15.5530
 0.5370	15.6850
 0.5380	15.8020
 0.5390	15.9020
 0.5400	16.0050
 0.5410	16.1050
 0.5420	16.1960
 0.5430	16.2810
 0.5440	16.3660
 0.5450	16.4480
 0.5460	16.5230
 0.5470	16.5970
 0.5480	16.6590
 0.5490	16.7090
 0.5500	16.7630
 0.5510	16.8030
 0.5520	16.8250
 0.5530	16.8310
 0.5540	16.8220
 0.5550	16.7960
 0.5560	16.7540
 0.5570	16.6910
 0.5580	16.6120
 0.5590	16.5230
 0.5600	16.4260
 0.5610	16.3140
 0.5620	16.1910
 0.5630	16.0580
 0.5640	15.9190
 0.5650	15.7800
 0.5660	15.6440
 0.5670	15.5050
 0.5680	15.3500
 0.5690	15.1810
 0.5700	15.0080
 0.5710	14.8430
 0.5720	14.6870
 0.5730	14.5280
 0.5740	14.3650
 0.5750	14.2050
 0.5760	14.0480
 0.5770	13.8990
 0.5780	13.7640
 0.5790	13.6430
 0.5800	13.5320
 0.5810	13.4290
 0.5820	13.3360
 0.5830	13.2570
 0.5840	13.1820
 0.5850	13.1080
 0.5860	13.0450
 0.5870	12.9870
 0.5880	12.9310
 0.5890	12.8740
 0.5900	12.8130
 0.5910	12.7580
 0.5920	12.7170
 0.5930	12.6930
 0.5940	12.6670
 0.5950	12.6430
 0.5960	12.6240
 0.5970	12.6010
 0.5980	12.5720
 0.5990	12.5420
 0.6000	12.5130
 0.6010	12.4760
 0.6020	12.4350
 0.6030	12.3890
 0.6040	12.3340
 0.6050	12.2660
 0.6060	12.1950
 0.6070	12.1260
 0.6080	12.0440
 0.6090	11.9590
 0.6100	11.8730
 0.6110	11.7840
 0.6120	11.6950
 0.6130	11.6090
 0.6140	11.5300
 0.6150	11.4520
 0.6160	11.3720
 0.6170	11.2990
 0.6180	11.2400
 0.6190	11.1750
 0.6200	11.1180
 0.6210	11.0730
 0.6220	11.0320
 0.6230	10.9950
 0.6240	10.9640
 0.6250	10.9410
 0.6260	10.9210
 0.6270	10.9030
 0.6280	10.8890
 0.6290	10.8820
 0.6300	10.8700
 0.6310	10.8590
 0.6320	10.8500
 0.6330	10.8410
 0.6340	10.8230
 0.6350	10.8000
 0.6360	10.7730
 0.6370	10.7370
 0.6380	10.6920
 0.6390	10.6390
 0.6400	10.5840
 0.6410	10.5230
 0.6420	10.4560
 0.6430	10.3840
 0.6440	10.3120
 0.6450	10.2450
 0.6460	10.1770
 0.6470	10.1070
 0.6480	10.0430
 0.6490	 9.9900
 0.6500	 9.9430
 0.6510	 9.8970
 0.6520	 9.8560
 0.6530	 9.8200
 0.6540	 9.7840
 0.6550	 9.7400
 0.6560	 9.6960
 0.6570	 9.6510
 0.6580	 9.5990
 0.6590	 9.5460
 0.6600	 9.4970
 0.6610	 9.4510
 0.6620	 9.4030
 0.6630	 9.3580
 0.6640	 9.3190
 0.6650	 9.2870
 0.6660	 9.2590
 0.6670	 9.2370
 0.6680	 9.2210
 0.6690	 9.2140
 0.6700	 9.2050
 0.6710	 9.2010
 0.6720	 9.2030
 0.6730	 9.2060
 0.6740	 9.2130
 0.6750	 9.2220
 0.6760	 9.2320
 0.6770	 9.2500
 0.6780	 9.2670
 0.6790	 9.2830
 0.6800	 9.3070
 0.6810	 9.3360
 0.6820	 9.3710
 0.6830	 9.4130
 0.6840	 9.4580
 0.6850	 9.5160
 0.6860	 9.5890
 0.6870	 9.6810
 0.6880	 9.7990
 0.6890	 9.9520
 0.6900	10.1470
 0.6910	10.3920
 0.6920	10.7020
 0.6930	11.0780
 0.6940	11.5230
 0.6950	12.0460
 0.6960	12.6400
 0.6970	13.3030
 0.6980	14.0360
 0.6990	14.8250
 0.7000	15.6690
 0.7010	16.5550
 0.7020	17.4620
 0.7030	18.3890
 0.7040	19.3290
 0.7050	20.2700
 0.7060	21.2090
 0.7070	22.1480
 0.7080	23.0800
 0.7090	24.0040
 0.7100	24.9270
 0.7110	25.8440
 0.7120	26.7540
 0.7130	27.6550
 0.7140	28.5480
 0.7150	29.4300
 0.7160	30.3000
 0.7170	31.1630
 0.7180	32.0110
 0.7190	32.8430
 0.7200	33.6630
 0.7210	34.4630
 0.7220	35.2400
 0.7230	35.9940
 0.7240	36.7330
 0.7250	37.4370
 0.7260	38.1160
 0.7270	38.7770
 0.7280	39.3990
 0.7290	39.9950
 0.7300	40.5710
 0.7310	41.1250
 0.7320	41.6400
 0.7330	42.1230
 0.7340	42.5810
 0.7350	43.0150
 0.7360	43.4220
 0.7370	43.8060
 0.7380	44.1690
 0.7390	44.5120
 0.7400	44.8290
 0.7410	45.1230
 0.7420	45.3970
 0.7430	45.6480
 0.7440	45.8810
 0.7450	46.1010
 0.7460	46.3120
 0.7470	46.5000
 0.7480	46.6710
 0.7490	46.8300
 0.7500	46.9890
 0.7510	47.1170
 0.7520	47.2270
 0.7530	47.3370
 0.7540	47.4470
 0.7550	47.5450
 0.7560	47.6320
 0.7570	47.7170
 0.7580	47.7900
 0.7590	47.8550
 0.7600	47.9180
 0.7610	47.9720
 0.7620	48.0240
 0.7630	48.0700
 0.7640	48.1070
 0.7650	48.1580
 0.7660	48.1980
 0.7670	48.2260
 0.7680	48.2560
 0.7690	48.2890
 0.7700	48.3250
 0.7710	48.3600
 0.7720	48.3800
 0.7730	48.3950
 0.7740	48.4160
 0.7750	48.4490
 0.7760	48.4770
 0.7770	48.4970
 0.7780	48.5130
 0.7790	48.5350
 0.7800	48.5510
 0.7810	48.5680
 0.7820	48.5860
 0.7830	48.6010
 0.7840	48.6200
 0.7850	48.6400
 0.7860	48.6560
 0.7870	48.6730
 0.7880	48.6830
 0.7890	48.6910
 0.7900	48.7040
 0.7910	48.7170
 0.7920	48.7300
 0.7930	48.7440
 0.7940	48.7560
 0.7950	48.7660
 0.7960	48.7750
 0.7970	48.7810
 0.7980	48.7750
 0.7990	48.7880
 0.8000	48.7980
 0.8010	48.7890
 0.8020	48.8080
 0.8030	48.8140
 0.8040	48.8060
 0.8050	48.8030
 0.8060	48.8080
 0.8070	48.8120
 0.8080	48.8090
 0.8090	48.8030
 0.8100	48.7950
 0.8110	48.7890
 0.8120	48.7860
 0.8130	48.7840
 0.8140	48.7840
 0.8150	48.7860
 0.8160	48.7850
 0.8170	48.7740
 0.8180	48.7660
 0.8190	48.7600
 0.8200	48.7510
 0.8210	48.7390
 0.8220	48.7320
 0.8230	48.7290
 0.8240	48.7310
 0.8250	48.7280
 0.8260	48.7200
 0.8270	48.7110
 0.8280	48.7010
 0.8290	48.6930
 0.8300	48.6850
 0.8310	48.6710
 0.8320	48.6620
 0.8330	48.6600
 0.8340	48.6580
 0.8350	48.6490
 0.8360	48.6420
 0.8370	48.6400
 0.8380	48.6420
 0.8390	48.6420
 0.8400	48.6400
 0.8410	48.6320
 0.8420	48.6220
 0.8430	48.6280
 0.8440	48.6280
 0.8450	48.6260
 0.8460	48.6270
 0.8470	48.6250
 0.8480	48.6300
 0.8490	48.6370
 0.8500	48.6390
 0.8510	48.6320
 0.8520	48.6350
 0.8530	48.6410
 0.8540	48.6370
 0.8550	48.6370
 0.8560	48.6490
 0.8570	48.6650
 0.8580	48.6660
 0.8590	48.6700
 0.8600	48.6710
 0.8610	48.6690
 0.8620	48.6790
 0.8630	48.6870
 0.8640	48.6890
 0.8650	48.6870
 0.8660	48.6910
 0.8670	48.6980
 0.8680	48.7050
 0.8690	48.7110
 0.8700	48.7250
 0.8710	48.7340
 0.8720	48.7380
 0.8730	48.7410
 0.8740	48.7490
 0.8750	48.7580
 0.8760	48.7640
 0.8770	48.7700
 0.8780	48.7830
 0.8790	48.7880
 0.8800	48.7860
 0.8810	48.8060
 0.8820	48.8120
 0.8830	48.8060
 0.8840	48.8030
 0.8850	48.8210
 0.8860	48.8440
 0.8870	48.8610
 0.8880	48.8650
 0.8890	48.8730
 0.8900	48.8780
 0.8910	48.8760
 0.8920	48.8720
 0.8930	48.8800
 0.8940	48.8910
 0.8950	48.8970
 0.8960	48.8980
 0.8970	48.9170
 0.8980	48.9350
 0.8990	48.9430
 0.9000	48.9420
 0.9010	48.9520
 0.9020	48.9680
 0.9030	48.9800
 0.9040	48.9760
 0.9050	48.9800
 0.9060	48.9940
 0.9070	49.0070
 0.9080	49.0000
 0.9090	49.0010
 0.9100	49.0100
 0.9110	49.0190
 0.9120	49.0210
 0.9130	49.0260
 0.9140	49.0270
 0.9150	49.0240
 0.9160	49.0500
 0.9170	49.0600
 0.9180	49.0570
 0.9190	49.0630
 0.9200	49.0750
 0.9210	49.0720
 0.9220	49.0590
 0.9230	49.0500
 0.9240	49.0430
 0.9250	49.0440
 0.9260	49.0480
 0.9270	49.0470
 0.9280	49.0390
 0.9290	49.0270
 0.9300	49.0160
 0.9310	49.0130
 0.9320	48.9860
 0.9330	48.9710
 0.9340	48.9710
 0.9350	48.9460
 0.9360	48.9200
 0.9370	48.9050
 0.9380	48.8980
 0.9390	48.8680
 0.9400	48.8460
 0.9410	48.8370
 0.9420	48.8280
 0.9430	48.7930
 0.9440	48.7650
 0.9450	48.7400
 0.9460	48.7070
 0.9470	48.6590
 0.9480	48.6230
 0.9490	48.5840
 0.9500	48.5290
 0.9510	48.4810
 0.9520	48.4170
 0.9530	48.3620
 0.9540	48.3350
 0.9550	48.2940
 0.9560	48.2420
 0.9570	48.1850
 0.9580	48.1250
 0.9590	48.0570
 0.9600	48.0010
 0.9610	47.9660
 0.9620	47.9470
 0.9630	47.9280
 0.9640	47.8940
 0.9650	47.8590
 0.9660	47.8410
 0.9670	47.8070
 0.9680	47.7810
 0.9690	47.7690
 0.9700	47.7600
 0.9710	47.7380
 0.9720	47.7280
 0.9730	47.7260
 0.9740	47.7150
 0.9750	47.7080
 0.9760	47.7110
 0.9770	47.7060
 0.9780	47.6820
 0.9790	47.6960
 0.9800	47.7090
 0.9810	47.7070
 0.9820	47.6950
 0.9830	47.6980
 0.9840	47.6870
 0.9850	47.6850
 0.9860	47.7230
 0.9870	47.7090
 0.9880	47.7020
 0.9890	47.7240
 0.9900	47.7570
 0.9910	47.7410
 0.9920	47.7780
 0.9930	47.8150
 0.9940	47.8520
 0.9950	47.8890
 0.9960	47.9260
 0.9970	47.9620
 0.9980	47.9990
 0.9990	48.0360
 1.0000	48.0730
 1.0010	48.1100
 1.0020	48.1470
 1.0030	48.1840
 1.0040	48.2210
 1.0050	48.2580
 1.0060	48.2950
 1.0070	48.3320
 1.0080	48.3690
 1.0090	48.4060
 1.0100	48.4060
 1.0110	48.4270
 1.0120	48.4440
 1.0130	48.4570
 1.0140	48.4690
 1.0150	48.4820
 1.0160	48.4930
 1.0170	48.5020
 1.0180	48.5130
 1.0190	48.5310
 1.0200	48.5500
 1.0210	48.5650
 1.0220	48.5840
 1.0230	48.5990
 1.0240	48.6100
 1.0250	48.6220
 1.0260	48.6320
 1.0270	48.6440
 1.0280	48.6540
 1.0290	48.6670
 1.0300	48.6800
 1.0310	48.6940
 1.0320	48.7090
 1.0330	48.7240
 1.0340	48.7390
 1.0350	48.7480
 1.0360	48.7570
 1.0370	48.7680
 1.0380	48.7790
 1.0390	48.7930
 1.0400	48.8030
 1.0410	48.8120
 1.0420	48.8210
 1.0430	48.8300
 1.0440	48.8380
 1.0450	48.8470
 1.0460	48.8540
 1.0470	48.8590
 1.0480	48.8660
 1.0490	48.8760
 1.0500	48.8840
 1.0510	48.8910
 1.0520	48.8970
 1.0530	48.9030
 1.0540	48.9070
 1.0550	48.9130
 1.0560	48.9210
 1.0570	48.9250
 1.0580	48.9260
 1.0590	48.9310
 1.0600	48.9350
 1.0610	48.9400
 1.0620	48.9510
 1.0630	48.9580
 1.0640	48.9660
 1.0650	48.9700
 1.0660	48.9710
 1.0670	48.9740
 1.0680	48.9770
 1.0690	48.9790
 1.0700	48.9830
 1.0710	48.9920
 1.0720	48.9940
 1.0730	48.9920
 1.0740	48.9930
 1.0750	48.9890
 1.0760	48.9900
 1.0770	48.9970
 1.0780	48.9990
 1.0790	48.9980
 1.0800	48.9980
 1.0810	48.9940
 1.0820	48.9920
 1.0830	48.9910
 1.0840	48.9900
 1.0850	48.9900
 1.0860	48.9880
 1.0870	48.9860
 1.0880	48.9860
 1.0890	48.9820
 1.0900	48.9750
 1.0910	48.9710
 1.0920	48.9680
 1.0930	48.9630
 1.0940	48.9610
 1.0950	48.9550
 1.0960	48.9480
 1.0970	48.9390
 1.0980	48.9240
 1.0990	48.9130
 1.1000	48.9040
 1.1010	48.8930
 1.1020	48.8860
 1.1030	48.8780
 1.1040	48.8660
 1.1050	48.8550
 1.1060	48.8430
 1.1070	48.8310
 1.1080	48.8190
 1.1090	48.8090
 1.1100	48.7960
 1.1110	48.7840
 1.1120	48.7690
 1.1130	48.7540
 1.1140	48.7360
 1.1150	48.7170
 1.1160	48.6970
 1.1170	48.6770
 1.1180	48.6560
 1.1190	48.6350
 1.1200	48.6110
 1.1210	48.5830
 1.1220	48.5510
 1.1230	48.5170
 1.1240	48.4800
 1.1250	48.4410
 1.1260	48.4020
 1.1270	48.3560
 1.1280	48.3090
 1.1290	48.2530
 1.1300	48.1900
 1.1310	48.1240
 1.1320	48.0530
 1.1330	47.9770
 1.1340	47.8960
 1.1350	47.8100
 1.1360	47.7190
 1.1370	47.6200
 1.1380	47.5180
 1.1390	47.4110
 1.1400	47.2960
 1.1410	47.1800
 1.1420	47.0640
 1.1430	46.9440
 1.1440	46.8230
 1.1450	46.6980
 1.1460	46.5770
 1.1470	46.4530
 1.1480	46.3370
 1.1490	46.2240
 1.1500	46.1180
 1.1510	46.0150
 1.1520	45.9200
 1.1530	45.8320
 1.1540	45.7500
 1.1550	45.6750
 1.1560	45.6090
 1.1570	45.5480
 1.1580	45.4940
 1.1590	45.4460
 1.1600	45.4020
 1.1610	45.3620
 1.1620	45.3310
 1.1630	45.3030
 1.1640	45.2770
 1.1650	45.2560
 1.1660	45.2390
 1.1670	45.2210
 1.1680	45.2050
 1.1690	45.1920
 1.1700	45.1810
 1.1710	45.1710
 1.1720	45.1620
 1.1730	45.1530
 1.1740	45.1440
 1.1750	45.1340
 1.1760	45.1240
 1.1770	45.1140
 1.1780	45.1030
 1.1790	45.0920
 1.1800	45.0820
 1.1810	45.0700
 1.1820	45.0590
 1.1830	45.0460
 1.1840	45.0320
 1.1850	45.0220
 1.1860	45.0110
 1.1870	44.9980
 1.1880	44.9880
 1.1890	44.9790
 1.1900	44.9700
 1.1910	44.9620
 1.1920	44.9550
 1.1930	44.9490
 1.1940	44.9450
 1.1950	44.9430
 1.1960	44.9400
 1.1970	44.9400
 1.1980	44.9410
 1.1990	44.9420
 1.2000	44.9440
 1.2010	44.9460
 1.2020	44.9500
 1.2030	44.9560
 1.2040	44.9630
 1.2050	44.9740
 1.2060	44.9850
 1.2070	44.9950
 1.2080	45.0070
 1.2090	45.0160
 1.2100	45.0270
 1.2110	45.0410
 1.2120	45.0550
 1.2130	45.0710
 1.2140	45.0910
 1.2150	45.1090
 1.2160	45.1270
 1.2170	45.1450
 1.2180	45.1630
 1.2190	45.1820
 1.2200	45.1990
 1.2210	45.2170
 1.2220	45.2360
 1.2230	45.2550
 1.2240	45.2740
 1.2250	45.2930
 1.2260	45.3120
 1.2270	45.3300
 1.2280	45.3480
 1.2290	45.3670
 1.2300	45.3830
 1.2310	45.3990
 1.2320	45.4160
 1.2330	45.4310
 1.2340	45.4460
 1.2350	45.4600
 1.2360	45.4750
 1.2370	45.4890
 1.2380	45.5040
 1.2390	45.5180
 1.2400	45.5310
 1.2410	45.5430
 1.2420	45.5530
 1.2430	45.5630
 1.2440	45.5740
 1.2450	45.5830
 1.2460	45.5930
 1.2470	45.6040
 1.2480	45.6130
 1.2490	45.6200
 1.2500	45.6270
 1.2510	45.6350
 1.2520	45.6410
 1.2530	45.6480
 1.2540	45.6580
 1.2550	45.6650
 1.2560	45.6710
 1.2570	45.6760
 1.2580	45.6780
 1.2590	45.6800
 1.2600	45.6800
 1.2610	45.6810
 1.2620	45.6820
 1.2630	45.6820
 1.2640	45.6810
 1.2650	45.6790
 1.2660	45.6760
 1.2670	45.6730
 1.2680	45.6700
 1.2690	45.6660
 1.2700	45.6590
 1.2710	45.6500
 1.2720	45.6380
 1.2730	45.6270
 1.2740	45.6160
 1.2750	45.6030
 1.2760	45.5940
 1.2770	45.5810
 1.2780	45.5670
 1.2790	45.5520
 1.2800	45.5360
 1.2810	45.5190
 1.2820	45.5020
 1.2830	45.4840
 1.2840	45.4660
 1.2850	45.4460
 1.2860	45.4230
 1.2870	45.3990
 1.2880	45.3760
 1.2890	45.3480
 1.2900	45.3180
 1.2910	45.2880
 1.2920	45.2550
 1.2930	45.2230
 1.2940	45.1900
 1.2950	45.1570
 1.2960	45.1190
 1.2970	45.0800
 1.2980	45.0420
 1.2990	45.0010
 1.3000	44.9570
 1.3010	44.9140
 1.3020	44.8670
 1.3030	44.8160
 1.3040	44.7630
 1.3050	44.7090
 1.3060	44.6540
 1.3070	44.5960
 1.3080	44.5350
 1.3090	44.4670
 1.3100	44.3970
 1.3110	44.3240
 1.3120	44.2480
 1.3130	44.1720
 1.3140	44.0910
 1.3150	44.0060
 1.3160	43.9200
 1.3170	43.8310
 1.3180	43.7380
 1.3190	43.6430
 1.3200	43.5430
 1.3210	43.4400
 1.3220	43.3350
 1.3230	43.2260
 1.3240	43.1130
 1.3250	43.0000
 1.3260	42.8830
 1.3270	42.7670
 1.3280	42.6480
 1.3290	42.5250
 1.3300	42.4010
 1.3310	42.2740
 1.3320	42.1440
 1.3330	42.0170
 1.3340	41.8880
 1.3350	41.7550
 1.3360	41.6240
 1.3370	41.4920
 1.3380	41.3590
 1.3390	41.2280
 1.3400	41.0990
 1.3410	40.9690
 1.3420	40.8420
 1.3430	40.7150
 1.3440	40.5870
 1.3450	40.4610
 1.3460	40.3340
 1.3470	40.2090
 1.3480	40.0850
 1.3490	39.9620
 1.3500	39.8420
 1.3510	39.7230
 1.3520	39.6010
 1.3530	39.4810
 1.3540	39.3600
 1.3550	39.2400
 1.3560	39.1220
 1.3570	39.0030
 1.3580	38.8840
 1.3590	38.7610
 1.3600	38.6340
 1.3610	38.5040
 1.3620	38.3700
 1.3630	38.2330
 1.3640	38.0920
 1.3650	37.9440
 1.3660	37.7900
 1.3670	37.6280
 1.3680	37.4540
 1.3690	37.2700
 1.3700	37.0730
 1.3710	36.8650
 1.3720	36.6420
 1.3730	36.4030
 1.3740	36.1500
 1.3750	35.8790
 1.3760	35.5880
 1.3770	35.2770
 1.3780	34.9400
 1.3790	34.5820
 1.3800	34.2040
 1.3810	33.8030
 1.3820	33.3840
 1.3830	32.9460
 1.3840	32.4900
 1.3850	32.0150
 1.3860	31.5260
 1.3870	31.0160
 1.3880	30.5010
 1.3890	29.9710
 1.3900	29.4320
 1.3910	28.8920
 1.3920	28.3470
 1.3930	27.7980
 1.3940	27.2520
 1.3950	26.7040
 1.3960	26.1630
 1.3970	25.6330
 1.3980	25.1120
 1.3990	24.6100
 1.4000	24.1230
 1.4010	23.6480
 1.4020	23.1940
 1.4030	22.7540
 1.4040	22.3340
 1.4050	21.9360
 1.4060	21.5570
 1.4070	21.2030
 1.4080	20.8680
 1.4090	20.5530
 1.4100	20.2610
 1.4110	19.9880
 1.4120	19.7330
 1.4130	19.4970
 1.4140	19.2770
 1.4150	19.0760
 1.4160	18.8900
 1.4170	18.7200
 1.4180	18.5650
 1.4190	18.4220
 1.4200	18.2930
 1.4210	18.1760
 1.4220	18.0680
 1.4230	17.9720
 1.4240	17.8830
 1.4250	17.8020
 1.4260	17.7300
 1.4270	17.6640
 1.4280	17.6060
 1.4290	17.5540
 1.4300	17.5100
 1.4310	17.4700
 1.4320	17.4360
 1.4330	17.4050
 1.4340	17.3800
 1.4350	17.3580
 1.4360	17.3410
 1.4370	17.3270
 1.4380	17.3170
 1.4390	17.3100
 1.4400	17.3050
 1.4410	17.3030
 1.4420	17.3030
 1.4430	17.3060
 1.4440	17.3120
 1.4450	17.3180
 1.4460	17.3250
 1.4470	17.3350
 1.4480	17.3450
 1.4490	17.3570
 1.4500	17.3710
 1.4510	17.3850
 1.4520	17.4000
 1.4530	17.4170
 1.4540	17.4360
 1.4550	17.4580
 1.4560	17.4800
 1.4570	17.5050
 1.4580	17.5310
 1.4590	17.5600
 1.4600	17.5930
 1.4610	17.6300
 1.4620	17.6710
 1.4630	17.7170
 1.4640	17.7670
 1.4650	17.8210
 1.4660	17.8800
 1.4670	17.9430
 1.4680	18.0100
 1.4690	18.0820
 1.4700	18.1580
