Name: Quercus agrifolia 2
Type: vegetation
Class: Tree
Genus: Quercus
Species: agrifolia
Sample No.: VH175
Owner: UCSB
Wavelength Range: TIR
Origin: 34.7156; -120.0603; WGS84
Collection Date: 6/9/2013
Description: Samples were collected as part of the HyspIRI Airborne Campaign. 48 individual plants were sampled in three times in 2013 - spring  summer  and fall. The name of the sample includes a 1  2  or 3 which references a different individual of the species. Samples were taken to JPL and processed within 48 hours of collection. The same leaves were processed in the Nicolet and then measured using the ASD.
Measurement: Hemispherical reflectance
First Column: X
Second Column: Y
X Units: Wavelength (micrometers)
Y Units: Reflectance (percentage)
First X Value: 2.501
Last X Value: 15.387
Number of X Values: 1737
Additional Information: vegetation.tree.quercus.agrifolia.tir.vh175.ucsb.nicolet.ancillary.txt

 2.5010	 7.0230
 2.5030	 6.9040
 2.5040	 6.9280
 2.5050	 6.6280
 2.5060	 6.7080
 2.5070	 6.7250
 2.5090	 6.8100
 2.5100	 6.9660
 2.5110	 6.9760
 2.5120	 6.7590
 2.5140	 6.6860
 2.5150	 6.7170
 2.5160	 6.8030
 2.5170	 6.7320
 2.5180	 6.5930
 2.5200	 6.6360
 2.5210	 6.7990
 2.5220	 6.8190
 2.5230	 6.8490
 2.5250	 6.8110
 2.5260	 6.8680
 2.5270	 6.8220
 2.5280	 6.7780
 2.5290	 6.6120
 2.5310	 6.6500
 2.5320	 6.7230
 2.5330	 6.8500
 2.5340	 6.9070
 2.5360	 6.7940
 2.5370	 6.6730
 2.5380	 6.7480
 2.5390	 6.7160
 2.5410	 6.7170
 2.5420	 6.6950
 2.5430	 6.7370
 2.5440	 6.7440
 2.5460	 6.7540
 2.5470	 6.7380
 2.5480	 6.7960
 2.5490	 6.7420
 2.5510	 6.8350
 2.5520	 6.8540
 2.5530	 6.8520
 2.5540	 6.8490
 2.5560	 6.7370
 2.5570	 6.6250
 2.5580	 6.8210
 2.5590	 6.8150
 2.5610	 6.8000
 2.5620	 6.8060
 2.5630	 6.8250
 2.5640	 6.7970
 2.5660	 6.8400
 2.5670	 6.7980
 2.5680	 6.7600
 2.5700	 6.7080
 2.5710	 6.8090
 2.5720	 6.8750
 2.5730	 6.9400
 2.5750	 6.8920
 2.5760	 6.7680
 2.5770	 6.6190
 2.5790	 6.8170
 2.5800	 7.0550
 2.5810	 7.0210
 2.5820	 6.8950
 2.5840	 6.9850
 2.5850	 6.9320
 2.5860	 6.6120
 2.5880	 6.5490
 2.5890	 6.7470
 2.5900	 6.9010
 2.5910	 6.8460
 2.5930	 6.6490
 2.5940	 6.6420
 2.5950	 6.7360
 2.5970	 6.7100
 2.5980	 6.6750
 2.5990	 6.7630
 2.6000	 6.6910
 2.6020	 6.6620
 2.6030	 6.7130
 2.6040	 6.7940
 2.6060	 6.6840
 2.6070	 6.6130
 2.6080	 6.5900
 2.6100	 6.5590
 2.6110	 6.4790
 2.6120	 6.6770
 2.6140	 6.7560
 2.6150	 6.6980
 2.6160	 6.6040
 2.6180	 6.5300
 2.6190	 6.4890
 2.6200	 6.5380
 2.6220	 6.4550
 2.6230	 6.4550
 2.6240	 6.4010
 2.6260	 6.3720
 2.6270	 6.2840
 2.6280	 6.2950
 2.6300	 6.3140
 2.6310	 6.2900
 2.6320	 6.2260
 2.6340	 6.2910
 2.6350	 6.3230
 2.6360	 6.3850
 2.6380	 6.2500
 2.6390	 6.1750
 2.6400	 6.1720
 2.6420	 6.1730
 2.6430	 5.9860
 2.6440	 5.9950
 2.6460	 5.9670
 2.6470	 5.9930
 2.6480	 5.9670
 2.6500	 5.9300
 2.6510	 5.9520
 2.6520	 6.0810
 2.6540	 6.2750
 2.6550	 6.2850
 2.6560	 6.0440
 2.6580	 6.0170
 2.6590	 5.9840
 2.6610	 6.1230
 2.6620	 6.2120
 2.6630	 6.0060
 2.6650	 5.7980
 2.6660	 5.7450
 2.6670	 5.7130
 2.6690	 5.7770
 2.6700	 5.7270
 2.6720	 5.7450
 2.6730	 5.7030
 2.6740	 5.8070
 2.6760	 5.7130
 2.6770	 5.5170
 2.6780	 5.4940
 2.6800	 5.7010
 2.6810	 5.8280
 2.6830	 5.7570
 2.6840	 5.5200
 2.6850	 5.5650
 2.6870	 5.4700
 2.6880	 5.3860
 2.6900	 5.3450
 2.6910	 5.4010
 2.6920	 5.3340
 2.6940	 5.4470
 2.6950	 5.4460
 2.6970	 5.3920
 2.6980	 5.1970
 2.6990	 5.3290
 2.7010	 5.4130
 2.7020	 5.4340
 2.7040	 5.3160
 2.7050	 5.3290
 2.7060	 5.3220
 2.7080	 5.2840
 2.7090	 5.1520
 2.7110	 5.1230
 2.7120	 5.1580
 2.7130	 5.1440
 2.7150	 5.1290
 2.7160	 5.1410
 2.7180	 5.2120
 2.7190	 5.3340
 2.7210	 5.2280
 2.7220	 5.2000
 2.7230	 5.1220
 2.7250	 5.2250
 2.7260	 5.2870
 2.7280	 5.2440
 2.7290	 5.1290
 2.7310	 5.0520
 2.7320	 4.9810
 2.7330	 5.2320
 2.7350	 5.2090
 2.7360	 5.1180
 2.7380	 5.1150
 2.7390	 5.1620
 2.7410	 5.0920
 2.7420	 4.9060
 2.7440	 4.8010
 2.7450	 4.9880
 2.7470	 4.9380
 2.7480	 4.9180
 2.7490	 5.1430
 2.7510	 5.2100
 2.7520	 4.8280
 2.7540	 4.7730
 2.7550	 4.9620
 2.7570	 5.3780
 2.7580	 5.3930
 2.7600	 5.1030
 2.7610	 5.2410
 2.7630	 5.4950
 2.7640	 5.1130
 2.7660	 4.9150
 2.7670	 5.0400
 2.7680	 5.1230
 2.7700	 4.8380
 2.7710	 4.7990
 2.7730	 4.8560
 2.7740	 5.0310
 2.7760	 5.2890
 2.7770	 5.3440
 2.7790	 5.0360
 2.7800	 5.0170
 2.7820	 5.0450
 2.7830	 5.1050
 2.7850	 5.1280
 2.7860	 5.1490
 2.7880	 5.0970
 2.7890	 5.2320
 2.7910	 5.1150
 2.7920	 5.0770
 2.7940	 4.9520
 2.7950	 4.8980
 2.7970	 5.0880
 2.7980	 5.1680
 2.8000	 4.9060
 2.8010	 5.0550
 2.8030	 5.2130
 2.8040	 5.0960
 2.8060	 4.9400
 2.8070	 5.1350
 2.8090	 5.1390
 2.8110	 5.0750
 2.8120	 4.8600
 2.8140	 4.9340
 2.8150	 4.9810
 2.8170	 5.1000
 2.8180	 5.1120
 2.8200	 5.1260
 2.8210	 5.0000
 2.8230	 5.0860
 2.8240	 5.0550
 2.8260	 5.1460
 2.8270	 5.1080
 2.8290	 5.0900
 2.8300	 5.0690
 2.8320	 5.1320
 2.8340	 5.1520
 2.8350	 5.0520
 2.8370	 5.1780
 2.8380	 5.4730
 2.8400	 5.1950
 2.8410	 5.0380
 2.8430	 5.0380
 2.8440	 5.1060
 2.8460	 4.9710
 2.8480	 4.9970
 2.8490	 5.0640
 2.8510	 5.1260
 2.8520	 5.1150
 2.8540	 5.1860
 2.8550	 5.0940
 2.8570	 5.0990
 2.8590	 5.0200
 2.8600	 5.1040
 2.8620	 5.0640
 2.8630	 5.0700
 2.8650	 4.9880
 2.8660	 5.1050
 2.8680	 5.2270
 2.8700	 5.3010
 2.8710	 5.1910
 2.8730	 5.0210
 2.8740	 4.8930
 2.8760	 4.9160
 2.8780	 4.9590
 2.8790	 5.0900
 2.8810	 4.9130
 2.8820	 4.9440
 2.8840	 4.9970
 2.8860	 4.9980
 2.8870	 5.0380
 2.8890	 5.0450
 2.8900	 4.9220
 2.8920	 5.1040
 2.8940	 5.2240
 2.8950	 5.3220
 2.8970	 5.0370
 2.8980	 4.8840
 2.9000	 4.9890
 2.9020	 5.1210
 2.9030	 4.9940
 2.9050	 5.0200
 2.9070	 5.0980
 2.9080	 5.1170
 2.9100	 4.9950
 2.9120	 5.1440
 2.9130	 5.2010
 2.9150	 5.1570
 2.9160	 5.0020
 2.9180	 5.1760
 2.9200	 5.3210
 2.9210	 5.1910
 2.9230	 5.0040
 2.9250	 5.0330
 2.9260	 4.9670
 2.9280	 4.9990
 2.9300	 4.9590
 2.9310	 5.0890
 2.9330	 5.1220
 2.9350	 5.0810
 2.9360	 4.9890
 2.9380	 5.0890
 2.9400	 5.0880
 2.9410	 5.1520
 2.9430	 5.0590
 2.9450	 5.0650
 2.9460	 5.0470
 2.9480	 5.3060
 2.9500	 5.1740
 2.9510	 5.0680
 2.9530	 4.8890
 2.9550	 4.7800
 2.9560	 4.9260
 2.9580	 5.1360
 2.9600	 5.3550
 2.9610	 5.6940
 2.9630	 6.2590
 2.9650	 6.1260
 2.9660	 4.4140
 2.9680	 4.2380
 2.9700	 4.6530
 2.9720	 5.0540
 2.9730	 4.6100
 2.9750	 4.5100
 2.9770	 5.3620
 2.9780	 6.1790
 2.9800	 6.9140
 2.9820	 6.8460
 2.9840	 5.5380
 2.9850	 4.6830
 2.9870	 5.3910
 2.9890	 5.9770
 2.9900	 5.3260
 2.9920	 5.7640
 2.9940	 6.1140
 2.9960	 5.8460
 2.9970	 6.1270
 2.9990	 6.4730
 3.0010	 5.5350
 3.0030	 5.1200
 3.0040	 4.9480
 3.0060	 5.1530
 3.0080	 5.3520
 3.0100	 5.2570
 3.0110	 5.0520
 3.0130	 4.8180
 3.0150	 5.3020
 3.0170	 5.3650
 3.0180	 4.2720
 3.0200	 4.4760
 3.0220	 5.2750
 3.0240	 5.1420
 3.0250	 5.0230
 3.0270	 5.1790
 3.0290	 5.2560
 3.0310	 5.1890
 3.0320	 4.8910
 3.0340	 4.7430
 3.0360	 4.8490
 3.0380	 4.3210
 3.0400	 4.1710
 3.0410	 4.7270
 3.0430	 5.3190
 3.0450	 5.3750
 3.0470	 5.9610
 3.0480	 5.5890
 3.0500	 6.0930
 3.0520	 7.5930
 3.0540	 6.4270
 3.0560	 6.0120
 3.0570	 5.7720
 3.0590	 5.6070
 3.0610	 5.3840
 3.0630	 5.4630
 3.0650	 5.4540
 3.0660	 4.8170
 3.0680	 4.3640
 3.0700	 4.2780
 3.0720	 4.5090
 3.0740	 5.0370
 3.0760	 4.8870
 3.0770	 4.8220
 3.0790	 4.9970
 3.0810	 5.0910
 3.0830	 5.0790
 3.0850	 5.2170
 3.0870	 5.0930
 3.0880	 4.9270
 3.0900	 4.9450
 3.0920	 4.9580
 3.0940	 4.8850
 3.0960	 5.0170
 3.0980	 4.9860
 3.0990	 5.0260
 3.1010	 4.9330
 3.1030	 5.0750
 3.1050	 4.9600
 3.1070	 4.7700
 3.1090	 4.8500
 3.1110	 5.1270
 3.1120	 4.8330
 3.1140	 4.7150
 3.1160	 4.9650
 3.1180	 5.3000
 3.1200	 5.4310
 3.1220	 5.1320
 3.1240	 5.0570
 3.1260	 5.4860
 3.1270	 5.4360
 3.1290	 4.9700
 3.1310	 4.7260
 3.1330	 4.4860
 3.1350	 4.4090
 3.1370	 5.2140
 3.1390	 6.4510
 3.1410	 6.2900
 3.1430	 4.4260
 3.1450	 4.3970
 3.1460	 4.9240
 3.1480	 4.7730
 3.1500	 4.9100
 3.1520	 5.2290
 3.1540	 5.4340
 3.1560	 5.0620
 3.1580	 5.0890
 3.1600	 5.3470
 3.1620	 4.8450
 3.1640	 4.2500
 3.1660	 4.8110
 3.1680	 5.4630
 3.1700	 4.3140
 3.1710	 5.2250
 3.1730	 5.4870
 3.1750	 4.4100
 3.1770	 4.9750
 3.1790	 5.0820
 3.1810	 5.0260
 3.1830	 5.1190
 3.1850	 4.6070
 3.1870	 4.5130
 3.1890	 4.5220
 3.1910	 4.6930
 3.1930	 4.8970
 3.1950	 5.0390
 3.1970	 5.0430
 3.1990	 4.9150
 3.2010	 4.8000
 3.2030	 4.8500
 3.2050	 4.8470
 3.2070	 4.8890
 3.2090	 4.9090
 3.2110	 5.1550
 3.2130	 5.1560
 3.2150	 5.1120
 3.2170	 4.9620
 3.2190	 4.9190
 3.2210	 4.7850
 3.2230	 4.7910
 3.2250	 4.8880
 3.2270	 4.9170
 3.2290	 4.8900
 3.2310	 5.0400
 3.2330	 4.9420
 3.2350	 4.8430
 3.2370	 4.8670
 3.2390	 4.8730
 3.2410	 4.8940
 3.2430	 4.9650
 3.2450	 4.8550
 3.2470	 4.7560
 3.2490	 4.9690
 3.2510	 5.0980
 3.2530	 4.7470
 3.2550	 4.4050
 3.2570	 4.2800
 3.2590	 4.4630
 3.2610	 4.4650
 3.2630	 4.3680
 3.2650	 4.7950
 3.2670	 5.2700
 3.2690	 4.7450
 3.2720	 4.2620
 3.2740	 4.2560
 3.2760	 4.7240
 3.2780	 4.7660
 3.2800	 4.6000
 3.2820	 4.5670
 3.2840	 4.6800
 3.2860	 4.5630
 3.2880	 4.4650
 3.2900	 4.6080
 3.2920	 4.7560
 3.2940	 4.4620
 3.2960	 4.4160
 3.2990	 4.5130
 3.3010	 4.6580
 3.3030	 4.6080
 3.3050	 4.4560
 3.3070	 4.5630
 3.3090	 4.8720
 3.3110	 4.7690
 3.3130	 4.6390
 3.3150	 4.5220
 3.3180	 4.4420
 3.3200	 4.5080
 3.3220	 4.5120
 3.3240	 4.4180
 3.3260	 4.6200
 3.3280	 4.6360
 3.3300	 4.4540
 3.3330	 4.2990
 3.3350	 4.5050
 3.3370	 4.5990
 3.3390	 4.6170
 3.3410	 4.5570
 3.3430	 4.5250
 3.3450	 4.3840
 3.3480	 4.3910
 3.3500	 4.1840
 3.3520	 4.1120
 3.3540	 4.2320
 3.3560	 4.3110
 3.3580	 4.1320
 3.3610	 4.1140
 3.3630	 4.1680
 3.3650	 4.2030
 3.3670	 4.0660
 3.3690	 4.0430
 3.3720	 4.0080
 3.3740	 4.1550
 3.3760	 4.1840
 3.3780	 4.1190
 3.3800	 4.1650
 3.3830	 4.1310
 3.3850	 3.8830
 3.3870	 3.8380
 3.3890	 3.9780
 3.3910	 4.1270
 3.3940	 3.9590
 3.3960	 3.8430
 3.3980	 3.8330
 3.4000	 3.7220
 3.4020	 3.4910
 3.4050	 3.5090
 3.4070	 3.5130
 3.4090	 3.5320
 3.4110	 3.4310
 3.4140	 3.4410
 3.4160	 3.5290
 3.4180	 3.8500
 3.4200	 4.4260
 3.4230	 5.4460
 3.4250	 6.8970
 3.4270	 8.7270
 3.4290	10.1340
 3.4320	10.4450
 3.4340	 9.7250
 3.4360	 8.8450
 3.4390	 8.1630
 3.4410	 7.7280
 3.4430	 7.3090
 3.4450	 7.0810
 3.4480	 7.0720
 3.4500	 7.0740
 3.4520	 6.6740
 3.4550	 6.5610
 3.4570	 6.5200
 3.4590	 6.4510
 3.4620	 6.2680
 3.4640	 6.0950
 3.4660	 6.1440
 3.4680	 6.2680
 3.4710	 6.1910
 3.4730	 6.0670
 3.4750	 5.9040
 3.4780	 5.7770
 3.4800	 5.5960
 3.4820	 5.5890
 3.4850	 5.5120
 3.4870	 5.4300
 3.4890	 5.2960
 3.4920	 5.2090
 3.4940	 4.9920
 3.4970	 4.8580
 3.4990	 4.7220
 3.5010	 4.6760
 3.5040	 4.7430
 3.5060	 5.3450
 3.5080	 6.8000
 3.5110	 8.7660
 3.5130	 9.5970
 3.5160	 9.1010
 3.5180	 8.3740
 3.5200	 7.8930
 3.5230	 7.4910
 3.5250	 7.1890
 3.5270	 6.8680
 3.5300	 6.7500
 3.5320	 6.6660
 3.5350	 6.6490
 3.5370	 6.5750
 3.5400	 6.4660
 3.5420	 6.3760
 3.5440	 6.3610
 3.5470	 6.2830
 3.5490	 6.3190
 3.5520	 6.2370
 3.5540	 6.1520
 3.5570	 6.0980
 3.5590	 6.1150
 3.5610	 6.1000
 3.5640	 6.0900
 3.5660	 6.0440
 3.5690	 6.0510
 3.5710	 6.0130
 3.5740	 6.0110
 3.5760	 6.0280
 3.5790	 5.9770
 3.5810	 5.9460
 3.5840	 5.9230
 3.5860	 5.7660
 3.5890	 5.8490
 3.5910	 5.9220
 3.5930	 5.8330
 3.5960	 5.8110
 3.5980	 5.8080
 3.6010	 5.6900
 3.6030	 5.7550
 3.6060	 5.6840
 3.6080	 5.5600
 3.6110	 5.5630
 3.6140	 5.6180
 3.6160	 5.6930
 3.6190	 5.7770
 3.6210	 5.7550
 3.6240	 5.7190
 3.6260	 5.7820
 3.6290	 5.8850
 3.6310	 5.7060
 3.6340	 5.5800
 3.6360	 5.5740
 3.6390	 5.6220
 3.6410	 5.6030
 3.6440	 5.6210
 3.6470	 5.5810
 3.6490	 5.6060
 3.6520	 5.5890
 3.6540	 5.5170
 3.6570	 5.4920
 3.6590	 5.5120
 3.6620	 5.5390
 3.6650	 5.6260
 3.6670	 5.5030
 3.6700	 5.4170
 3.6720	 5.5100
 3.6750	 5.5630
 3.6780	 5.5480
 3.6800	 5.5400
 3.6830	 5.4940
 3.6850	 5.5330
 3.6880	 5.5680
 3.6910	 5.5840
 3.6930	 5.5390
 3.6960	 5.4970
 3.6990	 5.4750
 3.7010	 5.5160
 3.7040	 5.4750
 3.7060	 5.4700
 3.7090	 5.4600
 3.7120	 5.4740
 3.7140	 5.4670
 3.7170	 5.4460
 3.7200	 5.4300
 3.7220	 5.5020
 3.7250	 5.5440
 3.7280	 5.5080
 3.7300	 5.5240
 3.7330	 5.5310
 3.7360	 5.4890
 3.7390	 5.6010
 3.7410	 5.5190
 3.7440	 5.4240
 3.7470	 5.3970
 3.7490	 5.3810
 3.7520	 5.2950
 3.7550	 5.4380
 3.7580	 5.4770
 3.7600	 5.4340
 3.7630	 5.5060
 3.7660	 5.6770
 3.7680	 5.6200
 3.7710	 5.5700
 3.7740	 5.5530
 3.7770	 5.5330
 3.7790	 5.5830
 3.7820	 5.5820
 3.7850	 5.4880
 3.7880	 5.5290
 3.7900	 5.5660
 3.7930	 5.5340
 3.7960	 5.4430
 3.7990	 5.4070
 3.8020	 5.3660
 3.8040	 5.3580
 3.8070	 5.3630
 3.8100	 5.4000
 3.8130	 5.3150
 3.8160	 5.3430
 3.8180	 5.3760
 3.8210	 5.4120
 3.8240	 5.3860
 3.8270	 5.3770
 3.8300	 5.3930
 3.8330	 5.3870
 3.8350	 5.2280
 3.8380	 5.1830
 3.8410	 5.2000
 3.8440	 5.1730
 3.8470	 5.2660
 3.8500	 5.4970
 3.8520	 5.4900
 3.8550	 5.4060
 3.8580	 5.3650
 3.8610	 5.3820
 3.8640	 5.3270
 3.8670	 5.3290
 3.8700	 5.3180
 3.8730	 5.3580
 3.8750	 5.4110
 3.8780	 5.4140
 3.8810	 5.3730
 3.8840	 5.4170
 3.8870	 5.4060
 3.8900	 5.4700
 3.8930	 5.4600
 3.8960	 5.4240
 3.8990	 5.4600
 3.9020	 5.4750
 3.9050	 5.4320
 3.9080	 5.4360
 3.9110	 5.4470
 3.9140	 5.4450
 3.9160	 5.4480
 3.9190	 5.4810
 3.9220	 5.5220
 3.9250	 5.5530
 3.9280	 5.4780
 3.9310	 5.4230
 3.9340	 5.4270
 3.9370	 5.4750
 3.9400	 5.4760
 3.9430	 5.3700
 3.9460	 5.3060
 3.9490	 5.3930
 3.9520	 5.4830
 3.9550	 5.5200
 3.9580	 5.4220
 3.9610	 5.3790
 3.9640	 5.4110
 3.9670	 5.4530
 3.9700	 5.4220
 3.9730	 5.4150
 3.9770	 5.4010
 3.9800	 5.3940
 3.9830	 5.3840
 3.9860	 5.4480
 3.9890	 5.4330
 3.9920	 5.3790
 3.9950	 5.3780
 3.9980	 5.4280
 4.0010	 5.4060
 4.0040	 5.3920
 4.0070	 5.3980
 4.0100	 5.4330
 4.0130	 5.3700
 4.0170	 5.3750
 4.0200	 5.4040
 4.0230	 5.4080
 4.0260	 5.3950
 4.0290	 5.4540
 4.0320	 5.4390
 4.0350	 5.4060
 4.0380	 5.3850
 4.0420	 5.4580
 4.0450	 5.5320
 4.0480	 5.5340
 4.0510	 5.4580
 4.0540	 5.3990
 4.0570	 5.2770
 4.0610	 5.2780
 4.0640	 5.4240
 4.0670	 5.5250
 4.0700	 5.4390
 4.0730	 5.3510
 4.0770	 5.3420
 4.0800	 5.3490
 4.0830	 5.3750
 4.0860	 5.4240
 4.0890	 5.4170
 4.0930	 5.4480
 4.0960	 5.4600
 4.0990	 5.4370
 4.1020	 5.3230
 4.1060	 5.2810
 4.1090	 5.3590
 4.1120	 5.4680
 4.1150	 5.5620
 4.1190	 5.5910
 4.1220	 5.4420
 4.1250	 5.3270
 4.1280	 5.3120
 4.1320	 5.3800
 4.1350	 5.4270
 4.1380	 5.4100
 4.1420	 5.3860
 4.1450	 5.3680
 4.1480	 5.3760
 4.1520	 5.4540
 4.1550	 5.4540
 4.1580	 5.3930
 4.1620	 5.3480
 4.1650	 5.3860
 4.1680	 5.3900
 4.1720	 5.3720
 4.1750	 5.4020
 4.1780	 5.3860
 4.1820	 5.3410
 4.1850	 5.3520
 4.1890	 5.3340
 4.1920	 5.3480
 4.1950	 5.3350
 4.1990	 5.2660
 4.2020	 5.2760
 4.2060	 5.3350
 4.2090	 5.3770
 4.2120	 5.4390
 4.2160	 5.5060
 4.2190	 5.6280
 4.2230	 5.6070
 4.2260	 5.4190
 4.2300	 5.2610
 4.2330	 5.3910
 4.2360	 5.3940
 4.2400	 5.0260
 4.2430	 4.9460
 4.2470	 5.3240
 4.2500	 5.4090
 4.2540	 5.4520
 4.2570	 5.5780
 4.2610	 5.5830
 4.2640	 5.2800
 4.2680	 5.3030
 4.2710	 5.3050
 4.2750	 5.3950
 4.2780	 5.4300
 4.2820	 5.3620
 4.2850	 5.2540
 4.2890	 5.3080
 4.2930	 5.3320
 4.2960	 5.4220
 4.3000	 5.3800
 4.3030	 5.4280
 4.3070	 5.3890
 4.3100	 5.4170
 4.3140	 5.3910
 4.3180	 5.3210
 4.3210	 5.2650
 4.3250	 5.2310
 4.3280	 5.1750
 4.3320	 5.1720
 4.3360	 5.2850
 4.3390	 5.3450
 4.3430	 5.2960
 4.3470	 5.3140
 4.3500	 5.3120
 4.3540	 5.2960
 4.3570	 5.2510
 4.3610	 5.2950
 4.3650	 5.3170
 4.3680	 5.3100
 4.3720	 5.2450
 4.3760	 5.2400
 4.3800	 5.2710
 4.3830	 5.2480
 4.3870	 5.2250
 4.3910	 5.2680
 4.3940	 5.2530
 4.3980	 5.2540
 4.4020	 5.2560
 4.4060	 5.2580
 4.4090	 5.2470
 4.4130	 5.2310
 4.4170	 5.2460
 4.4210	 5.2510
 4.4240	 5.2370
 4.4280	 5.2500
 4.4320	 5.1960
 4.4360	 5.1500
 4.4400	 5.2030
 4.4430	 5.1950
 4.4470	 5.1500
 4.4510	 5.1700
 4.4550	 5.1250
 4.4590	 5.1710
 4.4620	 5.2570
 4.4660	 5.2800
 4.4700	 5.2380
 4.4740	 5.1660
 4.4780	 5.1940
 4.4820	 5.2530
 4.4860	 5.2130
 4.4900	 5.2150
 4.4930	 5.2010
 4.4970	 5.1630
 4.5010	 5.1600
 4.5050	 5.2070
 4.5090	 5.2200
 4.5130	 5.2490
 4.5170	 5.2680
 4.5210	 5.2640
 4.5250	 5.1990
 4.5290	 5.1280
 4.5330	 5.1160
 4.5370	 5.0920
 4.5410	 5.1510
 4.5450	 5.1910
 4.5490	 5.1880
 4.5530	 5.1730
 4.5570	 5.1740
 4.5610	 5.1730
 4.5650	 5.1320
 4.5690	 5.2110
 4.5730	 5.1830
 4.5770	 5.0730
 4.5810	 5.0990
 4.5850	 5.1090
 4.5890	 5.0940
 4.5930	 5.1310
 4.5970	 5.1690
 4.6010	 5.1630
 4.6050	 5.1400
 4.6090	 5.0550
 4.6130	 5.1880
 4.6170	 5.3220
 4.6220	 5.0950
 4.6260	 5.1160
 4.6300	 5.2370
 4.6340	 5.1750
 4.6380	 5.1740
 4.6420	 5.2320
 4.6460	 5.2340
 4.6510	 5.2250
 4.6550	 5.2060
 4.6590	 5.1500
 4.6630	 5.1390
 4.6670	 5.1570
 4.6720	 5.1680
 4.6760	 5.1650
 4.6800	 5.1310
 4.6840	 5.1080
 4.6880	 5.0750
 4.6930	 5.1340
 4.6970	 5.1560
 4.7010	 5.1790
 4.7050	 5.1340
 4.7100	 5.1080
 4.7140	 5.1340
 4.7180	 5.2150
 4.7230	 5.2130
 4.7270	 5.1740
 4.7310	 5.1610
 4.7360	 5.1440
 4.7400	 5.1430
 4.7440	 5.1520
 4.7490	 5.1520
 4.7530	 5.0960
 4.7570	 5.0880
 4.7620	 5.1470
 4.7660	 5.1100
 4.7700	 5.0550
 4.7750	 5.0270
 4.7790	 4.9830
 4.7840	 5.0060
 4.7880	 5.2440
 4.7920	 5.2090
 4.7970	 5.2090
 4.8010	 5.2850
 4.8060	 5.1790
 4.8100	 5.1230
 4.8150	 5.1430
 4.8190	 5.1810
 4.8240	 5.1190
 4.8280	 5.1010
 4.8330	 5.1280
 4.8370	 5.0850
 4.8420	 5.0370
 4.8460	 5.0710
 4.8510	 5.1150
 4.8550	 5.1140
 4.8600	 5.1490
 4.8640	 5.1430
 4.8690	 5.0730
 4.8730	 5.0450
 4.8780	 5.0670
 4.8830	 5.1360
 4.8870	 5.1540
 4.8920	 5.0960
 4.8960	 5.0760
 4.9010	 5.0870
 4.9060	 5.0850
 4.9100	 5.1360
 4.9150	 5.1650
 4.9200	 5.0860
 4.9240	 5.0350
 4.9290	 5.0290
 4.9340	 5.0750
 4.9380	 5.1080
 4.9430	 5.0540
 4.9480	 5.0370
 4.9530	 5.0570
 4.9570	 5.0900
 4.9620	 5.0570
 4.9670	 5.0880
 4.9720	 5.1010
 4.9760	 5.0690
 4.9810	 5.0320
 4.9860	 5.0590
 4.9910	 5.0830
 4.9960	 5.1290
 5.0000	 5.1830
 5.0050	 5.1700
 5.0100	 5.1120
 5.0150	 5.1100
 5.0200	 5.1170
 5.0250	 5.1000
 5.0290	 5.0360
 5.0340	 5.0420
 5.0390	 5.0350
 5.0440	 4.9720
 5.0490	 4.9540
 5.0540	 5.0040
 5.0590	 5.0410
 5.0640	 5.0810
 5.0690	 5.1250
 5.0740	 5.1420
 5.0790	 5.0910
 5.0840	 5.0950
 5.0890	 5.1290
 5.0940	 5.1290
 5.0990	 5.1080
 5.1040	 5.0630
 5.1090	 5.0760
 5.1140	 5.1070
 5.1190	 5.0840
 5.1240	 5.0970
 5.1290	 5.1340
 5.1340	 5.1550
 5.1390	 5.0950
 5.1440	 5.1020
 5.1490	 5.1250
 5.1540	 5.1710
 5.1600	 5.1630
 5.1650	 5.1330
 5.1700	 5.1030
 5.1750	 5.0890
 5.1800	 5.1060
 5.1850	 5.0800
 5.1910	 5.0700
 5.1960	 5.0710
 5.2010	 4.9680
 5.2060	 4.9880
 5.2110	 5.0080
 5.2170	 5.0570
 5.2220	 5.0180
 5.2270	 5.0160
 5.2320	 5.0260
 5.2380	 5.0380
 5.2430	 5.0300
 5.2480	 5.0270
 5.2540	 4.9700
 5.2590	 4.9960
 5.2640	 5.0850
 5.2700	 5.1150
 5.2750	 5.0870
 5.2800	 5.0780
 5.2860	 5.0800
 5.2910	 5.0930
 5.2970	 5.0770
 5.3020	 5.1190
 5.3070	 5.0410
 5.3130	 5.0560
 5.3180	 5.0590
 5.3240	 5.0600
 5.3290	 5.0390
 5.3350	 5.0620
 5.3400	 5.0620
 5.3460	 5.0300
 5.3510	 5.0390
 5.3570	 5.1070
 5.3620	 5.0770
 5.3680	 5.0300
 5.3730	 5.0040
 5.3790	 5.0310
 5.3850	 5.0260
 5.3900	 5.0840
 5.3960	 5.0820
 5.4010	 5.0310
 5.4070	 4.9560
 5.4130	 4.9200
 5.4180	 4.9340
 5.4240	 5.0150
 5.4300	 5.0180
 5.4350	 5.0470
 5.4410	 4.9880
