Name: Abies concolor 3
Type: vegetation
Class: Tree
Genus: Abies
Species: concolor
Sample No.: VH071
Owner: UCSB
Wavelength Range: VSWIR
Origin: 37.0439; -119.3058; WGS84
Collection Date: 4/20/2013
Description: Samples were collected as part of the HyspIRI Airborne Campaign. 48 individual plants were sampled in three times in 2013 - spring  summer  and fall. The name of the sample includes a 1  2  or 3 which references a different individual of the species. Samples were taken to JPL and processed within 48 hours of collection. The same leaves were processed in the Nicolet and then measured using the ASD.
Measurement: Bidirectional reflectance
First Column: X
Second Column: Y
X Units: Wavelength (micrometers)
Y Units: Reflectance (percentage)
First X Value: 0.35
Last X Value: 2.5
Number of X Values: 2151
Additional Information: vegetation.tree.abies.concolor.vswir.vh071.ucsb.asd.ancillary.txt

 0.3500	 6.6860
 0.3510	 6.3580
 0.3520	 6.3820
 0.3530	 6.4830
 0.3540	 6.3600
 0.3550	 6.1930
 0.3560	 6.1120
 0.3570	 6.1220
 0.3580	 6.1630
 0.3590	 6.2120
 0.3600	 6.1690
 0.3610	 6.0770
 0.3620	 6.1850
 0.3630	 6.1650
 0.3640	 6.0510
 0.3650	 5.9810
 0.3660	 6.0740
 0.3670	 6.1730
 0.3680	 6.1880
 0.3690	 6.0980
 0.3700	 6.0200
 0.3710	 6.0330
 0.3720	 6.1100
 0.3730	 6.0490
 0.3740	 6.0080
 0.3750	 5.9820
 0.3760	 5.9320
 0.3770	 5.9090
 0.3780	 5.9260
 0.3790	 5.9750
 0.3800	 6.0230
 0.3810	 5.9820
 0.3820	 5.9290
 0.3830	 5.9220
 0.3840	 5.9160
 0.3850	 5.9840
 0.3860	 6.0270
 0.3870	 5.9370
 0.3880	 5.9300
 0.3890	 5.9710
 0.3900	 6.0040
 0.3910	 5.9760
 0.3920	 5.9700
 0.3930	 5.9910
 0.3940	 6.0290
 0.3950	 6.0670
 0.3960	 6.0860
 0.3970	 6.1010
 0.3980	 6.1390
 0.3990	 6.1570
 0.4000	 6.2050
 0.4010	 6.2780
 0.4020	 6.2980
 0.4030	 6.3420
 0.4040	 6.3870
 0.4050	 6.4110
 0.4060	 6.4780
 0.4070	 6.4980
 0.4080	 6.4920
 0.4090	 6.5490
 0.4100	 6.6350
 0.4110	 6.7100
 0.4120	 6.7640
 0.4130	 6.8360
 0.4140	 6.9060
 0.4150	 6.9770
 0.4160	 7.0550
 0.4170	 7.1420
 0.4180	 7.2320
 0.4190	 7.3150
 0.4200	 7.3780
 0.4210	 7.4270
 0.4220	 7.4950
 0.4230	 7.5970
 0.4240	 7.6980
 0.4250	 7.7700
 0.4260	 7.8300
 0.4270	 7.9040
 0.4280	 7.9580
 0.4290	 8.0150
 0.4300	 8.0880
 0.4310	 8.1600
 0.4320	 8.2360
 0.4330	 8.2980
 0.4340	 8.3330
 0.4350	 8.3720
 0.4360	 8.4190
 0.4370	 8.4760
 0.4380	 8.5440
 0.4390	 8.6070
 0.4400	 8.6630
 0.4410	 8.7150
 0.4420	 8.7650
 0.4430	 8.8170
 0.4440	 8.8680
 0.4450	 8.9110
 0.4460	 8.9480
 0.4470	 9.0000
 0.4480	 9.0630
 0.4490	 9.1040
 0.4500	 9.1440
 0.4510	 9.1840
 0.4520	 9.2210
 0.4530	 9.2540
 0.4540	 9.2870
 0.4550	 9.3170
 0.4560	 9.3420
 0.4570	 9.3650
 0.4580	 9.3910
 0.4590	 9.4160
 0.4600	 9.4220
 0.4610	 9.4320
 0.4620	 9.4460
 0.4630	 9.4580
 0.4640	 9.4820
 0.4650	 9.4950
 0.4660	 9.4960
 0.4670	 9.4990
 0.4680	 9.5120
 0.4690	 9.5220
 0.4700	 9.5210
 0.4710	 9.5340
 0.4720	 9.5390
 0.4730	 9.5330
 0.4740	 9.5280
 0.4750	 9.5370
 0.4760	 9.5460
 0.4770	 9.5550
 0.4780	 9.5760
 0.4790	 9.5800
 0.4800	 9.5820
 0.4810	 9.6000
 0.4820	 9.6130
 0.4830	 9.6200
 0.4840	 9.6260
 0.4850	 9.6370
 0.4860	 9.6570
 0.4870	 9.6730
 0.4880	 9.6810
 0.4890	 9.7020
 0.4900	 9.7340
 0.4910	 9.7690
 0.4920	 9.8000
 0.4930	 9.8360
 0.4940	 9.8780
 0.4950	 9.9240
 0.4960	 9.9660
 0.4970	10.0250
 0.4980	10.0910
 0.4990	10.1490
 0.5000	10.2240
 0.5010	10.3030
 0.5020	10.3860
 0.5030	10.4840
 0.5040	10.5850
 0.5050	10.6920
 0.5060	10.8080
 0.5070	10.9300
 0.5080	11.0650
 0.5090	11.2110
 0.5100	11.3660
 0.5110	11.5370
 0.5120	11.7140
 0.5130	11.8960
 0.5140	12.0910
 0.5150	12.2860
 0.5160	12.4920
 0.5170	12.7170
 0.5180	12.9470
 0.5190	13.1760
 0.5200	13.4050
 0.5210	13.6380
 0.5220	13.8690
 0.5230	14.0910
 0.5240	14.3070
 0.5250	14.5270
 0.5260	14.7300
 0.5270	14.9160
 0.5280	15.0920
 0.5290	15.2600
 0.5300	15.4150
 0.5310	15.5530
 0.5320	15.6760
 0.5330	15.7940
 0.5340	15.9000
 0.5350	15.9930
 0.5360	16.0830
 0.5370	16.1650
 0.5380	16.2390
 0.5390	16.3030
 0.5400	16.3600
 0.5410	16.4110
 0.5420	16.4590
 0.5430	16.5120
 0.5440	16.5640
 0.5450	16.6150
 0.5460	16.6640
 0.5470	16.7140
 0.5480	16.7620
 0.5490	16.8050
 0.5500	16.8420
 0.5510	16.8650
 0.5520	16.8790
 0.5530	16.8850
 0.5540	16.8780
 0.5550	16.8500
 0.5560	16.8070
 0.5570	16.7590
 0.5580	16.6930
 0.5590	16.6130
 0.5600	16.5270
 0.5610	16.4350
 0.5620	16.3350
 0.5630	16.2310
 0.5640	16.1250
 0.5650	16.0120
 0.5660	15.8920
 0.5670	15.7650
 0.5680	15.6300
 0.5690	15.4900
 0.5700	15.3490
 0.5710	15.2090
 0.5720	15.0770
 0.5730	14.9500
 0.5740	14.8270
 0.5750	14.7090
 0.5760	14.5970
 0.5770	14.4920
 0.5780	14.3910
 0.5790	14.2950
 0.5800	14.2070
 0.5810	14.1270
 0.5820	14.0530
 0.5830	13.9860
 0.5840	13.9190
 0.5850	13.8490
 0.5860	13.7830
 0.5870	13.7220
 0.5880	13.6640
 0.5890	13.6090
 0.5900	13.5650
 0.5910	13.5270
 0.5920	13.4930
 0.5930	13.4600
 0.5940	13.4320
 0.5950	13.4060
 0.5960	13.3800
 0.5970	13.3550
 0.5980	13.3270
 0.5990	13.2980
 0.6000	13.2690
 0.6010	13.2330
 0.6020	13.2000
 0.6030	13.1670
 0.6040	13.1190
 0.6050	13.0670
 0.6060	13.0110
 0.6070	12.9530
 0.6080	12.8890
 0.6090	12.8220
 0.6100	12.7520
 0.6110	12.6770
 0.6120	12.6040
 0.6130	12.5320
 0.6140	12.4620
 0.6150	12.3900
 0.6160	12.3260
 0.6170	12.2620
 0.6180	12.1940
 0.6190	12.1400
 0.6200	12.0920
 0.6210	12.0480
 0.6220	12.0080
 0.6230	11.9740
 0.6240	11.9470
 0.6250	11.9280
 0.6260	11.9130
 0.6270	11.8980
 0.6280	11.8840
 0.6290	11.8730
 0.6300	11.8640
 0.6310	11.8550
 0.6320	11.8420
 0.6330	11.8240
 0.6340	11.7940
 0.6350	11.7530
 0.6360	11.7000
 0.6370	11.6380
 0.6380	11.5670
 0.6390	11.4880
 0.6400	11.4050
 0.6410	11.3180
 0.6420	11.2270
 0.6430	11.1330
 0.6440	11.0350
 0.6450	10.9370
 0.6460	10.8440
 0.6470	10.7590
 0.6480	10.6790
 0.6490	10.6080
 0.6500	10.5490
 0.6510	10.5000
 0.6520	10.4550
 0.6530	10.4140
 0.6540	10.3790
 0.6550	10.3400
 0.6560	10.2930
 0.6570	10.2390
 0.6580	10.1780
 0.6590	10.1110
 0.6600	10.0360
 0.6610	 9.9560
 0.6620	 9.8770
 0.6630	 9.8000
 0.6640	 9.7260
 0.6650	 9.6540
 0.6660	 9.5910
 0.6670	 9.5360
 0.6680	 9.4890
 0.6690	 9.4480
 0.6700	 9.4170
 0.6710	 9.3930
 0.6720	 9.3750
 0.6730	 9.3670
 0.6740	 9.3620
 0.6750	 9.3610
 0.6760	 9.3660
 0.6770	 9.3820
 0.6780	 9.4020
 0.6790	 9.4290
 0.6800	 9.4650
 0.6810	 9.5140
 0.6820	 9.5820
 0.6830	 9.6710
 0.6840	 9.7780
 0.6850	 9.9120
 0.6860	10.0790
 0.6870	10.2840
 0.6880	10.5330
 0.6890	10.8280
 0.6900	11.1750
 0.6910	11.5880
 0.6920	12.0610
 0.6930	12.5950
 0.6940	13.1880
 0.6950	13.8400
 0.6960	14.5470
 0.6970	15.3050
 0.6980	16.1040
 0.6990	16.9420
 0.7000	17.8110
 0.7010	18.7030
 0.7020	19.6070
 0.7030	20.5190
 0.7040	21.4360
 0.7050	22.3530
 0.7060	23.2670
 0.7070	24.1870
 0.7080	25.1110
 0.7090	26.0360
 0.7100	26.9650
 0.7110	27.9030
 0.7120	28.8520
 0.7130	29.8100
 0.7140	30.7730
 0.7150	31.7460
 0.7160	32.7310
 0.7170	33.7260
 0.7180	34.7270
 0.7190	35.7310
 0.7200	36.7380
 0.7210	37.7490
 0.7220	38.7620
 0.7230	39.7710
 0.7240	40.7690
 0.7250	41.7590
 0.7260	42.7330
 0.7270	43.6840
 0.7280	44.6230
 0.7290	45.5370
 0.7300	46.4270
 0.7310	47.2900
 0.7320	48.1220
 0.7330	48.9250
 0.7340	49.7010
 0.7350	50.4480
 0.7360	51.1640
 0.7370	51.8470
 0.7380	52.4980
 0.7390	53.1130
 0.7400	53.6950
 0.7410	54.2490
 0.7420	54.7770
 0.7430	55.2650
 0.7440	55.7220
 0.7450	56.1520
 0.7460	56.5530
 0.7470	56.9260
 0.7480	57.2720
 0.7490	57.5920
 0.7500	57.8910
 0.7510	58.1670
 0.7520	58.4180
 0.7530	58.6480
 0.7540	58.8600
 0.7550	59.0570
 0.7560	59.2390
 0.7570	59.4050
 0.7580	59.5550
 0.7590	59.6920
 0.7600	59.8210
 0.7610	59.9400
 0.7620	60.0490
 0.7630	60.1510
 0.7640	60.2470
 0.7650	60.3290
 0.7660	60.4060
 0.7670	60.4790
 0.7680	60.5460
 0.7690	60.6100
 0.7700	60.6700
 0.7710	60.7270
 0.7720	60.7830
 0.7730	60.8330
 0.7740	60.8830
 0.7750	60.9350
 0.7760	60.9770
 0.7770	61.0170
 0.7780	61.0590
 0.7790	61.1020
 0.7800	61.1430
 0.7810	61.1820
 0.7820	61.2170
 0.7830	61.2470
 0.7840	61.2810
 0.7850	61.3170
 0.7860	61.3520
 0.7870	61.3860
 0.7880	61.4220
 0.7890	61.4520
 0.7900	61.4720
 0.7910	61.4970
 0.7920	61.5250
 0.7930	61.5550
 0.7940	61.5800
 0.7950	61.6010
 0.7960	61.6230
 0.7970	61.6470
 0.7980	61.6650
 0.7990	61.6860
 0.8000	61.7090
 0.8010	61.7270
 0.8020	61.7370
 0.8030	61.7520
 0.8040	61.7750
 0.8050	61.7970
 0.8060	61.8080
 0.8070	61.8170
 0.8080	61.8260
 0.8090	61.8310
 0.8100	61.8380
 0.8110	61.8490
 0.8120	61.8610
 0.8130	61.8690
 0.8140	61.8700
 0.8150	61.8740
 0.8160	61.8860
 0.8170	61.8990
 0.8180	61.9090
 0.8190	61.9150
 0.8200	61.9180
 0.8210	61.9170
 0.8220	61.9250
 0.8230	61.9390
 0.8240	61.9410
 0.8250	61.9450
 0.8260	61.9450
 0.8270	61.9400
 0.8280	61.9420
 0.8290	61.9390
 0.8300	61.9350
 0.8310	61.9350
 0.8320	61.9350
 0.8330	61.9360
 0.8340	61.9390
 0.8350	61.9450
 0.8360	61.9560
 0.8370	61.9660
 0.8380	61.9750
 0.8390	61.9870
 0.8400	61.9880
 0.8410	61.9920
 0.8420	62.0040
 0.8430	62.0200
 0.8440	62.0320
 0.8450	62.0450
 0.8460	62.0620
 0.8470	62.0790
 0.8480	62.0910
 0.8490	62.1050
 0.8500	62.1270
 0.8510	62.1400
 0.8520	62.1510
 0.8530	62.1650
 0.8540	62.1840
 0.8550	62.2010
 0.8560	62.2130
 0.8570	62.2230
 0.8580	62.2390
 0.8590	62.2510
 0.8600	62.2640
 0.8610	62.2800
 0.8620	62.2940
 0.8630	62.3100
 0.8640	62.3270
 0.8650	62.3430
 0.8660	62.3470
 0.8670	62.3570
 0.8680	62.3690
 0.8690	62.3790
 0.8700	62.3890
 0.8710	62.4030
 0.8720	62.4210
 0.8730	62.4370
 0.8740	62.4470
 0.8750	62.4580
 0.8760	62.4710
 0.8770	62.4860
 0.8780	62.4960
 0.8790	62.5050
 0.8800	62.5130
 0.8810	62.5140
 0.8820	62.5270
 0.8830	62.5420
 0.8840	62.5480
 0.8850	62.5570
 0.8860	62.5590
 0.8870	62.5580
 0.8880	62.5590
 0.8890	62.5690
 0.8900	62.5740
 0.8910	62.5780
 0.8920	62.5860
 0.8930	62.5850
 0.8940	62.5890
 0.8950	62.5940
 0.8960	62.5860
 0.8970	62.5860
 0.8980	62.5900
 0.8990	62.5950
 0.9000	62.5940
 0.9010	62.5870
 0.9020	62.5870
 0.9030	62.5930
 0.9040	62.5900
 0.9050	62.5830
 0.9060	62.5770
 0.9070	62.5760
 0.9080	62.5750
 0.9090	62.5750
 0.9100	62.5700
 0.9110	62.5600
 0.9120	62.5600
 0.9130	62.5540
 0.9140	62.5500
 0.9150	62.5560
 0.9160	62.5490
 0.9170	62.5400
 0.9180	62.5290
 0.9190	62.5120
 0.9200	62.5110
 0.9210	62.5000
 0.9220	62.4750
 0.9230	62.4470
 0.9240	62.4290
 0.9250	62.4150
 0.9260	62.3950
 0.9270	62.3580
 0.9280	62.3160
 0.9290	62.2790
 0.9300	62.2450
 0.9310	62.2010
 0.9320	62.1610
 0.9330	62.1100
 0.9340	62.0490
 0.9350	61.9990
 0.9360	61.9280
 0.9370	61.8660
 0.9380	61.8190
 0.9390	61.7500
 0.9400	61.6800
 0.9410	61.6130
 0.9420	61.5380
 0.9430	61.4340
 0.9440	61.3340
 0.9450	61.2420
 0.9460	61.1450
 0.9470	61.0140
 0.9480	60.8910
 0.9490	60.7640
 0.9500	60.6160
 0.9510	60.4610
 0.9520	60.2820
 0.9530	60.1000
 0.9540	59.9390
 0.9550	59.7920
 0.9560	59.6260
 0.9570	59.4610
 0.9580	59.3190
 0.9590	59.1630
 0.9600	59.0190
 0.9610	58.8980
 0.9620	58.8000
 0.9630	58.7060
 0.9640	58.6210
 0.9650	58.5370
 0.9660	58.4500
 0.9670	58.3970
 0.9680	58.3470
 0.9690	58.2950
 0.9700	58.2460
 0.9710	58.2070
 0.9720	58.1580
 0.9730	58.1050
 0.9740	58.0710
 0.9750	58.0540
 0.9760	58.0360
 0.9770	58.0140
 0.9780	57.9950
 0.9790	57.9870
 0.9800	57.9840
 0.9810	57.9840
 0.9820	57.9870
 0.9830	57.9900
 0.9840	58.0020
 0.9850	58.0170
 0.9860	58.0270
 0.9870	58.0580
 0.9880	58.0920
 0.9890	58.1290
 0.9900	58.1740
 0.9910	58.2080
 0.9920	58.2990
 0.9930	58.3890
 0.9940	58.4790
 0.9950	58.5690
 0.9960	58.6590
 0.9970	58.7490
 0.9980	58.8390
 0.9990	58.9290
 1.0000	59.0190
 1.0010	59.1100
 1.0020	59.2000
 1.0030	59.2900
 1.0040	59.3800
 1.0050	59.4700
 1.0060	59.5600
 1.0070	59.6500
 1.0080	59.7400
 1.0090	59.8310
 1.0100	59.8310
 1.0110	59.9140
 1.0120	59.9890
 1.0130	60.0630
 1.0140	60.1370
 1.0150	60.2100
 1.0160	60.2810
 1.0170	60.3520
 1.0180	60.4280
 1.0190	60.5060
 1.0200	60.5780
 1.0210	60.6550
 1.0220	60.7320
 1.0230	60.8050
 1.0240	60.8760
 1.0250	60.9480
 1.0260	61.0180
 1.0270	61.0870
 1.0280	61.1550
 1.0290	61.2260
 1.0300	61.3010
 1.0310	61.3700
 1.0320	61.4370
 1.0330	61.5030
 1.0340	61.5660
 1.0350	61.6280
 1.0360	61.6870
 1.0370	61.7470
 1.0380	61.8070
 1.0390	61.8650
 1.0400	61.9210
 1.0410	61.9800
 1.0420	62.0330
 1.0430	62.0760
 1.0440	62.1270
 1.0450	62.1840
 1.0460	62.2360
 1.0470	62.2870
 1.0480	62.3370
 1.0490	62.3840
 1.0500	62.4290
 1.0510	62.4780
 1.0520	62.5220
 1.0530	62.5620
 1.0540	62.5950
 1.0550	62.6320
 1.0560	62.6670
 1.0570	62.7020
 1.0580	62.7400
 1.0590	62.7740
 1.0600	62.8000
 1.0610	62.8320
 1.0620	62.8660
 1.0630	62.8950
 1.0640	62.9220
 1.0650	62.9500
 1.0660	62.9730
 1.0670	62.9950
 1.0680	63.0160
 1.0690	63.0400
 1.0700	63.0570
 1.0710	63.0690
 1.0720	63.0840
 1.0730	63.1020
 1.0740	63.1130
 1.0750	63.1200
 1.0760	63.1300
 1.0770	63.1390
 1.0780	63.1440
 1.0790	63.1470
 1.0800	63.1520
 1.0810	63.1530
 1.0820	63.1520
 1.0830	63.1530
 1.0840	63.1500
 1.0850	63.1410
 1.0860	63.1280
 1.0870	63.1180
 1.0880	63.1100
 1.0890	63.0980
 1.0900	63.0870
 1.0910	63.0690
 1.0920	63.0460
 1.0930	63.0250
 1.0940	63.0030
 1.0950	62.9790
 1.0960	62.9560
 1.0970	62.9320
 1.0980	62.9060
 1.0990	62.8770
 1.1000	62.8490
 1.1010	62.8180
 1.1020	62.7830
 1.1030	62.7470
 1.1040	62.7100
 1.1050	62.6700
 1.1060	62.6310
 1.1070	62.5930
 1.1080	62.5510
 1.1090	62.5080
 1.1100	62.4630
 1.1110	62.4150
 1.1120	62.3640
 1.1130	62.3150
 1.1140	62.2560
 1.1150	62.1880
 1.1160	62.1210
 1.1170	62.0520
 1.1180	61.9760
 1.1190	61.8990
 1.1200	61.8140
 1.1210	61.7180
 1.1220	61.6110
 1.1230	61.4920
 1.1240	61.3630
 1.1250	61.2210
 1.1260	61.0680
 1.1270	60.8980
 1.1280	60.7170
 1.1290	60.5180
 1.1300	60.3050
 1.1310	60.0720
 1.1320	59.8230
 1.1330	59.5550
 1.1340	59.2650
 1.1350	58.9640
 1.1360	58.6470
 1.1370	58.3160
 1.1380	57.9740
 1.1390	57.6240
 1.1400	57.2610
 1.1410	56.8970
 1.1420	56.5300
 1.1430	56.1610
 1.1440	55.7970
 1.1450	55.4280
 1.1460	55.0770
 1.1470	54.7280
 1.1480	54.3980
 1.1490	54.0790
 1.1500	53.7770
 1.1510	53.4850
 1.1520	53.2120
 1.1530	52.9540
 1.1540	52.7160
 1.1550	52.4950
 1.1560	52.2950
 1.1570	52.1100
 1.1580	51.9400
 1.1590	51.7870
 1.1600	51.6450
 1.1610	51.5140
 1.1620	51.3960
 1.1630	51.2830
 1.1640	51.1780
 1.1650	51.0820
 1.1660	50.9960
 1.1670	50.9140
 1.1680	50.8430
 1.1690	50.7710
 1.1700	50.7060
 1.1710	50.6400
 1.1720	50.5770
 1.1730	50.5140
 1.1740	50.4530
 1.1750	50.3900
 1.1760	50.3270
 1.1770	50.2650
 1.1780	50.1990
 1.1790	50.1330
 1.1800	50.0660
 1.1810	49.9970
 1.1820	49.9300
 1.1830	49.8640
 1.1840	49.8010
 1.1850	49.7390
 1.1860	49.6760
 1.1870	49.6160
 1.1880	49.5600
 1.1890	49.5050
 1.1900	49.4550
 1.1910	49.4090
 1.1920	49.3680
 1.1930	49.3310
 1.1940	49.3000
 1.1950	49.2740
 1.1960	49.2520
 1.1970	49.2360
 1.1980	49.2250
 1.1990	49.2190
 1.2000	49.2190
 1.2010	49.2220
 1.2020	49.2310
 1.2030	49.2470
 1.2040	49.2680
 1.2050	49.2970
 1.2060	49.3320
 1.2070	49.3690
 1.2080	49.4120
 1.2090	49.4590
 1.2100	49.5130
 1.2110	49.5700
 1.2120	49.6290
 1.2130	49.6950
 1.2140	49.7650
 1.2150	49.8380
 1.2160	49.9170
 1.2170	49.9990
 1.2180	50.0820
 1.2190	50.1690
 1.2200	50.2570
 1.2210	50.3470
 1.2220	50.4370
 1.2230	50.5260
 1.2240	50.6160
 1.2250	50.7030
 1.2260	50.7880
 1.2270	50.8750
 1.2280	50.9600
 1.2290	51.0440
 1.2300	51.1260
 1.2310	51.2050
 1.2320	51.2800
 1.2330	51.3520
 1.2340	51.4230
 1.2350	51.4920
 1.2360	51.5620
 1.2370	51.6300
 1.2380	51.6980
 1.2390	51.7630
 1.2400	51.8250
 1.2410	51.8850
 1.2420	51.9410
 1.2430	51.9980
 1.2440	52.0540
 1.2450	52.1070
 1.2460	52.1610
 1.2470	52.2120
 1.2480	52.2610
 1.2490	52.3080
 1.2500	52.3490
 1.2510	52.3890
 1.2520	52.4310
 1.2530	52.4700
 1.2540	52.5070
 1.2550	52.5440
 1.2560	52.5780
 1.2570	52.6110
 1.2580	52.6450
 1.2590	52.6750
 1.2600	52.7030
 1.2610	52.7270
 1.2620	52.7470
 1.2630	52.7620
 1.2640	52.7770
 1.2650	52.7910
 1.2660	52.8030
 1.2670	52.8140
 1.2680	52.8220
 1.2690	52.8280
 1.2700	52.8310
 1.2710	52.8320
 1.2720	52.8300
 1.2730	52.8240
 1.2740	52.8160
 1.2750	52.8050
 1.2760	52.7910
 1.2770	52.7770
 1.2780	52.7600
 1.2790	52.7380
 1.2800	52.7120
 1.2810	52.6840
 1.2820	52.6510
 1.2830	52.6150
 1.2840	52.5780
 1.2850	52.5360
 1.2860	52.4890
 1.2870	52.4400
 1.2880	52.3890
 1.2890	52.3330
 1.2900	52.2710
 1.2910	52.2050
 1.2920	52.1360
 1.2930	52.0610
 1.2940	51.9850
 1.2950	51.9060
 1.2960	51.8190
 1.2970	51.7280
 1.2980	51.6320
 1.2990	51.5280
 1.3000	51.4190
 1.3010	51.3070
 1.3020	51.1910
 1.3030	51.0680
 1.3040	50.9370
 1.3050	50.7990
 1.3060	50.6550
 1.3070	50.5050
 1.3080	50.3530
 1.3090	50.1960
 1.3100	50.0320
 1.3110	49.8610
 1.3120	49.6840
 1.3130	49.5000
 1.3140	49.3100
 1.3150	49.1130
 1.3160	48.9120
 1.3170	48.7080
 1.3180	48.4980
 1.3190	48.2820
 1.3200	48.0590
 1.3210	47.8270
 1.3220	47.5920
 1.3230	47.3570
 1.3240	47.1160
 1.3250	46.8740
 1.3260	46.6290
 1.3270	46.3740
 1.3280	46.1190
 1.3290	45.8610
 1.3300	45.6040
 1.3310	45.3490
 1.3320	45.0890
 1.3330	44.8320
 1.3340	44.5730
 1.3350	44.3110
 1.3360	44.0530
 1.3370	43.7960
 1.3380	43.5410
 1.3390	43.2880
 1.3400	43.0370
 1.3410	42.7930
 1.3420	42.5510
 1.3430	42.3120
 1.3440	42.0770
 1.3450	41.8460
 1.3460	41.6170
 1.3470	41.3950
 1.3480	41.1780
 1.3490	40.9650
 1.3500	40.7590
 1.3510	40.5540
 1.3520	40.3510
 1.3530	40.1500
 1.3540	39.9490
 1.3550	39.7500
 1.3560	39.5510
 1.3570	39.3500
 1.3580	39.1520
 1.3590	38.9510
 1.3600	38.7460
 1.3610	38.5400
 1.3620	38.3260
 1.3630	38.1070
 1.3640	37.8830
 1.3650	37.6480
 1.3660	37.4070
 1.3670	37.1570
 1.3680	36.8930
 1.3690	36.6180
 1.3700	36.3260
 1.3710	36.0210
 1.3720	35.7010
 1.3730	35.3600
 1.3740	35.0040
 1.3750	34.6260
 1.3760	34.2240
 1.3770	33.8020
 1.3780	33.3520
 1.3790	32.8820
 1.3800	32.3900
 1.3810	31.8730
 1.3820	31.3420
 1.3830	30.7940
 1.3840	30.2290
 1.3850	29.6460
 1.3860	29.0550
 1.3870	28.4440
 1.3880	27.8380
 1.3890	27.2260
 1.3900	26.6100
 1.3910	26.0030
 1.3920	25.3980
 1.3930	24.7960
 1.3940	24.2050
 1.3950	23.6180
 1.3960	23.0460
 1.3970	22.4900
 1.3980	21.9500
 1.3990	21.4340
 1.4000	20.9360
 1.4010	20.4570
 1.4020	20.0000
 1.4030	19.5590
 1.4040	19.1410
 1.4050	18.7450
 1.4060	18.3680
 1.4070	18.0160
 1.4080	17.6830
 1.4090	17.3690
 1.4100	17.0750
 1.4110	16.7970
 1.4120	16.5370
 1.4130	16.2940
 1.4140	16.0660
 1.4150	15.8560
 1.4160	15.6610
 1.4170	15.4790
 1.4180	15.3090
 1.4190	15.1480
 1.4200	14.9990
 1.4210	14.8590
 1.4220	14.7300
 1.4230	14.6110
 1.4240	14.5000
 1.4250	14.3960
 1.4260	14.3000
 1.4270	14.2100
 1.4280	14.1280
 1.4290	14.0520
 1.4300	13.9830
 1.4310	13.9200
 1.4320	13.8640
 1.4330	13.8110
 1.4340	13.7630
 1.4350	13.7200
 1.4360	13.6810
 1.4370	13.6460
 1.4380	13.6170
 1.4390	13.5900
 1.4400	13.5670
 1.4410	13.5470
 1.4420	13.5300
 1.4430	13.5160
 1.4440	13.5050
 1.4450	13.4950
 1.4460	13.4890
 1.4470	13.4840
 1.4480	13.4820
 1.4490	13.4820
 1.4500	13.4840
 1.4510	13.4870
 1.4520	13.4910
 1.4530	13.4970
 1.4540	13.5030
 1.4550	13.5120
 1.4560	13.5230
 1.4570	13.5370
 1.4580	13.5530
 1.4590	13.5720
 1.4600	13.5940
 1.4610	13.6190
 1.4620	13.6470
 1.4630	13.6790
 1.4640	13.7140
 1.4650	13.7520
 1.4660	13.7930
 1.4670	13.8370
 1.4680	13.8860
 1.4690	13.9370
 1.4700	13.9930
