Name: Heteromeles arbutifolia 2
Type: vegetation
Class: Shrub
Genus: Heteromeles
Species: arbutifolia
Sample No.: VH015
Owner: UCSB
Wavelength Range: TIR
Origin: 34.4907; -119.7912; WGS84
Collection Date: 4/1/2013
Description: Samples were collected as part of the HyspIRI Airborne Campaign. 48 individual plants were sampled in three times in 2013 - spring  summer  and fall. The name of the sample includes a 1  2  or 3 which references a different individual of the species. Samples were taken to JPL and processed within 48 hours of collection. The same leaves were processed in the Nicolet and then measured using the ASD.
Measurement: Hemispherical reflectance
First Column: X
Second Column: Y
X Units: Wavelength (micrometers)
Y Units: Reflectance (percentage)
First X Value: 2.501
Last X Value: 15.387
Number of X Values: 1737
Additional Information: vegetation.shrub.heteromeles.arbutifolia.tir.vh015.ucsb.nicolet.ancillary.txt

 2.5010	 6.3950
 2.5030	 6.5130
 2.5040	 6.5370
 2.5050	 6.4220
 2.5060	 6.2570
 2.5070	 6.2700
 2.5090	 6.4400
 2.5100	 6.5030
 2.5110	 6.5640
 2.5120	 6.4680
 2.5140	 6.4200
 2.5150	 6.3740
 2.5160	 6.4720
 2.5170	 6.4490
 2.5180	 6.4570
 2.5200	 6.4700
 2.5210	 6.4890
 2.5220	 6.5140
 2.5230	 6.4520
 2.5250	 6.3770
 2.5260	 6.4570
 2.5270	 6.3540
 2.5280	 6.1560
 2.5290	 6.0800
 2.5310	 6.2020
 2.5320	 6.3280
 2.5330	 6.3860
 2.5340	 6.3080
 2.5360	 6.4060
 2.5370	 6.3270
 2.5380	 6.1720
 2.5390	 6.2870
 2.5410	 6.5590
 2.5420	 6.4910
 2.5430	 6.3470
 2.5440	 6.3650
 2.5460	 6.4960
 2.5470	 6.3850
 2.5480	 6.3680
 2.5490	 6.3560
 2.5510	 6.3060
 2.5520	 6.4990
 2.5530	 6.5530
 2.5540	 6.4570
 2.5560	 6.4000
 2.5570	 6.3440
 2.5580	 6.4790
 2.5590	 6.4930
 2.5610	 6.4540
 2.5620	 6.3710
 2.5630	 6.3320
 2.5640	 6.3060
 2.5660	 6.3260
 2.5670	 6.3640
 2.5680	 6.3650
 2.5700	 6.2650
 2.5710	 6.3560
 2.5720	 6.5240
 2.5730	 6.5320
 2.5750	 6.3660
 2.5760	 6.4400
 2.5770	 6.5340
 2.5790	 6.5490
 2.5800	 6.4400
 2.5810	 6.3620
 2.5820	 6.2770
 2.5840	 6.2670
 2.5850	 6.3000
 2.5860	 6.3410
 2.5880	 6.2890
 2.5890	 6.2250
 2.5900	 6.0710
 2.5910	 6.2070
 2.5930	 6.2960
 2.5940	 6.3830
 2.5950	 6.3030
 2.5970	 6.2120
 2.5980	 6.1360
 2.5990	 6.1600
 2.6000	 6.1190
 2.6020	 6.0380
 2.6030	 6.0000
 2.6040	 6.0400
 2.6060	 6.0750
 2.6070	 6.2150
 2.6080	 6.2320
 2.6100	 6.1380
 2.6110	 6.0610
 2.6120	 6.0900
 2.6140	 6.0120
 2.6150	 5.8820
 2.6160	 5.7970
 2.6180	 5.8600
 2.6190	 5.8270
 2.6200	 5.8520
 2.6220	 5.7260
 2.6230	 5.6890
 2.6240	 5.8180
 2.6260	 5.8770
 2.6270	 5.7780
 2.6280	 5.8060
 2.6300	 5.8920
 2.6310	 5.9120
 2.6320	 5.7880
 2.6340	 5.6550
 2.6350	 5.5670
 2.6360	 5.5770
 2.6380	 5.5640
 2.6390	 5.6520
 2.6400	 5.5870
 2.6420	 5.5180
 2.6430	 5.3780
 2.6440	 5.4450
 2.6460	 5.4340
 2.6470	 5.3650
 2.6480	 5.3410
 2.6500	 5.3360
 2.6510	 5.2560
 2.6520	 5.2970
 2.6540	 5.2390
 2.6550	 5.2930
 2.6560	 5.1860
 2.6580	 5.2440
 2.6590	 5.2710
 2.6610	 5.2690
 2.6620	 5.1860
 2.6630	 5.1130
 2.6650	 5.1210
 2.6660	 5.1530
 2.6670	 4.9480
 2.6690	 4.8020
 2.6700	 4.9000
 2.6720	 5.0960
 2.6730	 5.1440
 2.6740	 5.1140
 2.6760	 5.0160
 2.6770	 4.9320
 2.6780	 4.7550
 2.6800	 4.8390
 2.6810	 4.9130
 2.6830	 4.9700
 2.6840	 4.9710
 2.6850	 5.0180
 2.6870	 4.9180
 2.6880	 4.8070
 2.6900	 4.8550
 2.6910	 5.0470
 2.6920	 5.0530
 2.6940	 4.9900
 2.6950	 4.9150
 2.6970	 4.9270
 2.6980	 4.7530
 2.6990	 4.8170
 2.7010	 4.8560
 2.7020	 4.8880
 2.7040	 4.9640
 2.7050	 5.0660
 2.7060	 4.9150
 2.7080	 4.8500
 2.7090	 4.7260
 2.7110	 4.7180
 2.7120	 4.8790
 2.7130	 4.9450
 2.7150	 4.8510
 2.7160	 4.7260
 2.7180	 4.5800
 2.7190	 4.6310
 2.7210	 4.7250
 2.7220	 4.8280
 2.7230	 4.7850
 2.7250	 4.6940
 2.7260	 4.6470
 2.7280	 4.7400
 2.7290	 4.7260
 2.7310	 4.7920
 2.7320	 4.8640
 2.7330	 4.8100
 2.7350	 4.6820
 2.7360	 4.8020
 2.7380	 4.8570
 2.7390	 4.8200
 2.7410	 4.7870
 2.7420	 4.8980
 2.7440	 4.8820
 2.7450	 4.9460
 2.7470	 4.9540
 2.7480	 4.8630
 2.7490	 4.6740
 2.7510	 4.6220
 2.7520	 4.6400
 2.7540	 4.7680
 2.7550	 4.6520
 2.7570	 4.6040
 2.7580	 4.5060
 2.7600	 4.4580
 2.7610	 4.6210
 2.7630	 4.7270
 2.7640	 4.7660
 2.7660	 4.7710
 2.7670	 4.6340
 2.7680	 4.6260
 2.7700	 4.5750
 2.7710	 4.5740
 2.7730	 4.5810
 2.7740	 4.7020
 2.7760	 4.6940
 2.7770	 4.7110
 2.7790	 4.7440
 2.7800	 4.8020
 2.7820	 4.8420
 2.7830	 4.8760
 2.7850	 4.6340
 2.7860	 4.4860
 2.7880	 4.4920
 2.7890	 4.7400
 2.7910	 4.7910
 2.7920	 4.8630
 2.7940	 4.8970
 2.7950	 4.8490
 2.7970	 4.7010
 2.7980	 4.7510
 2.8000	 4.7840
 2.8010	 4.8690
 2.8030	 4.7340
 2.8040	 4.8290
 2.8060	 4.8340
 2.8070	 4.7600
 2.8090	 4.7520
 2.8110	 4.8890
 2.8120	 4.8130
 2.8140	 4.7250
 2.8150	 4.7710
 2.8170	 4.8030
 2.8180	 4.7240
 2.8200	 4.6810
 2.8210	 4.7090
 2.8230	 4.8470
 2.8240	 4.6510
 2.8260	 4.5580
 2.8270	 4.5910
 2.8290	 4.6360
 2.8300	 4.6560
 2.8320	 4.6130
 2.8340	 4.6020
 2.8350	 4.7860
 2.8370	 4.9260
 2.8380	 4.9470
 2.8400	 4.7820
 2.8410	 4.9400
 2.8430	 4.8660
 2.8440	 4.6360
 2.8460	 4.6790
 2.8480	 4.7670
 2.8490	 4.7570
 2.8510	 4.8320
 2.8520	 4.7860
 2.8540	 4.8770
 2.8550	 4.7660
 2.8570	 4.7590
 2.8590	 4.7370
 2.8600	 4.7620
 2.8620	 4.6840
 2.8630	 4.6950
 2.8650	 4.6420
 2.8660	 4.8030
 2.8680	 4.8310
 2.8700	 4.8060
 2.8710	 4.7690
 2.8730	 4.8590
 2.8740	 4.8220
 2.8760	 4.7900
 2.8780	 4.7300
 2.8790	 4.6300
 2.8810	 4.6320
 2.8820	 4.7920
 2.8840	 4.8160
 2.8860	 4.9610
 2.8870	 4.8790
 2.8890	 4.7180
 2.8900	 4.6750
 2.8920	 4.8940
 2.8940	 4.8380
 2.8950	 4.7350
 2.8970	 4.7180
 2.8980	 4.6720
 2.9000	 4.6530
 2.9020	 4.8670
 2.9030	 5.0100
 2.9050	 5.0700
 2.9070	 5.0350
 2.9080	 4.9790
 2.9100	 5.0110
 2.9120	 5.0790
 2.9130	 4.7490
 2.9150	 4.7800
 2.9160	 4.8030
 2.9180	 4.8840
 2.9200	 5.0300
 2.9210	 5.1330
 2.9230	 4.9210
 2.9250	 4.6940
 2.9260	 4.6600
 2.9280	 4.8160
 2.9300	 4.8610
 2.9310	 4.8090
 2.9330	 4.7350
 2.9350	 4.9060
 2.9360	 5.0630
 2.9380	 5.0630
 2.9400	 4.8670
 2.9410	 4.8650
 2.9430	 4.9280
 2.9450	 4.8560
 2.9460	 4.9790
 2.9480	 5.2440
 2.9500	 4.9450
 2.9510	 4.6550
 2.9530	 4.9030
 2.9550	 5.1490
 2.9560	 5.0760
 2.9580	 4.8390
 2.9600	 4.7980
 2.9610	 4.9690
 2.9630	 5.0720
 2.9650	 5.1100
 2.9660	 4.6670
 2.9680	 4.0990
 2.9700	 4.2490
 2.9720	 4.2880
 2.9730	 3.9500
 2.9750	 4.2000
 2.9770	 4.3040
 2.9780	 4.4520
 2.9800	 4.7500
 2.9820	 4.5020
 2.9840	 4.0050
 2.9850	 3.4150
 2.9870	 4.1700
 2.9890	 4.5600
 2.9900	 5.1660
 2.9920	 5.6890
 2.9940	 5.1050
 2.9960	 5.6790
 2.9970	 5.6620
 2.9990	 4.1200
 3.0010	 4.0980
 3.0030	 4.8130
 3.0040	 4.9650
 3.0060	 5.0460
 3.0080	 4.9460
 3.0100	 4.8160
 3.0110	 4.7520
 3.0130	 5.6180
 3.0150	 5.3540
 3.0170	 4.1570
 3.0180	 4.6250
 3.0200	 5.2000
 3.0220	 5.6680
 3.0240	 5.7920
 3.0250	 4.6420
 3.0270	 3.9160
 3.0290	 4.1320
 3.0310	 5.0180
 3.0320	 5.1670
 3.0340	 5.4420
 3.0360	 5.6560
 3.0380	 4.9200
 3.0400	 4.1600
 3.0410	 4.1970
 3.0430	 4.2190
 3.0450	 4.1560
 3.0470	 4.9730
 3.0480	 6.1580
 3.0500	 6.3740
 3.0520	 4.9820
 3.0540	 4.2350
 3.0560	 4.0810
 3.0570	 3.9630
 3.0590	 3.9920
 3.0610	 4.7140
 3.0630	 5.1220
 3.0650	 4.8680
 3.0660	 4.8950
 3.0680	 4.6200
 3.0700	 4.5080
 3.0720	 4.7240
 3.0740	 4.8550
 3.0760	 4.7830
 3.0770	 5.0580
 3.0790	 5.0190
 3.0810	 4.8830
 3.0830	 4.8160
 3.0850	 4.8720
 3.0870	 5.0560
 3.0880	 5.4620
 3.0900	 5.7520
 3.0920	 5.4280
 3.0940	 5.3850
 3.0960	 5.4530
 3.0980	 5.0870
 3.0990	 5.1820
 3.1010	 5.0270
 3.1030	 4.9840
 3.1050	 4.9250
 3.1070	 4.9520
 3.1090	 4.9050
 3.1110	 4.8380
 3.1120	 4.7950
 3.1140	 4.7050
 3.1160	 4.6710
 3.1180	 4.7160
 3.1200	 4.7860
 3.1220	 4.9580
 3.1240	 4.9070
 3.1260	 4.9320
 3.1270	 4.8680
 3.1290	 4.8590
 3.1310	 4.8040
 3.1330	 4.8220
 3.1350	 5.1410
 3.1370	 5.2960
 3.1390	 4.7100
 3.1410	 4.6080
 3.1430	 4.7100
 3.1450	 4.9650
 3.1460	 4.5420
 3.1480	 4.4860
 3.1500	 4.5090
 3.1520	 4.5940
 3.1540	 4.9550
 3.1560	 4.8000
 3.1580	 4.7700
 3.1600	 4.8310
 3.1620	 4.3520
 3.1640	 4.6100
 3.1660	 5.0010
 3.1680	 5.1400
 3.1700	 4.7490
 3.1710	 4.8060
 3.1730	 4.2610
 3.1750	 4.1610
 3.1770	 4.6470
 3.1790	 4.0690
 3.1810	 4.3670
 3.1830	 4.7090
 3.1850	 4.3620
 3.1870	 4.4140
 3.1890	 4.7540
 3.1910	 5.4290
 3.1930	 5.0960
 3.1950	 4.7480
 3.1970	 4.7900
 3.1990	 4.7970
 3.2010	 5.0700
 3.2030	 5.0640
 3.2050	 4.5910
 3.2070	 4.5050
 3.2090	 4.6450
 3.2110	 4.6830
 3.2130	 4.8680
 3.2150	 4.9660
 3.2170	 4.7900
 3.2190	 4.7950
 3.2210	 4.8070
 3.2230	 4.7980
 3.2250	 4.7550
 3.2270	 4.7970
 3.2290	 4.6940
 3.2310	 4.7620
 3.2330	 4.8980
 3.2350	 4.9130
 3.2370	 4.9380
 3.2390	 4.8710
 3.2410	 4.6890
 3.2430	 4.6610
 3.2450	 4.7500
 3.2470	 4.9420
 3.2490	 4.8340
 3.2510	 4.7080
 3.2530	 4.6360
 3.2550	 4.7880
 3.2570	 4.7450
 3.2590	 4.6510
 3.2610	 4.5790
 3.2630	 4.6110
 3.2650	 4.5380
 3.2670	 4.6780
 3.2690	 4.7900
 3.2720	 4.8290
 3.2740	 4.7190
 3.2760	 4.7110
 3.2780	 4.6590
 3.2800	 4.6510
 3.2820	 4.5330
 3.2840	 4.5310
 3.2860	 4.6060
 3.2880	 4.6920
 3.2900	 4.6160
 3.2920	 4.5510
 3.2940	 4.4730
 3.2960	 4.5390
 3.2990	 4.5230
 3.3010	 4.3850
 3.3030	 4.4360
 3.3050	 4.5700
 3.3070	 4.5480
 3.3090	 4.4640
 3.3110	 4.3400
 3.3130	 4.4180
 3.3150	 4.4530
 3.3180	 4.3570
 3.3200	 4.2270
 3.3220	 4.2200
 3.3240	 4.2690
 3.3260	 4.2720
 3.3280	 4.2270
 3.3300	 4.2930
 3.3330	 4.3180
 3.3350	 4.4210
 3.3370	 4.4010
 3.3390	 4.4080
 3.3410	 4.3020
 3.3430	 4.3380
 3.3450	 4.3790
 3.3480	 4.3220
 3.3500	 4.2660
 3.3520	 4.2280
 3.3540	 4.1940
 3.3560	 4.2650
 3.3580	 4.3610
 3.3610	 4.3350
 3.3630	 4.2690
 3.3650	 4.2080
 3.3670	 4.2200
 3.3690	 4.2760
 3.3720	 4.0920
 3.3740	 4.0810
 3.3760	 4.1830
 3.3780	 4.3240
 3.3800	 4.3420
 3.3830	 4.3070
 3.3850	 4.1290
 3.3870	 4.0550
 3.3890	 4.0620
 3.3910	 4.0350
 3.3940	 4.0780
 3.3960	 4.3060
 3.3980	 4.4580
 3.4000	 4.4480
 3.4020	 4.4420
 3.4050	 4.6260
 3.4070	 4.9060
 3.4090	 5.1470
 3.4110	 5.1990
 3.4140	 5.4790
 3.4160	 5.7330
 3.4180	 6.0640
 3.4200	 6.5830
 3.4230	 7.2810
 3.4250	 7.9980
 3.4270	 8.6630
 3.4290	 9.0240
 3.4320	 8.6840
 3.4340	 7.8310
 3.4360	 7.1320
 3.4390	 6.6410
 3.4410	 6.4080
 3.4430	 6.1640
 3.4450	 6.0990
 3.4480	 6.1820
 3.4500	 6.2160
 3.4520	 5.9880
 3.4550	 5.7750
 3.4570	 5.6080
 3.4590	 5.6050
 3.4620	 5.6640
 3.4640	 5.7370
 3.4660	 5.7110
 3.4680	 5.6070
 3.4710	 5.3920
 3.4730	 5.3280
 3.4750	 5.2910
 3.4780	 5.3600
 3.4800	 5.2150
 3.4820	 5.1770
 3.4850	 5.2380
 3.4870	 5.1770
 3.4890	 5.1140
 3.4920	 5.2850
 3.4940	 5.3550
 3.4970	 5.3510
 3.4990	 5.3960
 3.5010	 5.6290
 3.5040	 5.9790
 3.5060	 6.6760
 3.5080	 7.6410
 3.5110	 8.4880
 3.5130	 8.2260
 3.5160	 7.3640
 3.5180	 6.7810
 3.5200	 6.4210
 3.5230	 6.0350
 3.5250	 5.9100
 3.5270	 5.9000
 3.5300	 5.8370
 3.5320	 5.7890
 3.5350	 5.7280
 3.5370	 5.6220
 3.5400	 5.5980
 3.5420	 5.4850
 3.5440	 5.4740
 3.5470	 5.4750
 3.5490	 5.4400
 3.5520	 5.3040
 3.5540	 5.2980
 3.5570	 5.3230
 3.5590	 5.2650
 3.5610	 5.2220
 3.5640	 5.4410
 3.5660	 5.4800
 3.5690	 5.4970
 3.5710	 5.4550
 3.5740	 5.3230
 3.5760	 5.1750
 3.5790	 5.2070
 3.5810	 5.2930
 3.5840	 5.2220
 3.5860	 5.2310
 3.5890	 5.3240
 3.5910	 5.1910
 3.5930	 5.1960
 3.5960	 5.1620
 3.5980	 5.1670
 3.6010	 5.2230
 3.6030	 5.4050
 3.6060	 5.3600
 3.6080	 5.1140
 3.6110	 5.0290
 3.6140	 5.0680
 3.6160	 5.1200
 3.6190	 5.1160
 3.6210	 5.1710
 3.6240	 5.2150
 3.6260	 5.1830
 3.6290	 5.2440
 3.6310	 5.2310
 3.6340	 5.2220
 3.6360	 5.2490
 3.6390	 5.2610
 3.6410	 5.2760
 3.6440	 5.2430
 3.6470	 5.1940
 3.6490	 5.2390
 3.6520	 5.2320
 3.6540	 5.2000
 3.6570	 5.0980
 3.6590	 5.0430
 3.6620	 5.0700
 3.6650	 5.1700
 3.6670	 5.1610
 3.6700	 5.0840
 3.6720	 5.1340
 3.6750	 5.2220
 3.6780	 5.1910
 3.6800	 5.1400
 3.6830	 5.1730
 3.6850	 5.1960
 3.6880	 5.1960
 3.6910	 5.1830
 3.6930	 5.0700
 3.6960	 5.0490
 3.6990	 5.0760
 3.7010	 5.1770
 3.7040	 5.0980
 3.7060	 5.0440
 3.7090	 5.0570
 3.7120	 5.0530
 3.7140	 5.0490
 3.7170	 5.0550
 3.7200	 5.0300
 3.7220	 5.1300
 3.7250	 5.0130
 3.7280	 4.8790
 3.7300	 4.8970
 3.7330	 5.0330
 3.7360	 5.1620
 3.7390	 5.1770
 3.7410	 5.1470
 3.7440	 5.1520
 3.7470	 5.1880
 3.7490	 5.1460
 3.7520	 5.1210
 3.7550	 5.1870
 3.7580	 5.1920
 3.7600	 5.2300
 3.7630	 5.2090
 3.7660	 5.2530
 3.7680	 5.2710
 3.7710	 5.1390
 3.7740	 5.0590
 3.7770	 5.0770
 3.7790	 5.0220
 3.7820	 5.1020
 3.7850	 5.1740
 3.7880	 5.1260
 3.7900	 5.0700
 3.7930	 5.1150
 3.7960	 5.1290
 3.7990	 5.0890
 3.8020	 5.0890
 3.8040	 5.1760
 3.8070	 5.2120
 3.8100	 5.1860
 3.8130	 5.1170
 3.8160	 5.1390
 3.8180	 5.0830
 3.8210	 5.0630
 3.8240	 5.0630
 3.8270	 5.0860
 3.8300	 5.1020
 3.8330	 5.1620
 3.8350	 5.0900
 3.8380	 5.1250
 3.8410	 5.1950
 3.8440	 5.1870
 3.8470	 5.1790
 3.8500	 5.1490
 3.8520	 5.0770
 3.8550	 5.0560
 3.8580	 5.0490
 3.8610	 5.0430
 3.8640	 5.0600
 3.8670	 5.1000
 3.8700	 5.1530
 3.8730	 5.1560
 3.8750	 5.1100
 3.8780	 5.1700
 3.8810	 5.1460
 3.8840	 5.1370
 3.8870	 5.1030
 3.8900	 5.1540
 3.8930	 5.1910
 3.8960	 5.3010
 3.8990	 5.2300
 3.9020	 5.1690
 3.9050	 5.2670
 3.9080	 5.2580
 3.9110	 5.2060
 3.9140	 5.1830
 3.9160	 5.2090
 3.9190	 5.2210
 3.9220	 5.1720
 3.9250	 5.2230
 3.9280	 5.2610
 3.9310	 5.2320
 3.9340	 5.1780
 3.9370	 5.1380
 3.9400	 5.1160
 3.9430	 5.1700
 3.9460	 5.2030
 3.9490	 5.2460
 3.9520	 5.2460
 3.9550	 5.2190
 3.9580	 5.1590
 3.9610	 5.2030
 3.9640	 5.1860
 3.9670	 5.1450
 3.9700	 5.2030
 3.9730	 5.2490
 3.9770	 5.1690
 3.9800	 5.1870
 3.9830	 5.2420
 3.9860	 5.2310
 3.9890	 5.1520
 3.9920	 5.1740
 3.9950	 5.1770
 3.9980	 5.2140
 4.0010	 5.1370
 4.0040	 5.1360
 4.0070	 5.2110
 4.0100	 5.2530
 4.0130	 5.2050
 4.0170	 5.1740
 4.0200	 5.1380
 4.0230	 5.1880
 4.0260	 5.2410
 4.0290	 5.2550
 4.0320	 5.2120
 4.0350	 5.1890
 4.0380	 5.1900
 4.0420	 5.2330
 4.0450	 5.1790
 4.0480	 5.0860
 4.0510	 5.1210
 4.0540	 5.1270
 4.0570	 5.0920
 4.0610	 5.2210
 4.0640	 5.2660
 4.0670	 5.2260
 4.0700	 5.1120
 4.0730	 5.1240
 4.0770	 5.1740
 4.0800	 5.1610
 4.0830	 5.1200
 4.0860	 5.1300
 4.0890	 5.0870
 4.0930	 5.0850
 4.0960	 5.0990
 4.0990	 5.1320
 4.1020	 5.1420
 4.1060	 5.1710
 4.1090	 5.1270
 4.1120	 5.1260
 4.1150	 5.1930
 4.1190	 5.2160
 4.1220	 5.1200
 4.1250	 5.0430
 4.1280	 5.0400
 4.1320	 5.0930
 4.1350	 5.1290
 4.1380	 5.1790
 4.1420	 5.1910
 4.1450	 5.1490
 4.1480	 5.0860
 4.1520	 5.0950
 4.1550	 5.0980
 4.1580	 5.0740
 4.1620	 5.0590
 4.1650	 5.1370
 4.1680	 5.1800
 4.1720	 5.1680
 4.1750	 5.0890
 4.1780	 5.0380
 4.1820	 5.1130
 4.1850	 5.1410
 4.1890	 5.1250
 4.1920	 5.1290
 4.1950	 5.0680
 4.1990	 5.0500
 4.2020	 4.9620
 4.2060	 4.8760
 4.2090	 4.8890
 4.2120	 4.9580
 4.2160	 4.8460
 4.2190	 4.8490
 4.2230	 4.7970
 4.2260	 4.7070
 4.2300	 4.7190
 4.2330	 4.6960
 4.2360	 4.7310
 4.2400	 4.6410
 4.2430	 4.6040
 4.2470	 4.5350
 4.2500	 4.7420
 4.2540	 5.0460
 4.2570	 5.0020
 4.2610	 4.9720
 4.2640	 4.9730
 4.2680	 4.8780
 4.2710	 4.7240
 4.2750	 4.9660
 4.2780	 5.0410
 4.2820	 4.9060
 4.2850	 4.8360
 4.2890	 4.7060
 4.2930	 4.7030
 4.2960	 4.6720
 4.3000	 4.6920
 4.3030	 4.8040
 4.3070	 4.8610
 4.3100	 4.8810
 4.3140	 4.8940
 4.3180	 5.0330
 4.3210	 5.0410
 4.3250	 4.9550
 4.3280	 4.8460
 4.3320	 4.8790
 4.3360	 4.9850
 4.3390	 5.0790
 4.3430	 4.9950
 4.3470	 4.9680
 4.3500	 4.9360
 4.3540	 4.9340
 4.3570	 4.9650
 4.3610	 5.0060
 4.3650	 5.0230
 4.3680	 5.0770
 4.3720	 5.0530
 4.3760	 5.0140
 4.3800	 4.9660
 4.3830	 4.9780
 4.3870	 5.0060
 4.3910	 4.9910
 4.3940	 5.0500
 4.3980	 5.1030
 4.4020	 4.9870
 4.4060	 4.8880
 4.4090	 4.9670
 4.4130	 5.0760
 4.4170	 5.1240
 4.4210	 5.1130
 4.4240	 5.0620
 4.4280	 5.0720
 4.4320	 5.0590
 4.4360	 4.9960
 4.4400	 5.0490
 4.4430	 5.1140
 4.4470	 5.1110
 4.4510	 5.0930
 4.4550	 5.0670
 4.4590	 5.0410
 4.4620	 5.0590
 4.4660	 5.0310
 4.4700	 4.9430
 4.4740	 4.9100
 4.4780	 4.9040
 4.4820	 4.9410
 4.4860	 4.9820
 4.4900	 5.0050
 4.4930	 4.9760
 4.4970	 4.9940
 4.5010	 5.0820
 4.5050	 5.0520
 4.5090	 4.9720
 4.5130	 4.9470
 4.5170	 4.9370
 4.5210	 4.9490
 4.5250	 4.9470
 4.5290	 4.9300
 4.5330	 4.9370
 4.5370	 4.9430
 4.5410	 5.0180
 4.5450	 5.0510
 4.5490	 4.9390
 4.5530	 4.9970
 4.5570	 5.1090
 4.5610	 5.0260
 4.5650	 4.9110
 4.5690	 4.9040
 4.5730	 4.9440
 4.5770	 4.8940
 4.5810	 4.8680
 4.5850	 4.9390
 4.5890	 4.9510
 4.5930	 4.9930
 4.5970	 5.0200
 4.6010	 4.9820
 4.6050	 4.9860
 4.6090	 5.0010
 4.6130	 5.0720
 4.6170	 5.0330
 4.6220	 4.9240
 4.6260	 4.8690
 4.6300	 4.8080
 4.6340	 4.8240
 4.6380	 4.9430
 4.6420	 4.9290
 4.6460	 4.8520
 4.6510	 4.8850
 4.6550	 5.0060
 4.6590	 5.0290
 4.6630	 4.9330
 4.6670	 4.9120
 4.6720	 4.9190
 4.6760	 4.9570
 4.6800	 4.9950
 4.6840	 4.9290
 4.6880	 4.9730
 4.6930	 4.9560
 4.6970	 4.9600
 4.7010	 4.9970
 4.7050	 4.9980
 4.7100	 4.9570
 4.7140	 4.9750
 4.7180	 4.9560
 4.7230	 4.9990
 4.7270	 5.0340
 4.7310	 4.9760
 4.7360	 4.9570
 4.7400	 4.9500
 4.7440	 4.9480
 4.7490	 4.9060
 4.7530	 4.9020
 4.7570	 4.9150
 4.7620	 4.9530
 4.7660	 5.0010
 4.7700	 4.9750
 4.7750	 4.9800
 4.7790	 5.0010
 4.7840	 4.8960
 4.7880	 4.8350
 4.7920	 4.8090
 4.7970	 4.8990
 4.8010	 4.9790
 4.8060	 4.9260
 4.8100	 4.9190
 4.8150	 4.9770
 4.8190	 4.9350
 4.8240	 4.8980
 4.8280	 4.9650
 4.8330	 5.0010
 4.8370	 5.0230
 4.8420	 4.9770
 4.8460	 4.9410
 4.8510	 4.9150
 4.8550	 4.8540
 4.8600	 4.8470
 4.8640	 4.9550
 4.8690	 4.9700
 4.8730	 4.8940
 4.8780	 4.8380
 4.8830	 4.9100
 4.8870	 4.9730
 4.8920	 4.9650
 4.8960	 4.8960
 4.9010	 4.8750
 4.9060	 4.9180
 4.9100	 4.8790
 4.9150	 4.8580
 4.9200	 4.9260
 4.9240	 4.9140
 4.9290	 4.9480
 4.9340	 4.9720
 4.9380	 4.9110
 4.9430	 4.8440
 4.9480	 4.8320
 4.9530	 4.8680
 4.9570	 4.9220
 4.9620	 5.0040
 4.9670	 4.9820
 4.9720	 4.9280
 4.9760	 4.9150
 4.9810	 4.8640
 4.9860	 4.8950
 4.9910	 4.9350
 4.9960	 4.8740
 5.0000	 4.7820
 5.0050	 4.8210
 5.0100	 4.8330
 5.0150	 4.9070
 5.0200	 4.9430
 5.0250	 4.9740
 5.0290	 4.9650
 5.0340	 4.9080
 5.0390	 4.8710
 5.0440	 4.8930
 5.0490	 4.9600
 5.0540	 4.8950
 5.0590	 4.9260
 5.0640	 5.0270
 5.0690	 4.8950
 5.0740	 4.8430
 5.0790	 4.8570
 5.0840	 4.8850
 5.0890	 4.9340
 5.0940	 4.9780
 5.0990	 4.9390
 5.1040	 4.9350
 5.1090	 4.9680
 5.1140	 4.9400
 5.1190	 4.8940
 5.1240	 4.8390
 5.1290	 4.8190
 5.1340	 4.8470
 5.1390	 4.8370
 5.1440	 4.8470
 5.1490	 4.8820
 5.1540	 4.8120
 5.1600	 4.7170
 5.1650	 4.8390
 5.1700	 4.9590
 5.1750	 4.9240
 5.1800	 4.8530
 5.1850	 4.8320
 5.1910	 4.8500
 5.1960	 4.9440
 5.2010	 4.8440
 5.2060	 4.7910
 5.2110	 4.8430
 5.2170	 4.9110
 5.2220	 4.9330
 5.2270	 4.8600
 5.2320	 4.8190
 5.2380	 4.9170
 5.2430	 4.9300
 5.2480	 4.9000
 5.2540	 4.8180
 5.2590	 4.7660
 5.2640	 4.8320
 5.2700	 4.8750
 5.2750	 4.8280
 5.2800	 4.8880
 5.2860	 4.9300
 5.2910	 4.9660
 5.2970	 4.9090
 5.3020	 4.8380
 5.3070	 4.8350
 5.3130	 4.8960
 5.3180	 4.9220
 5.3240	 4.8960
 5.3290	 4.8260
 5.3350	 4.7750
 5.3400	 4.7200
 5.3460	 4.7620
 5.3510	 4.7430
 5.3570	 4.7150
 5.3620	 4.7340
 5.3680	 4.8150
 5.3730	 4.8050
 5.3790	 4.8200
 5.3850	 4.7860
 5.3900	 4.6600
 5.3960	 4.6510
 5.4010	 4.7480
 5.4070	 4.7110
 5.4130	 4.6760
 5.4180	 4.6670
 5.4240	 4.6690
 5.4300	 4.6230
 5.4350	 4.7230
