Name: Eucalyptus maculata
Type: vegetation
Class: Tree
Genus: Eucalyptus
Species: maculata
Sample No.: JPL088
Owner: JPL
Wavelength Range: VSWIR
Origin: 34.12507; - 118.11447; WGS84
Collection Date: 2/2/2016
Description: Samples were collected at the Huntington Garden in San Marino California as part of a JPL Subcontract studying HyTES imagery. Samples were taken to JPL and processed within 48 hours of collection. The same leaves were processed in the Nicolet and then measured using the ASD.
Measurement: Bidirectional reflectance
First Column: X
Second Column: Y
X Units: Wavelength (micrometer)
Y Units: Reflectance (percentage)
First X Value: 0.35
Last X Value: 2.5
Number of X Values: 2151
Additional Information: 

 0.3500	 6.7290
 0.3510	 7.1920
 0.3520	 6.2350
 0.3530	 5.1190
 0.3540	 4.9220
 0.3550	 5.6960
 0.3560	 5.9360
 0.3570	 5.6730
 0.3580	 5.7260
 0.3590	 5.7560
 0.3600	 5.6270
 0.3610	 5.4940
 0.3620	 5.9000
 0.3630	 5.9840
 0.3640	 6.1290
 0.3650	 6.7440
 0.3660	 7.2840
 0.3670	 6.7430
 0.3680	 5.7550
 0.3690	 5.9390
 0.3700	 6.2710
 0.3710	 6.2390
 0.3720	 5.9150
 0.3730	 6.3250
 0.3740	 6.5770
 0.3750	 6.5160
 0.3760	 6.3240
 0.3770	 6.4890
 0.3780	 6.4180
 0.3790	 6.0650
 0.3800	 5.8910
 0.3810	 6.1740
 0.3820	 6.3150
 0.3830	 6.0010
 0.3840	 5.7520
 0.3850	 6.0590
 0.3860	 6.4340
 0.3870	 6.2090
 0.3880	 6.1250
 0.3890	 6.1510
 0.3900	 6.1730
 0.3910	 6.0560
 0.3920	 5.8870
 0.3930	 5.8810
 0.3940	 6.1390
 0.3950	 6.4340
 0.3960	 6.5640
 0.3970	 6.5360
 0.3980	 6.4670
 0.3990	 6.4020
 0.4000	 6.3460
 0.4010	 6.3230
 0.4020	 6.4000
 0.4030	 6.1670
 0.4040	 6.0280
 0.4050	 6.3320
 0.4060	 6.5770
 0.4070	 6.7550
 0.4080	 6.7420
 0.4090	 6.3820
 0.4100	 6.0020
 0.4110	 5.9650
 0.4120	 6.3360
 0.4130	 6.7600
 0.4140	 6.6970
 0.4150	 6.4910
 0.4160	 6.6200
 0.4170	 6.6020
 0.4180	 6.4960
 0.4190	 6.4400
 0.4200	 6.6060
 0.4210	 6.6890
 0.4220	 6.6820
 0.4230	 6.6500
 0.4240	 6.6610
 0.4250	 6.6210
 0.4260	 6.6190
 0.4270	 6.7700
 0.4280	 6.6960
 0.4290	 6.6440
 0.4300	 6.7170
 0.4310	 6.7400
 0.4320	 6.7550
 0.4330	 6.8110
 0.4340	 6.9100
 0.4350	 6.8560
 0.4360	 6.8240
 0.4370	 6.8550
 0.4380	 6.8760
 0.4390	 6.7490
 0.4400	 6.7060
 0.4410	 6.8510
 0.4420	 6.8670
 0.4430	 6.9190
 0.4440	 6.9570
 0.4450	 6.8800
 0.4460	 6.7950
 0.4470	 6.8180
 0.4480	 6.9320
 0.4490	 6.9690
 0.4500	 6.9830
 0.4510	 6.9850
 0.4520	 6.9740
 0.4530	 6.9250
 0.4540	 6.9140
 0.4550	 6.9520
 0.4560	 7.0010
 0.4570	 6.9810
 0.4580	 6.9780
 0.4590	 7.0230
 0.4600	 6.9870
 0.4610	 7.0300
 0.4620	 7.0820
 0.4630	 7.0430
 0.4640	 7.0790
 0.4650	 7.0960
 0.4660	 7.0660
 0.4670	 7.0360
 0.4680	 7.0800
 0.4690	 7.1060
 0.4700	 7.0630
 0.4710	 7.1060
 0.4720	 7.0670
 0.4730	 6.9760
 0.4740	 6.9690
 0.4750	 7.1230
 0.4760	 7.1830
 0.4770	 7.0780
 0.4780	 7.0810
 0.4790	 7.0130
 0.4800	 7.0060
 0.4810	 7.1750
 0.4820	 7.1880
 0.4830	 7.1260
 0.4840	 7.0680
 0.4850	 7.0670
 0.4860	 7.0740
 0.4870	 7.1120
 0.4880	 7.1620
 0.4890	 7.0550
 0.4900	 7.0110
 0.4910	 7.0800
 0.4920	 7.2000
 0.4930	 7.2150
 0.4940	 7.1850
 0.4950	 7.1650
 0.4960	 7.1760
 0.4970	 7.1630
 0.4980	 7.1770
 0.4990	 7.2580
 0.5000	 7.2800
 0.5010	 7.2770
 0.5020	 7.2870
 0.5030	 7.3400
 0.5040	 7.3760
 0.5050	 7.3580
 0.5060	 7.3160
 0.5070	 7.4300
 0.5080	 7.5080
 0.5090	 7.5590
 0.5100	 7.6630
 0.5110	 7.7270
 0.5120	 7.7800
 0.5130	 7.8300
 0.5140	 7.8490
 0.5150	 7.9220
 0.5160	 8.0170
 0.5170	 8.0960
 0.5180	 8.2240
 0.5190	 8.3240
 0.5200	 8.3920
 0.5210	 8.4770
 0.5220	 8.6170
 0.5230	 8.7320
 0.5240	 8.7880
 0.5250	 8.9090
 0.5260	 9.0260
 0.5270	 9.1140
 0.5280	 9.1710
 0.5290	 9.2430
 0.5300	 9.3350
 0.5310	 9.4260
 0.5320	 9.4690
 0.5330	 9.5340
 0.5340	 9.5960
 0.5350	 9.6230
 0.5360	 9.6450
 0.5370	 9.7100
 0.5380	 9.7880
 0.5390	 9.8020
 0.5400	 9.8100
 0.5410	 9.8380
 0.5420	 9.8880
 0.5430	 9.9290
 0.5440	 9.9640
 0.5450	 9.9870
 0.5460	 9.9900
 0.5470	 9.9780
 0.5480	 9.9600
 0.5490	 9.9560
 0.5500	 9.9930
 0.5510	10.0110
 0.5520	 9.9960
 0.5530	 9.9600
 0.5540	 9.9420
 0.5550	 9.9330
 0.5560	 9.9190
 0.5570	 9.8830
 0.5580	 9.8490
 0.5590	 9.8210
 0.5600	 9.7870
 0.5610	 9.7090
 0.5620	 9.6550
 0.5630	 9.6260
 0.5640	 9.5920
 0.5650	 9.5280
 0.5660	 9.4500
 0.5670	 9.3780
 0.5680	 9.3420
 0.5690	 9.2930
 0.5700	 9.2200
 0.5710	 9.1270
 0.5720	 9.0470
 0.5730	 8.9900
 0.5740	 8.9430
 0.5750	 8.8860
 0.5760	 8.8740
 0.5770	 8.8540
 0.5780	 8.7950
 0.5790	 8.7450
 0.5800	 8.7160
 0.5810	 8.6970
 0.5820	 8.6670
 0.5830	 8.6230
 0.5840	 8.5950
 0.5850	 8.5830
 0.5860	 8.5520
 0.5870	 8.5180
 0.5880	 8.4960
 0.5890	 8.4910
 0.5900	 8.4840
 0.5910	 8.4500
 0.5920	 8.4120
 0.5930	 8.4110
 0.5940	 8.4320
 0.5950	 8.4410
 0.5960	 8.4230
 0.5970	 8.3930
 0.5980	 8.3770
 0.5990	 8.3700
 0.6000	 8.3550
 0.6010	 8.3150
 0.6020	 8.3070
 0.6030	 8.3260
 0.6040	 8.3050
 0.6050	 8.2700
 0.6060	 8.2320
 0.6070	 8.2050
 0.6080	 8.2080
 0.6090	 8.1920
 0.6100	 8.1550
 0.6110	 8.1190
 0.6120	 8.1050
 0.6130	 8.0880
 0.6140	 8.0560
 0.6150	 8.0210
 0.6160	 7.9870
 0.6170	 7.9600
 0.6180	 7.9410
 0.6190	 7.9110
 0.6200	 7.8990
 0.6210	 7.9000
 0.6220	 7.8800
 0.6230	 7.8620
 0.6240	 7.8500
 0.6250	 7.8460
 0.6260	 7.8560
 0.6270	 7.8460
 0.6280	 7.8290
 0.6290	 7.8320
 0.6300	 7.8270
 0.6310	 7.8240
 0.6320	 7.8240
 0.6330	 7.8130
 0.6340	 7.8160
 0.6350	 7.8170
 0.6360	 7.8000
 0.6370	 7.7870
 0.6380	 7.7510
 0.6390	 7.7110
 0.6400	 7.7030
 0.6410	 7.6960
 0.6420	 7.6920
 0.6430	 7.6840
 0.6440	 7.6440
 0.6450	 7.6000
 0.6460	 7.5750
 0.6470	 7.5790
 0.6480	 7.5740
 0.6490	 7.5730
 0.6500	 7.5690
 0.6510	 7.5390
 0.6520	 7.5170
 0.6530	 7.5090
 0.6540	 7.5150
 0.6550	 7.5430
 0.6560	 7.5370
 0.6570	 7.5130
 0.6580	 7.5090
 0.6590	 7.4970
 0.6600	 7.4900
 0.6610	 7.4940
 0.6620	 7.4980
 0.6630	 7.4810
 0.6640	 7.4590
 0.6650	 7.4520
 0.6660	 7.4660
 0.6670	 7.4740
 0.6680	 7.4730
 0.6690	 7.4720
 0.6700	 7.4840
 0.6710	 7.5030
 0.6720	 7.5200
 0.6730	 7.5230
 0.6740	 7.5460
 0.6750	 7.5850
 0.6760	 7.6260
 0.6770	 7.6570
 0.6780	 7.7010
 0.6790	 7.7510
 0.6800	 7.7840
 0.6810	 7.8240
 0.6820	 7.8800
 0.6830	 7.9410
 0.6840	 7.9800
 0.6850	 8.0240
 0.6860	 8.0760
 0.6870	 8.1310
 0.6880	 8.1990
 0.6890	 8.2850
 0.6900	 8.3810
 0.6910	 8.4760
 0.6920	 8.5920
 0.6930	 8.7400
 0.6940	 8.9300
 0.6950	 9.1730
 0.6960	 9.4310
 0.6970	 9.7100
 0.6980	10.0340
 0.6990	10.4150
 0.7000	10.8380
 0.7010	11.2990
 0.7020	11.8020
 0.7030	12.3070
 0.7040	12.8320
 0.7050	13.3930
 0.7060	13.9840
 0.7070	14.5870
 0.7080	15.1960
 0.7090	15.8160
 0.7100	16.4610
 0.7110	17.1320
 0.7120	17.8240
 0.7130	18.5290
 0.7140	19.2540
 0.7150	19.9810
 0.7160	20.7010
 0.7170	21.4520
 0.7180	22.2160
 0.7190	22.9810
 0.7200	23.7410
 0.7210	24.5030
 0.7220	25.2610
 0.7230	26.0150
 0.7240	26.7710
 0.7250	27.4880
 0.7260	28.2010
 0.7270	28.9290
 0.7280	29.6210
 0.7290	30.2580
 0.7300	30.8720
 0.7310	31.5040
 0.7320	32.1170
 0.7330	32.6780
 0.7340	33.1890
 0.7350	33.6950
 0.7360	34.1730
 0.7370	34.6230
 0.7380	35.0510
 0.7390	35.4590
 0.7400	35.8480
 0.7410	36.2080
 0.7420	36.5240
 0.7430	36.8030
 0.7440	37.0870
 0.7450	37.3710
 0.7460	37.6070
 0.7470	37.7990
 0.7480	37.9950
 0.7490	38.2090
 0.7500	38.3740
 0.7510	38.5110
 0.7520	38.6430
 0.7530	38.7830
 0.7540	38.8790
 0.7550	38.9730
 0.7560	39.0790
 0.7570	39.1800
 0.7580	39.2560
 0.7590	39.3170
 0.7600	39.3770
 0.7610	39.4440
 0.7620	39.5000
 0.7630	39.5320
 0.7640	39.5460
 0.7650	39.5950
 0.7660	39.6420
 0.7670	39.6760
 0.7680	39.6990
 0.7690	39.7130
 0.7700	39.7370
 0.7710	39.7690
 0.7720	39.7790
 0.7730	39.7760
 0.7740	39.7750
 0.7750	39.7900
 0.7760	39.8290
 0.7770	39.8380
 0.7780	39.8340
 0.7790	39.8570
 0.7800	39.8740
 0.7810	39.8880
 0.7820	39.8970
 0.7830	39.8850
 0.7840	39.8860
 0.7850	39.8940
 0.7860	39.8990
 0.7870	39.8980
 0.7880	39.9150
 0.7890	39.9310
 0.7900	39.9270
 0.7910	39.9420
 0.7920	39.9410
 0.7930	39.9260
 0.7940	39.9220
 0.7950	39.9210
 0.7960	39.9270
 0.7970	39.9410
 0.7980	39.9670
 0.7990	39.9580
 0.8000	39.9220
 0.8010	39.8890
 0.8020	39.9090
 0.8030	39.8940
 0.8040	39.8680
 0.8050	39.8830
 0.8060	39.8930
 0.8070	39.8770
 0.8080	39.8530
 0.8090	39.8550
 0.8100	39.8470
 0.8110	39.8460
 0.8120	39.8490
 0.8130	39.8130
 0.8140	39.8190
 0.8150	39.8340
 0.8160	39.8200
 0.8170	39.8260
 0.8180	39.8180
 0.8190	39.7980
 0.8200	39.7800
 0.8210	39.7660
 0.8220	39.7610
 0.8230	39.7650
 0.8240	39.7700
 0.8250	39.7760
 0.8260	39.7600
 0.8270	39.7240
 0.8280	39.7180
 0.8290	39.7370
 0.8300	39.7490
 0.8310	39.7330
 0.8320	39.7350
 0.8330	39.7330
 0.8340	39.7160
 0.8350	39.6880
 0.8360	39.7070
 0.8370	39.7140
 0.8380	39.7100
 0.8390	39.7360
 0.8400	39.7200
 0.8410	39.7140
 0.8420	39.7400
 0.8430	39.7530
 0.8440	39.7510
 0.8450	39.7550
 0.8460	39.7780
 0.8470	39.7850
 0.8480	39.7940
 0.8490	39.8120
 0.8500	39.8340
 0.8510	39.8230
 0.8520	39.8190
 0.8530	39.8410
 0.8540	39.8800
 0.8550	39.8760
 0.8560	39.8630
 0.8570	39.8710
 0.8580	39.9140
 0.8590	39.9550
 0.8600	39.9640
 0.8610	39.9450
 0.8620	39.9530
 0.8630	39.9790
 0.8640	40.0070
 0.8650	40.0230
 0.8660	40.0360
 0.8670	40.0460
 0.8680	40.0590
 0.8690	40.0840
 0.8700	40.1240
 0.8710	40.1520
 0.8720	40.1600
 0.8730	40.1560
 0.8740	40.1560
 0.8750	40.1740
 0.8760	40.2120
 0.8770	40.2470
 0.8780	40.2480
 0.8790	40.2540
 0.8800	40.2720
 0.8810	40.2500
 0.8820	40.2760
 0.8830	40.3200
 0.8840	40.3410
 0.8850	40.3340
 0.8860	40.3480
 0.8870	40.3700
 0.8880	40.3790
 0.8890	40.3980
 0.8900	40.4180
 0.8910	40.4390
 0.8920	40.4570
 0.8930	40.4380
 0.8940	40.4150
 0.8950	40.4160
 0.8960	40.4510
 0.8970	40.4530
 0.8980	40.4750
 0.8990	40.5110
 0.9000	40.5090
 0.9010	40.5420
 0.9020	40.5610
 0.9030	40.5580
 0.9040	40.5940
 0.9050	40.5670
 0.9060	40.5490
 0.9070	40.5790
 0.9080	40.5620
 0.9090	40.5850
 0.9100	40.6110
 0.9110	40.6080
 0.9120	40.6340
 0.9130	40.6090
 0.9140	40.5660
 0.9150	40.5620
 0.9160	40.5850
 0.9170	40.5740
 0.9180	40.5730
 0.9190	40.6320
 0.9200	40.5930
 0.9210	40.5950
 0.9220	40.6270
 0.9230	40.6090
 0.9240	40.6240
 0.9250	40.6050
 0.9260	40.5620
 0.9270	40.5500
 0.9280	40.5310
 0.9290	40.5340
 0.9300	40.5550
 0.9310	40.5590
 0.9320	40.5550
 0.9330	40.5310
 0.9340	40.4920
 0.9350	40.4660
 0.9360	40.4610
 0.9370	40.4440
 0.9380	40.4240
 0.9390	40.4620
 0.9400	40.3980
 0.9410	40.3320
 0.9420	40.3420
 0.9430	40.3660
 0.9440	40.3240
 0.9450	40.2790
 0.9460	40.2640
 0.9470	40.1680
 0.9480	40.1470
 0.9490	40.1630
 0.9500	40.1440
 0.9510	40.0800
 0.9520	40.0220
 0.9530	39.9740
 0.9540	39.9300
 0.9550	39.9190
 0.9560	39.8370
 0.9570	39.7620
 0.9580	39.7720
 0.9590	39.7550
 0.9600	39.6980
 0.9610	39.6080
 0.9620	39.5170
 0.9630	39.5270
 0.9640	39.5090
 0.9650	39.4680
 0.9660	39.4540
 0.9670	39.4670
 0.9680	39.4670
 0.9690	39.4370
 0.9700	39.3920
 0.9710	39.4110
 0.9720	39.4060
 0.9730	39.3770
 0.9740	39.3580
 0.9750	39.3220
 0.9760	39.2890
 0.9770	39.3120
 0.9780	39.4110
 0.9790	39.4150
 0.9800	39.3380
 0.9810	39.2830
 0.9820	39.3440
 0.9830	39.4110
 0.9840	39.3510
 0.9850	39.2730
 0.9860	39.3530
 0.9870	39.4570
 0.9880	39.4370
 0.9890	39.3750
 0.9900	39.4090
 0.9910	39.3290
 0.9920	39.3110
 0.9930	39.3210
 0.9940	39.2620
 0.9950	39.2790
 0.9960	39.3440
 0.9970	39.4560
 0.9980	39.5720
 0.9990	39.4360
 1.0000	39.3420
 1.0010	39.5790
 1.0020	39.5820
 1.0030	39.5790
 1.0040	39.6250
 1.0050	39.6420
 1.0060	39.6610
 1.0070	39.7100
 1.0080	39.7280
 1.0090	39.7160
 1.0100	39.7360
 1.0110	39.7660
 1.0120	39.7850
 1.0130	39.8160
 1.0140	39.8460
 1.0150	39.8760
 1.0160	39.8830
 1.0170	39.9090
 1.0180	39.9120
 1.0190	39.8900
 1.0200	39.8970
 1.0210	39.9190
 1.0220	39.9270
 1.0230	39.9390
 1.0240	39.9530
 1.0250	39.9760
 1.0260	40.0070
 1.0270	40.0300
 1.0280	40.0550
 1.0290	40.0780
 1.0300	40.0890
 1.0310	40.1050
 1.0320	40.1320
 1.0330	40.1540
 1.0340	40.1480
 1.0350	40.1360
 1.0360	40.1300
 1.0370	40.1310
 1.0380	40.1410
 1.0390	40.1740
 1.0400	40.1850
 1.0410	40.1820
 1.0420	40.1930
 1.0430	40.2060
 1.0440	40.2190
 1.0450	40.2460
 1.0460	40.2630
 1.0470	40.2640
 1.0480	40.2790
 1.0490	40.3040
 1.0500	40.3200
 1.0510	40.3400
 1.0520	40.3550
 1.0530	40.3560
 1.0540	40.3390
 1.0550	40.3380
 1.0560	40.3270
 1.0570	40.3360
 1.0580	40.3580
 1.0590	40.3850
 1.0600	40.4440
 1.0610	40.4630
 1.0620	40.4560
 1.0630	40.4690
 1.0640	40.4700
 1.0650	40.4710
 1.0660	40.5000
 1.0670	40.5040
 1.0680	40.4940
 1.0690	40.4480
 1.0700	40.4560
 1.0710	40.4810
 1.0720	40.4890
 1.0730	40.5180
 1.0740	40.5310
 1.0750	40.5230
 1.0760	40.5210
 1.0770	40.5320
 1.0780	40.5300
 1.0790	40.5060
 1.0800	40.5020
 1.0810	40.5060
 1.0820	40.5110
 1.0830	40.5330
 1.0840	40.5380
 1.0850	40.5240
 1.0860	40.5250
 1.0870	40.5230
 1.0880	40.5190
 1.0890	40.5090
 1.0900	40.4930
 1.0910	40.4950
 1.0920	40.5000
 1.0930	40.5000
 1.0940	40.5220
 1.0950	40.5180
 1.0960	40.4780
 1.0970	40.4670
 1.0980	40.4620
 1.0990	40.4600
 1.1000	40.4800
 1.1010	40.4850
 1.1020	40.4920
 1.1030	40.4810
 1.1040	40.4510
 1.1050	40.4450
 1.1060	40.4340
 1.1070	40.4150
 1.1080	40.4100
 1.1090	40.4160
 1.1100	40.4170
 1.1110	40.4260
 1.1120	40.4230
 1.1130	40.4210
 1.1140	40.4060
 1.1150	40.3720
 1.1160	40.3490
 1.1170	40.3200
 1.1180	40.3000
 1.1190	40.2910
 1.1200	40.2840
 1.1210	40.2720
 1.1220	40.2470
 1.1230	40.2160
 1.1240	40.1850
 1.1250	40.1490
 1.1260	40.1160
 1.1270	40.0660
 1.1280	40.0000
 1.1290	39.9430
 1.1300	39.8750
 1.1310	39.8200
 1.1320	39.7870
 1.1330	39.7240
 1.1340	39.6500
 1.1350	39.5720
 1.1360	39.4740
 1.1370	39.3790
 1.1380	39.2960
 1.1390	39.2080
 1.1400	39.1240
 1.1410	39.0330
 1.1420	38.9330
 1.1430	38.8330
 1.1440	38.7300
 1.1450	38.6160
 1.1460	38.5170
 1.1470	38.4220
 1.1480	38.3280
 1.1490	38.2430
 1.1500	38.1470
 1.1510	38.0360
 1.1520	37.9470
 1.1530	37.8570
 1.1540	37.7820
 1.1550	37.7320
 1.1560	37.6720
 1.1570	37.6030
 1.1580	37.5410
 1.1590	37.4800
 1.1600	37.4310
 1.1610	37.3900
 1.1620	37.3450
 1.1630	37.2990
 1.1640	37.2560
 1.1650	37.2210
 1.1660	37.2020
 1.1670	37.1700
 1.1680	37.1360
 1.1690	37.1050
 1.1700	37.0640
 1.1710	37.0350
 1.1720	37.0170
 1.1730	36.9950
 1.1740	36.9780
 1.1750	36.9520
 1.1760	36.9300
 1.1770	36.9120
 1.1780	36.8890
 1.1790	36.8690
 1.1800	36.8500
 1.1810	36.8300
 1.1820	36.8120
 1.1830	36.7910
 1.1840	36.7680
 1.1850	36.7480
 1.1860	36.7200
 1.1870	36.6940
 1.1880	36.6720
 1.1890	36.6450
 1.1900	36.6260
 1.1910	36.6160
 1.1920	36.6070
 1.1930	36.6070
 1.1940	36.6010
 1.1950	36.5970
 1.1960	36.5890
 1.1970	36.5780
 1.1980	36.5730
 1.1990	36.5780
 1.2000	36.5830
 1.2010	36.5860
 1.2020	36.5960
 1.2030	36.5990
 1.2040	36.6060
 1.2050	36.6230
 1.2060	36.6300
 1.2070	36.6410
 1.2080	36.6580
 1.2090	36.6760
 1.2100	36.7040
 1.2110	36.7280
 1.2120	36.7540
 1.2130	36.7850
 1.2140	36.8160
 1.2150	36.8430
 1.2160	36.8760
 1.2170	36.9000
 1.2180	36.9200
 1.2190	36.9570
 1.2200	36.9900
 1.2210	37.0200
 1.2220	37.0560
 1.2230	37.0840
 1.2240	37.1180
 1.2250	37.1550
 1.2260	37.1700
 1.2270	37.1850
 1.2280	37.2140
 1.2290	37.2470
 1.2300	37.2780
 1.2310	37.3060
 1.2320	37.3320
 1.2330	37.3500
 1.2340	37.3730
 1.2350	37.4140
 1.2360	37.4350
 1.2370	37.4420
 1.2380	37.4550
 1.2390	37.4810
 1.2400	37.5060
 1.2410	37.5400
 1.2420	37.5590
 1.2430	37.5580
 1.2440	37.5610
 1.2450	37.5720
 1.2460	37.5770
 1.2470	37.5870
 1.2480	37.5970
 1.2490	37.6020
 1.2500	37.6280
 1.2510	37.6510
 1.2520	37.6600
 1.2530	37.6710
 1.2540	37.6780
 1.2550	37.6720
 1.2560	37.6580
 1.2570	37.6580
 1.2580	37.6480
 1.2590	37.6460
 1.2600	37.6650
 1.2610	37.6780
 1.2620	37.6860
 1.2630	37.7010
 1.2640	37.7120
 1.2650	37.7090
 1.2660	37.7080
 1.2670	37.6920
 1.2680	37.6820
 1.2690	37.6880
 1.2700	37.6870
 1.2710	37.6940
 1.2720	37.6990
 1.2730	37.6880
 1.2740	37.6820
 1.2750	37.6800
 1.2760	37.6710
 1.2770	37.6610
 1.2780	37.6420
 1.2790	37.6270
 1.2800	37.6170
 1.2810	37.6070
 1.2820	37.5980
 1.2830	37.5760
 1.2840	37.5550
 1.2850	37.5410
 1.2860	37.5210
 1.2870	37.5060
 1.2880	37.4990
 1.2890	37.4870
 1.2900	37.4570
 1.2910	37.4380
 1.2920	37.4160
 1.2930	37.3890
 1.2940	37.3680
 1.2950	37.3400
 1.2960	37.3000
 1.2970	37.2650
 1.2980	37.2270
 1.2990	37.1870
 1.3000	37.1590
 1.3010	37.1220
 1.3020	37.0820
 1.3030	37.0430
 1.3040	37.0000
 1.3050	36.9570
 1.3060	36.9110
 1.3070	36.8620
 1.3080	36.8050
 1.3090	36.7420
 1.3100	36.6820
 1.3110	36.6150
 1.3120	36.5450
 1.3130	36.4760
 1.3140	36.4070
 1.3150	36.3370
 1.3160	36.2710
 1.3170	36.2090
 1.3180	36.1380
 1.3190	36.0740
 1.3200	35.9980
 1.3210	35.9150
 1.3220	35.8410
 1.3230	35.7530
 1.3240	35.6540
 1.3250	35.5640
 1.3260	35.4650
 1.3270	35.3570
 1.3280	35.2660
 1.3290	35.1690
 1.3300	35.0660
 1.3310	34.9670
 1.3320	34.8590
 1.3330	34.7500
 1.3340	34.6410
 1.3350	34.5290
 1.3360	34.4150
 1.3370	34.3070
 1.3380	34.2060
 1.3390	34.1000
 1.3400	34.0000
 1.3410	33.8920
 1.3420	33.7710
 1.3430	33.6640
 1.3440	33.5560
 1.3450	33.4480
 1.3460	33.3490
 1.3470	33.2430
 1.3480	33.1230
 1.3490	33.0160
 1.3500	32.9140
 1.3510	32.8170
 1.3520	32.7220
 1.3530	32.6360
 1.3540	32.5450
 1.3550	32.4380
 1.3560	32.3370
 1.3570	32.2370
 1.3580	32.1300
 1.3590	32.0240
 1.3600	31.9180
 1.3610	31.7990
 1.3620	31.6790
 1.3630	31.5630
 1.3640	31.4440
 1.3650	31.3200
 1.3660	31.1910
 1.3670	31.0550
 1.3680	30.9040
 1.3690	30.7450
 1.3700	30.5830
 1.3710	30.4100
 1.3720	30.2300
 1.3730	30.0330
 1.3740	29.8210
 1.3750	29.5990
 1.3760	29.3560
 1.3770	29.1010
 1.3780	28.8240
 1.3790	28.5270
 1.3800	28.2180
 1.3810	27.8920
 1.3820	27.5490
 1.3830	27.1910
 1.3840	26.8210
 1.3850	26.4370
 1.3860	26.0390
 1.3870	25.6300
 1.3880	25.2110
 1.3890	24.7780
 1.3900	24.3320
 1.3910	23.8920
 1.3920	23.4450
 1.3930	22.9920
 1.3940	22.5430
 1.3950	22.0850
 1.3960	21.6330
 1.3970	21.1960
 1.3980	20.7670
 1.3990	20.3600
 1.4000	19.9630
 1.4010	19.5730
 1.4020	19.1980
 1.4030	18.8300
 1.4040	18.4780
 1.4050	18.1460
 1.4060	17.8330
 1.4070	17.5350
 1.4080	17.2540
 1.4090	16.9880
 1.4100	16.7330
 1.4110	16.4970
 1.4120	16.2750
 1.4130	16.0680
 1.4140	15.8810
 1.4150	15.7100
 1.4160	15.5490
 1.4170	15.4000
 1.4180	15.2570
 1.4190	15.1200
 1.4200	14.9940
 1.4210	14.8800
 1.4220	14.7780
 1.4230	14.6830
 1.4240	14.6010
 1.4250	14.5200
 1.4260	14.4400
 1.4270	14.3690
 1.4280	14.3050
 1.4290	14.2500
 1.4300	14.2070
 1.4310	14.1640
 1.4320	14.1270
 1.4330	14.0890
 1.4340	14.0520
 1.4350	14.0190
 1.4360	13.9900
 1.4370	13.9640
 1.4380	13.9410
 1.4390	13.9220
 1.4400	13.9070
 1.4410	13.8980
 1.4420	13.8910
 1.4430	13.8840
 1.4440	13.8810
 1.4450	13.8810
 1.4460	13.8820
 1.4470	13.8880
 1.4480	13.8930
 1.4490	13.8920
 1.4500	13.8940
 1.4510	13.8970
 1.4520	13.9030
 1.4530	13.9160
 1.4540	13.9240
 1.4550	13.9370
 1.4560	13.9550
 1.4570	13.9730
 1.4580	14.0020
 1.4590	14.0270
 1.4600	14.0460
 1.4610	14.0660
 1.4620	14.0850
 1.4630	14.1100
 1.4640	14.1430
 1.4650	14.1820
 1.4660	14.2260
 1.4670	14.2710
 1.4680	14.3160
 1.4690	14.3630
 1.4700	14.4090
 1.4710	14.4580
 1.4720	14.5130
 1.4730	14.5740
 1.4740	14.6410
 1.4750	14.7120
 1.4760	14.7850
 1.4770	14.8580
 1.4780	14.9270
 1.4790	15.0000
 1.4800	15.0770
 1.4810	15.1530
