Name: Jacaranda mimosifolia
Type: vegetation
Class: Tree
Genus: Jacaranda
Species: mimosifolia
Sample No.: JPL167
Owner: JPL
Wavelength Range: VSWIR
Origin: 34.1255; -118.11283; WGS84
Collection Date: 9/14/2016
Description: Samples were collected at the Huntington Garden in San Marino California as part of a JPL Subcontract studying HyTES imagery. Samples were taken to JPL and processed within 48 hours of collection. The same leaves were processed in the Nicolet and then measured using the ASD.
Measurement: Bidirectional reflectance
First Column: X
Second Column: Y
X Units: Wavelength (micrometer)
Y Units: Reflectance (percentage)
First X Value: 0.35
Last X Value: 2.5
Number of X Values: 2151
Additional Information: vegetation.tree.jacaranda.mimosifolia.vswir.jpl167.jpl.asd.ancillary.txt

 0.3500	 1.9970
 0.3510	 2.0410
 0.3520	 2.0970
 0.3530	 2.0950
 0.3540	 2.0120
 0.3550	 1.9620
 0.3560	 1.9420
 0.3570	 1.9250
 0.3580	 1.8940
 0.3590	 1.9930
 0.3600	 2.0260
 0.3610	 1.9390
 0.3620	 1.9180
 0.3630	 1.9140
 0.3640	 1.9340
 0.3650	 1.9740
 0.3660	 1.9540
 0.3670	 1.9050
 0.3680	 1.8940
 0.3690	 1.9910
 0.3700	 2.0010
 0.3710	 1.9470
 0.3720	 1.8940
 0.3730	 1.9250
 0.3740	 1.9410
 0.3750	 1.9450
 0.3760	 1.9560
 0.3770	 1.9020
 0.3780	 1.8470
 0.3790	 1.8330
 0.3800	 1.8780
 0.3810	 1.8780
 0.3820	 1.8880
 0.3830	 1.9320
 0.3840	 1.9160
 0.3850	 1.8610
 0.3860	 1.8320
 0.3870	 1.8730
 0.3880	 1.8490
 0.3890	 1.8370
 0.3900	 1.8510
 0.3910	 1.8290
 0.3920	 1.8290
 0.3930	 1.8350
 0.3940	 1.8360
 0.3950	 1.8730
 0.3960	 1.8910
 0.3970	 1.8760
 0.3980	 1.8400
 0.3990	 1.8260
 0.4000	 1.8380
 0.4010	 1.8580
 0.4020	 1.8390
 0.4030	 1.8400
 0.4040	 1.8400
 0.4050	 1.8200
 0.4060	 1.8410
 0.4070	 1.8620
 0.4080	 1.8680
 0.4090	 1.8620
 0.4100	 1.8830
 0.4110	 1.8930
 0.4120	 1.8760
 0.4130	 1.8570
 0.4140	 1.8650
 0.4150	 1.8940
 0.4160	 1.9220
 0.4170	 1.9260
 0.4180	 1.9340
 0.4190	 1.9550
 0.4200	 1.9770
 0.4210	 1.9900
 0.4220	 1.9950
 0.4230	 1.9970
 0.4240	 2.0130
 0.4250	 2.0220
 0.4260	 2.0290
 0.4270	 2.0480
 0.4280	 2.0620
 0.4290	 2.0800
 0.4300	 2.1020
 0.4310	 2.1200
 0.4320	 2.1210
 0.4330	 2.1220
 0.4340	 2.1390
 0.4350	 2.1550
 0.4360	 2.1610
 0.4370	 2.1620
 0.4380	 2.1720
 0.4390	 2.1810
 0.4400	 2.1890
 0.4410	 2.1940
 0.4420	 2.1940
 0.4430	 2.2000
 0.4440	 2.2100
 0.4450	 2.2170
 0.4460	 2.2320
 0.4470	 2.2430
 0.4480	 2.2480
 0.4490	 2.2490
 0.4500	 2.2610
 0.4510	 2.2760
 0.4520	 2.2850
 0.4530	 2.2910
 0.4540	 2.2940
 0.4550	 2.2990
 0.4560	 2.3110
 0.4570	 2.3090
 0.4580	 2.3080
 0.4590	 2.3150
 0.4600	 2.3170
 0.4610	 2.3250
 0.4620	 2.3350
 0.4630	 2.3370
 0.4640	 2.3360
 0.4650	 2.3320
 0.4660	 2.3280
 0.4670	 2.3340
 0.4680	 2.3370
 0.4690	 2.3420
 0.4700	 2.3530
 0.4710	 2.3460
 0.4720	 2.3410
 0.4730	 2.3420
 0.4740	 2.3450
 0.4750	 2.3450
 0.4760	 2.3510
 0.4770	 2.3590
 0.4780	 2.3480
 0.4790	 2.3510
 0.4800	 2.3610
 0.4810	 2.3610
 0.4820	 2.3590
 0.4830	 2.3670
 0.4840	 2.3810
 0.4850	 2.3880
 0.4860	 2.3910
 0.4870	 2.4010
 0.4880	 2.4180
 0.4890	 2.4230
 0.4900	 2.4310
 0.4910	 2.4460
 0.4920	 2.4660
 0.4930	 2.4770
 0.4940	 2.4940
 0.4950	 2.5200
 0.4960	 2.5360
 0.4970	 2.5650
 0.4980	 2.6040
 0.4990	 2.6440
 0.5000	 2.6720
 0.5010	 2.7090
 0.5020	 2.7590
 0.5030	 2.8130
 0.5040	 2.8730
 0.5050	 2.9370
 0.5060	 3.0070
 0.5070	 3.0910
 0.5080	 3.1780
 0.5090	 3.2690
 0.5100	 3.3660
 0.5110	 3.4780
 0.5120	 3.5960
 0.5130	 3.7180
 0.5140	 3.8500
 0.5150	 3.9980
 0.5160	 4.1580
 0.5170	 4.3260
 0.5180	 4.4960
 0.5190	 4.6690
 0.5200	 4.8490
 0.5210	 5.0410
 0.5220	 5.2280
 0.5230	 5.4150
 0.5240	 5.6060
 0.5250	 5.7890
 0.5260	 5.9630
 0.5270	 6.1310
 0.5280	 6.2930
 0.5290	 6.4480
 0.5300	 6.5900
 0.5310	 6.7170
 0.5320	 6.8380
 0.5330	 6.9500
 0.5340	 7.0530
 0.5350	 7.1440
 0.5360	 7.2280
 0.5370	 7.3030
 0.5380	 7.3730
 0.5390	 7.4430
 0.5400	 7.5200
 0.5410	 7.6100
 0.5420	 7.7040
 0.5430	 7.7800
 0.5440	 7.8280
 0.5450	 7.8470
 0.5460	 7.8460
 0.5470	 7.8340
 0.5480	 7.8230
 0.5490	 7.8210
 0.5500	 7.8300
 0.5510	 7.8350
 0.5520	 7.8310
 0.5530	 7.8170
 0.5540	 7.7930
 0.5550	 7.7540
 0.5560	 7.7050
 0.5570	 7.6510
 0.5580	 7.5890
 0.5590	 7.5190
 0.5600	 7.4440
 0.5610	 7.3630
 0.5620	 7.2770
 0.5630	 7.1870
 0.5640	 7.0970
 0.5650	 6.9990
 0.5660	 6.8960
 0.5670	 6.7900
 0.5680	 6.6810
 0.5690	 6.5680
 0.5700	 6.4520
 0.5710	 6.3380
 0.5720	 6.2260
 0.5730	 6.1180
 0.5740	 6.0150
 0.5750	 5.9160
 0.5760	 5.8260
 0.5770	 5.7430
 0.5780	 5.6640
 0.5790	 5.5910
 0.5800	 5.5230
 0.5810	 5.4620
 0.5820	 5.4070
 0.5830	 5.3530
 0.5840	 5.3000
 0.5850	 5.2460
 0.5860	 5.1960
 0.5870	 5.1530
 0.5880	 5.1130
 0.5890	 5.0720
 0.5900	 5.0350
 0.5910	 5.0000
 0.5920	 4.9680
 0.5930	 4.9390
 0.5940	 4.9120
 0.5950	 4.8890
 0.5960	 4.8690
 0.5970	 4.8500
 0.5980	 4.8330
 0.5990	 4.8180
 0.6000	 4.8040
 0.6010	 4.7770
 0.6020	 4.7460
 0.6030	 4.7170
 0.6040	 4.6880
 0.6050	 4.6490
 0.6060	 4.6040
 0.6070	 4.5610
 0.6080	 4.5150
 0.6090	 4.4720
 0.6100	 4.4400
 0.6110	 4.4200
 0.6120	 4.3690
 0.6130	 4.2940
 0.6140	 4.2130
 0.6150	 4.1520
 0.6160	 4.0980
 0.6170	 4.0470
 0.6180	 4.0020
 0.6190	 3.9680
 0.6200	 3.9360
 0.6210	 3.9020
 0.6220	 3.8720
 0.6230	 3.8450
 0.6240	 3.8220
 0.6250	 3.8060
 0.6260	 3.7930
 0.6270	 3.7840
 0.6280	 3.7770
 0.6290	 3.7680
 0.6300	 3.7610
 0.6310	 3.7530
 0.6320	 3.7420
 0.6330	 3.7250
 0.6340	 3.7060
 0.6350	 3.6810
 0.6360	 3.6490
 0.6370	 3.6150
 0.6380	 3.5730
 0.6390	 3.5250
 0.6400	 3.4770
 0.6410	 3.4290
 0.6420	 3.3770
 0.6430	 3.3210
 0.6440	 3.2660
 0.6450	 3.2160
 0.6460	 3.1670
 0.6470	 3.1190
 0.6480	 3.0750
 0.6490	 3.0400
 0.6500	 3.0140
 0.6510	 2.9890
 0.6520	 2.9690
 0.6530	 2.9490
 0.6540	 2.9270
 0.6550	 2.9070
 0.6560	 2.8860
 0.6570	 2.8600
 0.6580	 2.8260
 0.6590	 2.7940
 0.6600	 2.7620
 0.6610	 2.7290
 0.6620	 2.6920
 0.6630	 2.6600
 0.6640	 2.6310
 0.6650	 2.6040
 0.6660	 2.5860
 0.6670	 2.5700
 0.6680	 2.5570
 0.6690	 2.5490
 0.6700	 2.5470
 0.6710	 2.5480
 0.6720	 2.5530
 0.6730	 2.5610
 0.6740	 2.5730
 0.6750	 2.5890
 0.6760	 2.6120
 0.6770	 2.6320
 0.6780	 2.6550
 0.6790	 2.6840
 0.6800	 2.7200
 0.6810	 2.7600
 0.6820	 2.8040
 0.6830	 2.8530
 0.6840	 2.9080
 0.6850	 2.9730
 0.6860	 3.0520
 0.6870	 3.1490
 0.6880	 3.2660
 0.6890	 3.4110
 0.6900	 3.5910
 0.6910	 3.8120
 0.6920	 4.0780
 0.6930	 4.3930
 0.6940	 4.7570
 0.6950	 5.1650
 0.6960	 5.6200
 0.6970	 6.1180
 0.6980	 6.6550
 0.6990	 7.2220
 0.7000	 7.8140
 0.7010	 8.4260
 0.7020	 9.0520
 0.7030	 9.6850
 0.7040	10.3220
 0.7050	10.9620
 0.7060	11.6050
 0.7070	12.2460
 0.7080	12.8840
 0.7090	13.5200
 0.7100	14.1540
 0.7110	14.7900
 0.7120	15.4290
 0.7130	16.0620
 0.7140	16.6920
 0.7150	17.3210
 0.7160	17.9490
 0.7170	18.5750
 0.7180	19.1950
 0.7190	19.8070
 0.7200	20.4130
 0.7210	21.0070
 0.7220	21.5880
 0.7230	22.1570
 0.7240	22.7080
 0.7250	23.2430
 0.7260	23.7580
 0.7270	24.2530
 0.7280	24.7300
 0.7290	25.1860
 0.7300	25.6210
 0.7310	26.0340
 0.7320	26.4260
 0.7330	26.7980
 0.7340	27.1500
 0.7350	27.4770
 0.7360	27.7850
 0.7370	28.0740
 0.7380	28.3440
 0.7390	28.5930
 0.7400	28.8270
 0.7410	29.0450
 0.7420	29.2470
 0.7430	29.4300
 0.7440	29.5960
 0.7450	29.7470
 0.7460	29.8880
 0.7470	30.0170
 0.7480	30.1330
 0.7490	30.2350
 0.7500	30.3270
 0.7510	30.4130
 0.7520	30.4910
 0.7530	30.5600
 0.7540	30.6260
 0.7550	30.6820
 0.7560	30.7310
 0.7570	30.7780
 0.7580	30.8210
 0.7590	30.8610
 0.7600	30.8970
 0.7610	30.9270
 0.7620	30.9540
 0.7630	30.9780
 0.7640	31.0000
 0.7650	31.0230
 0.7660	31.0410
 0.7670	31.0540
 0.7680	31.0670
 0.7690	31.0790
 0.7700	31.0910
 0.7710	31.1040
 0.7720	31.1140
 0.7730	31.1230
 0.7740	31.1310
 0.7750	31.1390
 0.7760	31.1480
 0.7770	31.1560
 0.7780	31.1630
 0.7790	31.1700
 0.7800	31.1720
 0.7810	31.1780
 0.7820	31.1870
 0.7830	31.1940
 0.7840	31.1990
 0.7850	31.2050
 0.7860	31.2110
 0.7870	31.2150
 0.7880	31.2180
 0.7890	31.2210
 0.7900	31.2230
 0.7910	31.2220
 0.7920	31.2240
 0.7930	31.2270
 0.7940	31.2270
 0.7950	31.2270
 0.7960	31.2270
 0.7970	31.2260
 0.7980	31.2260
 0.7990	31.2240
 0.8000	31.2200
 0.8010	31.2150
 0.8020	31.2140
 0.8030	31.2130
 0.8040	31.2090
 0.8050	31.2030
 0.8060	31.1970
 0.8070	31.1910
 0.8080	31.1880
 0.8090	31.1850
 0.8100	31.1810
 0.8110	31.1750
 0.8120	31.1670
 0.8130	31.1610
 0.8140	31.1520
 0.8150	31.1450
 0.8160	31.1410
 0.8170	31.1330
 0.8180	31.1250
 0.8190	31.1180
 0.8200	31.1100
 0.8210	31.1030
 0.8220	31.0940
 0.8230	31.0850
 0.8240	31.0760
 0.8250	31.0710
 0.8260	31.0660
 0.8270	31.0600
 0.8280	31.0530
 0.8290	31.0460
 0.8300	31.0390
 0.8310	31.0340
 0.8320	31.0190
 0.8330	31.0120
 0.8340	31.0120
 0.8350	31.0110
 0.8360	31.0040
 0.8370	30.9980
 0.8380	30.9930
 0.8390	30.9880
 0.8400	30.9850
 0.8410	30.9830
 0.8420	30.9820
 0.8430	30.9760
 0.8440	30.9760
 0.8450	30.9770
 0.8460	30.9750
 0.8470	30.9760
 0.8480	30.9740
 0.8490	30.9720
 0.8500	30.9730
 0.8510	30.9700
 0.8520	30.9740
 0.8530	30.9820
 0.8540	30.9810
 0.8550	30.9770
 0.8560	30.9790
 0.8570	30.9860
 0.8580	30.9890
 0.8590	30.9930
 0.8600	31.0000
 0.8610	31.0060
 0.8620	31.0030
 0.8630	31.0060
 0.8640	31.0140
 0.8650	31.0220
 0.8660	31.0260
 0.8670	31.0300
 0.8680	31.0370
 0.8690	31.0460
 0.8700	31.0500
 0.8710	31.0540
 0.8720	31.0620
 0.8730	31.0710
 0.8740	31.0810
 0.8750	31.0910
 0.8760	31.0990
 0.8770	31.1030
 0.8780	31.1090
 0.8790	31.1160
 0.8800	31.1230
 0.8810	31.1310
 0.8820	31.1400
 0.8830	31.1530
 0.8840	31.1670
 0.8850	31.1710
 0.8860	31.1780
 0.8870	31.1870
 0.8880	31.1930
 0.8890	31.2000
 0.8900	31.2080
 0.8910	31.2190
 0.8920	31.2300
 0.8930	31.2360
 0.8940	31.2410
 0.8950	31.2450
 0.8960	31.2490
 0.8970	31.2590
 0.8980	31.2660
 0.8990	31.2680
 0.9000	31.2730
 0.9010	31.2840
 0.9020	31.2930
 0.9030	31.2990
 0.9040	31.3060
 0.9050	31.3150
 0.9060	31.3220
 0.9070	31.3240
 0.9080	31.3230
 0.9090	31.3270
 0.9100	31.3340
 0.9110	31.3410
 0.9120	31.3450
 0.9130	31.3480
 0.9140	31.3510
 0.9150	31.3510
 0.9160	31.3470
 0.9170	31.3500
 0.9180	31.3550
 0.9190	31.3560
 0.9200	31.3570
 0.9210	31.3570
 0.9220	31.3560
 0.9230	31.3540
 0.9240	31.3560
 0.9250	31.3540
 0.9260	31.3480
 0.9270	31.3450
 0.9280	31.3390
 0.9290	31.3300
 0.9300	31.3190
 0.9310	31.3100
 0.9320	31.3070
 0.9330	31.3010
 0.9340	31.2880
 0.9350	31.2760
 0.9360	31.2740
 0.9370	31.2670
 0.9380	31.2480
 0.9390	31.2380
 0.9400	31.2290
 0.9410	31.2170
 0.9420	31.2000
 0.9430	31.1820
 0.9440	31.1650
 0.9450	31.1460
 0.9460	31.1260
 0.9470	31.1030
 0.9480	31.0810
 0.9490	31.0570
 0.9500	31.0330
 0.9510	31.0090
 0.9520	30.9820
 0.9530	30.9520
 0.9540	30.9190
 0.9550	30.8900
 0.9560	30.8660
 0.9570	30.8400
 0.9580	30.8060
 0.9590	30.7850
 0.9600	30.7600
 0.9610	30.7370
 0.9620	30.7190
 0.9630	30.6910
 0.9640	30.6760
 0.9650	30.6650
 0.9660	30.6440
 0.9670	30.6250
 0.9680	30.6160
 0.9690	30.6110
 0.9700	30.5980
 0.9710	30.5710
 0.9720	30.5610
 0.9730	30.5560
 0.9740	30.5380
 0.9750	30.5480
 0.9760	30.5420
 0.9770	30.5290
 0.9780	30.5380
 0.9790	30.5280
 0.9800	30.5270
 0.9810	30.5280
 0.9820	30.5170
 0.9830	30.5130
 0.9840	30.5110
 0.9850	30.5090
 0.9860	30.5110
 0.9870	30.5120
 0.9880	30.5160
 0.9890	30.5240
 0.9900	30.5360
 0.9910	30.5260
 0.9920	30.5100
 0.9930	30.5060
 0.9940	30.5190
 0.9950	30.5320
 0.9960	30.5450
 0.9970	30.5480
 0.9980	30.5400
 0.9990	30.5530
 1.0000	30.5580
 1.0010	30.3010
 1.0020	30.3070
 1.0030	30.3170
 1.0040	30.3270
 1.0050	30.3360
 1.0060	30.3470
 1.0070	30.3570
 1.0080	30.3660
 1.0090	30.3760
 1.0100	30.3850
 1.0110	30.3900
 1.0120	30.3990
 1.0130	30.4090
 1.0140	30.4190
 1.0150	30.4300
 1.0160	30.4410
 1.0170	30.4470
 1.0180	30.4560
 1.0190	30.4650
 1.0200	30.4710
 1.0210	30.4830
 1.0220	30.4950
 1.0230	30.5030
 1.0240	30.5110
 1.0250	30.5190
 1.0260	30.5230
 1.0270	30.5300
 1.0280	30.5400
 1.0290	30.5470
 1.0300	30.5520
 1.0310	30.5610
 1.0320	30.5750
 1.0330	30.5820
 1.0340	30.5880
 1.0350	30.5980
 1.0360	30.6040
 1.0370	30.6080
 1.0380	30.6140
 1.0390	30.6220
 1.0400	30.6300
 1.0410	30.6390
 1.0420	30.6460
 1.0430	30.6520
 1.0440	30.6590
 1.0450	30.6640
 1.0460	30.6690
 1.0470	30.6730
 1.0480	30.6780
 1.0490	30.6840
 1.0500	30.6900
 1.0510	30.7000
 1.0520	30.7070
 1.0530	30.7150
 1.0540	30.7230
 1.0550	30.7300
 1.0560	30.7350
 1.0570	30.7410
 1.0580	30.7430
 1.0590	30.7490
 1.0600	30.7560
 1.0610	30.7620
 1.0620	30.7660
 1.0630	30.7710
 1.0640	30.7740
 1.0650	30.7780
 1.0660	30.7830
 1.0670	30.7880
 1.0680	30.7920
 1.0690	30.7970
 1.0700	30.8010
 1.0710	30.8050
 1.0720	30.8090
 1.0730	30.8150
 1.0740	30.8180
 1.0750	30.8200
 1.0760	30.8230
 1.0770	30.8260
 1.0780	30.8280
 1.0790	30.8300
 1.0800	30.8320
 1.0810	30.8330
 1.0820	30.8350
 1.0830	30.8380
 1.0840	30.8410
 1.0850	30.8450
 1.0860	30.8460
 1.0870	30.8470
 1.0880	30.8470
 1.0890	30.8490
 1.0900	30.8500
 1.0910	30.8490
 1.0920	30.8470
 1.0930	30.8470
 1.0940	30.8440
 1.0950	30.8420
 1.0960	30.8440
 1.0970	30.8430
 1.0980	30.8380
 1.0990	30.8340
 1.1000	30.8310
 1.1010	30.8270
 1.1020	30.8230
 1.1030	30.8200
 1.1040	30.8180
 1.1050	30.8150
 1.1060	30.8130
 1.1070	30.8120
 1.1080	30.8070
 1.1090	30.8010
 1.1100	30.7940
 1.1110	30.7850
 1.1120	30.7770
 1.1130	30.7700
 1.1140	30.7620
 1.1150	30.7540
 1.1160	30.7440
 1.1170	30.7350
 1.1180	30.7250
 1.1190	30.7130
 1.1200	30.7010
 1.1210	30.6870
 1.1220	30.6700
 1.1230	30.6500
 1.1240	30.6290
 1.1250	30.6050
 1.1260	30.5790
 1.1270	30.5510
 1.1280	30.5230
 1.1290	30.4900
 1.1300	30.4550
 1.1310	30.4160
 1.1320	30.3720
 1.1330	30.3250
 1.1340	30.2750
 1.1350	30.2220
 1.1360	30.1650
 1.1370	30.1060
 1.1380	30.0470
 1.1390	29.9850
 1.1400	29.9200
 1.1410	29.8540
 1.1420	29.7870
 1.1430	29.7210
 1.1440	29.6560
 1.1450	29.5920
 1.1460	29.5280
 1.1470	29.4630
 1.1480	29.4000
 1.1490	29.3380
 1.1500	29.2790
 1.1510	29.2230
 1.1520	29.1690
 1.1530	29.1170
 1.1540	29.0690
 1.1550	29.0240
 1.1560	28.9820
 1.1570	28.9440
 1.1580	28.9090
 1.1590	28.8750
 1.1600	28.8420
 1.1610	28.8120
 1.1620	28.7820
 1.1630	28.7560
 1.1640	28.7330
 1.1650	28.7110
 1.1660	28.6900
 1.1670	28.6710
 1.1680	28.6550
 1.1690	28.6380
 1.1700	28.6220
 1.1710	28.6070
 1.1720	28.5910
 1.1730	28.5760
 1.1740	28.5620
 1.1750	28.5480
 1.1760	28.5320
 1.1770	28.5180
 1.1780	28.5050
 1.1790	28.4910
 1.1800	28.4780
 1.1810	28.4640
 1.1820	28.4490
 1.1830	28.4340
 1.1840	28.4210
 1.1850	28.4080
 1.1860	28.3970
 1.1870	28.3860
 1.1880	28.3740
 1.1890	28.3630
 1.1900	28.3530
 1.1910	28.3430
 1.1920	28.3350
 1.1930	28.3290
 1.1940	28.3220
 1.1950	28.3160
 1.1960	28.3120
 1.1970	28.3090
 1.1980	28.3060
 1.1990	28.3030
 1.2000	28.3030
 1.2010	28.3030
 1.2020	28.3060
 1.2030	28.3110
 1.2040	28.3160
 1.2050	28.3210
 1.2060	28.3270
 1.2070	28.3340
 1.2080	28.3430
 1.2090	28.3530
 1.2100	28.3640
 1.2110	28.3760
 1.2120	28.3880
 1.2130	28.4020
 1.2140	28.4160
 1.2150	28.4310
 1.2160	28.4470
 1.2170	28.4630
 1.2180	28.4790
 1.2190	28.4950
 1.2200	28.5120
 1.2210	28.5310
 1.2220	28.5480
 1.2230	28.5670
 1.2240	28.5860
 1.2250	28.6040
 1.2260	28.6210
 1.2270	28.6380
 1.2280	28.6530
 1.2290	28.6690
 1.2300	28.6840
 1.2310	28.6980
 1.2320	28.7110
 1.2330	28.7230
 1.2340	28.7360
 1.2350	28.7480
 1.2360	28.7600
 1.2370	28.7730
 1.2380	28.7850
 1.2390	28.7960
 1.2400	28.8060
 1.2410	28.8180
 1.2420	28.8280
 1.2430	28.8380
 1.2440	28.8480
 1.2450	28.8580
 1.2460	28.8680
 1.2470	28.8780
 1.2480	28.8870
 1.2490	28.8930
 1.2500	28.9000
 1.2510	28.9060
 1.2520	28.9110
 1.2530	28.9170
 1.2540	28.9220
 1.2550	28.9290
 1.2560	28.9370
 1.2570	28.9430
 1.2580	28.9480
 1.2590	28.9520
 1.2600	28.9530
 1.2610	28.9540
 1.2620	28.9560
 1.2630	28.9570
 1.2640	28.9580
 1.2650	28.9580
 1.2660	28.9580
 1.2670	28.9580
 1.2680	28.9570
 1.2690	28.9550
 1.2700	28.9530
 1.2710	28.9500
 1.2720	28.9450
 1.2730	28.9410
 1.2740	28.9380
 1.2750	28.9330
 1.2760	28.9270
 1.2770	28.9210
 1.2780	28.9120
 1.2790	28.9020
 1.2800	28.8960
 1.2810	28.8890
 1.2820	28.8820
 1.2830	28.8740
 1.2840	28.8630
 1.2850	28.8520
 1.2860	28.8410
 1.2870	28.8290
 1.2880	28.8160
 1.2890	28.8020
 1.2900	28.7880
 1.2910	28.7740
 1.2920	28.7610
 1.2930	28.7460
 1.2940	28.7290
 1.2950	28.7110
 1.2960	28.6900
 1.2970	28.6690
 1.2980	28.6510
 1.2990	28.6310
 1.3000	28.6080
 1.3010	28.5840
 1.3020	28.5590
 1.3030	28.5320
 1.3040	28.5040
 1.3050	28.4740
 1.3060	28.4410
 1.3070	28.4090
 1.3080	28.3770
 1.3090	28.3420
 1.3100	28.3060
 1.3110	28.2680
 1.3120	28.2270
 1.3130	28.1860
 1.3140	28.1420
 1.3150	28.0950
 1.3160	28.0470
 1.3170	27.9970
 1.3180	27.9450
 1.3190	27.8920
 1.3200	27.8390
 1.3210	27.7830
 1.3220	27.7260
 1.3230	27.6670
 1.3240	27.6060
 1.3250	27.5440
 1.3260	27.4790
 1.3270	27.4130
 1.3280	27.3450
 1.3290	27.2750
 1.3300	27.2050
 1.3310	27.1350
 1.3320	27.0610
 1.3330	26.9880
 1.3340	26.9140
 1.3350	26.8400
 1.3360	26.7650
 1.3370	26.6900
 1.3380	26.6150
 1.3390	26.5390
 1.3400	26.4630
 1.3410	26.3890
 1.3420	26.3150
 1.3430	26.2410
 1.3440	26.1690
 1.3450	26.0960
 1.3460	26.0240
 1.3470	25.9520
 1.3480	25.8810
 1.3490	25.8100
 1.3500	25.7400
 1.3510	25.6700
 1.3520	25.6000
 1.3530	25.5320
 1.3540	25.4630
 1.3550	25.3940
 1.3560	25.3250
 1.3570	25.2540
 1.3580	25.1830
 1.3590	25.1120
 1.3600	25.0390
 1.3610	24.9640
 1.3620	24.8880
 1.3630	24.8090
 1.3640	24.7270
 1.3650	24.6410
 1.3660	24.5500
 1.3670	24.4550
 1.3680	24.3540
 1.3690	24.2490
 1.3700	24.1350
 1.3710	24.0150
 1.3720	23.8870
 1.3730	23.7470
 1.3740	23.5990
 1.3750	23.4400
 1.3760	23.2660
 1.3770	23.0810
 1.3780	22.8780
 1.3790	22.6610
 1.3800	22.4300
 1.3810	22.1800
 1.3820	21.9200
 1.3830	21.6470
 1.3840	21.3590
 1.3850	21.0580
 1.3860	20.7460
 1.3870	20.4170
 1.3880	20.0840
 1.3890	19.7400
 1.3900	19.3870
 1.3910	19.0320
 1.3920	18.6700
 1.3930	18.3030
 1.3940	17.9350
 1.3950	17.5630
 1.3960	17.1930
 1.3970	16.8270
 1.3980	16.4660
 1.3990	16.1160
 1.4000	15.7730
 1.4010	15.4380
 1.4020	15.1130
 1.4030	14.7960
 1.4040	14.4910
 1.4050	14.1990
 1.4060	13.9190
 1.4070	13.6540
 1.4080	13.4020
 1.4090	13.1610
 1.4100	12.9340
 1.4110	12.7180
 1.4120	12.5140
 1.4130	12.3210
 1.4140	12.1390
 1.4150	11.9690
 1.4160	11.8100
 1.4170	11.6610
 1.4180	11.5230
 1.4190	11.3910
 1.4200	11.2690
 1.4210	11.1540
 1.4220	11.0450
 1.4230	10.9450
 1.4240	10.8520
 1.4250	10.7640
 1.4260	10.6830
 1.4270	10.6070
 1.4280	10.5370
 1.4290	10.4710
 1.4300	10.4110
 1.4310	10.3550
 1.4320	10.3040
 1.4330	10.2570
 1.4340	10.2140
 1.4350	10.1760
 1.4360	10.1420
 1.4370	10.1120
 1.4380	10.0850
 1.4390	10.0600
 1.4400	10.0380
 1.4410	10.0200
 1.4420	10.0030
 1.4430	 9.9900
 1.4440	 9.9780
 1.4450	 9.9690
 1.4460	 9.9610
 1.4470	 9.9560
 1.4480	 9.9530
 1.4490	 9.9510
 1.4500	 9.9520
 1.4510	 9.9540
 1.4520	 9.9580
 1.4530	 9.9630
 1.4540	 9.9680
 1.4550	 9.9750
 1.4560	 9.9830
 1.4570	 9.9950
 1.4580	10.0080
 1.4590	10.0240
 1.4600	10.0420
 1.4610	10.0630
 1.4620	10.0860
 1.4630	10.1140
 1.4640	10.1430
 1.4650	10.1760
 1.4660	10.2130
 1.4670	10.2530
 1.4680	10.2970
 1.4690	10.3440
 1.4700	10.3930
 1.4710	10.4450
 1.4720	10.4990
 1.4730	10.5560
 1.4740	10.6150
 1.4750	10.6760
 1.4760	10.7390
 1.4770	10.8040
