Name: Quercus agrifolia 1
Type: vegetation
Class: Tree
Genus: Quercus
Species: agrifolia
Sample No.: VH272
Owner: UCSB
Wavelength Range: VSWIR
Origin: 34.7153; -120.0601; WGS84
Collection Date: 11/2/2013
Description: Samples were collected as part of the HyspIRI Airborne Campaign. 48 individual plants were sampled in three times in 2013 - spring  summer  and fall. The name of the sample includes a 1  2  or 3 which references a different individual of the species. Samples were taken to JPL and processed within 48 hours of collection. The same leaves were processed in the Nicolet and then measured using the ASD.
Measurement: Bidirectional reflectance
First Column: X
Second Column: Y
X Units: Wavelength (micrometers)
Y Units: Reflectance (percentage)
First X Value: 0.35
Last X Value: 2.5
Number of X Values: 2151
Additional Information: vegetation.tree.quercus.agrifolia.vswir.vh272.ucsb.asd.ancillary.txt

 0.3500	 6.2500
 0.3510	 6.1050
 0.3520	 6.0250
 0.3530	 6.0550
 0.3540	 6.1540
 0.3550	 6.1560
 0.3560	 6.1260
 0.3570	 6.1360
 0.3580	 6.2290
 0.3590	 6.1830
 0.3600	 6.1320
 0.3610	 6.1410
 0.3620	 6.1360
 0.3630	 6.0590
 0.3640	 6.0200
 0.3650	 6.1100
 0.3660	 6.1870
 0.3670	 6.1180
 0.3680	 5.9960
 0.3690	 6.0420
 0.3700	 6.0410
 0.3710	 6.0050
 0.3720	 5.9800
 0.3730	 6.0250
 0.3740	 6.0570
 0.3750	 6.0500
 0.3760	 6.0070
 0.3770	 5.9900
 0.3780	 6.0500
 0.3790	 6.1180
 0.3800	 6.0410
 0.3810	 6.0420
 0.3820	 6.0150
 0.3830	 5.9180
 0.3840	 5.9900
 0.3850	 6.0170
 0.3860	 5.9780
 0.3870	 5.9370
 0.3880	 6.0050
 0.3890	 6.0420
 0.3900	 6.0220
 0.3910	 6.0460
 0.3920	 6.0130
 0.3930	 5.9810
 0.3940	 5.9990
 0.3950	 6.0070
 0.3960	 5.9940
 0.3970	 5.9880
 0.3980	 6.0260
 0.3990	 6.0240
 0.4000	 6.0130
 0.4010	 6.0130
 0.4020	 6.0090
 0.4030	 6.0180
 0.4040	 6.0360
 0.4050	 6.0450
 0.4060	 5.9880
 0.4070	 5.9890
 0.4080	 6.0420
 0.4090	 6.0600
 0.4100	 6.0830
 0.4110	 6.0850
 0.4120	 6.0660
 0.4130	 6.0950
 0.4140	 6.1230
 0.4150	 6.1380
 0.4160	 6.1490
 0.4170	 6.1800
 0.4180	 6.2030
 0.4190	 6.2130
 0.4200	 6.2240
 0.4210	 6.2170
 0.4220	 6.2220
 0.4230	 6.2570
 0.4240	 6.2870
 0.4250	 6.2990
 0.4260	 6.3050
 0.4270	 6.3300
 0.4280	 6.3450
 0.4290	 6.3570
 0.4300	 6.3720
 0.4310	 6.3940
 0.4320	 6.4090
 0.4330	 6.4150
 0.4340	 6.4170
 0.4350	 6.4340
 0.4360	 6.4510
 0.4370	 6.4620
 0.4380	 6.4740
 0.4390	 6.4840
 0.4400	 6.4970
 0.4410	 6.5130
 0.4420	 6.5230
 0.4430	 6.5350
 0.4440	 6.5440
 0.4450	 6.5460
 0.4460	 6.5610
 0.4470	 6.5780
 0.4480	 6.5920
 0.4490	 6.6050
 0.4500	 6.6110
 0.4510	 6.6170
 0.4520	 6.6280
 0.4530	 6.6340
 0.4540	 6.6530
 0.4550	 6.6780
 0.4560	 6.6900
 0.4570	 6.6930
 0.4580	 6.6920
 0.4590	 6.6920
 0.4600	 6.6980
 0.4610	 6.7030
 0.4620	 6.7080
 0.4630	 6.7180
 0.4640	 6.7240
 0.4650	 6.7240
 0.4660	 6.7210
 0.4670	 6.7240
 0.4680	 6.7380
 0.4690	 6.7490
 0.4700	 6.7500
 0.4710	 6.7620
 0.4720	 6.7670
 0.4730	 6.7670
 0.4740	 6.7740
 0.4750	 6.7880
 0.4760	 6.7900
 0.4770	 6.7830
 0.4780	 6.8040
 0.4790	 6.8130
 0.4800	 6.8130
 0.4810	 6.8160
 0.4820	 6.8230
 0.4830	 6.8300
 0.4840	 6.8390
 0.4850	 6.8580
 0.4860	 6.8650
 0.4870	 6.8730
 0.4880	 6.8920
 0.4890	 6.9050
 0.4900	 6.9200
 0.4910	 6.9380
 0.4920	 6.9580
 0.4930	 6.9850
 0.4940	 7.0140
 0.4950	 7.0430
 0.4960	 7.0830
 0.4970	 7.1240
 0.4980	 7.1630
 0.4990	 7.2040
 0.5000	 7.2580
 0.5010	 7.3160
 0.5020	 7.3730
 0.5030	 7.4270
 0.5040	 7.4960
 0.5050	 7.5790
 0.5060	 7.6700
 0.5070	 7.7650
 0.5080	 7.8680
 0.5090	 7.9760
 0.5100	 8.0880
 0.5110	 8.2260
 0.5120	 8.3680
 0.5130	 8.5080
 0.5140	 8.6710
 0.5150	 8.8440
 0.5160	 9.0240
 0.5170	 9.2100
 0.5180	 9.4040
 0.5190	 9.6010
 0.5200	 9.7990
 0.5210	 9.9970
 0.5220	10.2020
 0.5230	10.3990
 0.5240	10.5800
 0.5250	10.7600
 0.5260	10.9330
 0.5270	11.0950
 0.5280	11.2450
 0.5290	11.3850
 0.5300	11.5090
 0.5310	11.6160
 0.5320	11.7170
 0.5330	11.8080
 0.5340	11.8880
 0.5350	11.9550
 0.5360	12.0190
 0.5370	12.0720
 0.5380	12.1170
 0.5390	12.1630
 0.5400	12.2020
 0.5410	12.2370
 0.5420	12.2720
 0.5430	12.3060
 0.5440	12.3510
 0.5450	12.3990
 0.5460	12.4390
 0.5470	12.4860
 0.5480	12.5300
 0.5490	12.5630
 0.5500	12.5850
 0.5510	12.6010
 0.5520	12.6130
 0.5530	12.6180
 0.5540	12.6140
 0.5550	12.5970
 0.5560	12.5650
 0.5570	12.5220
 0.5580	12.4690
 0.5590	12.4050
 0.5600	12.3260
 0.5610	12.2380
 0.5620	12.1400
 0.5630	12.0370
 0.5640	11.9290
 0.5650	11.8070
 0.5660	11.6780
 0.5670	11.5500
 0.5680	11.4240
 0.5690	11.2940
 0.5700	11.1640
 0.5710	11.0390
 0.5720	10.9160
 0.5730	10.8000
 0.5740	10.6970
 0.5750	10.6070
 0.5760	10.5240
 0.5770	10.4480
 0.5780	10.3770
 0.5790	10.3020
 0.5800	10.2290
 0.5810	10.1600
 0.5820	10.0940
 0.5830	10.0320
 0.5840	 9.9740
 0.5850	 9.9170
 0.5860	 9.8630
 0.5870	 9.8160
 0.5880	 9.7740
 0.5890	 9.7350
 0.5900	 9.7070
 0.5910	 9.6870
 0.5920	 9.6700
 0.5930	 9.6490
 0.5940	 9.6320
 0.5950	 9.6090
 0.5960	 9.5780
 0.5970	 9.5480
 0.5980	 9.5200
 0.5990	 9.4910
 0.6000	 9.4590
 0.6010	 9.4200
 0.6020	 9.3740
 0.6030	 9.3230
 0.6040	 9.2730
 0.6050	 9.2190
 0.6060	 9.1590
 0.6070	 9.0970
 0.6080	 9.0310
 0.6090	 8.9660
 0.6100	 8.9000
 0.6110	 8.8310
 0.6120	 8.7690
 0.6130	 8.7160
 0.6140	 8.6700
 0.6150	 8.6230
 0.6160	 8.5780
 0.6170	 8.5350
 0.6180	 8.4970
 0.6190	 8.4600
 0.6200	 8.4340
 0.6210	 8.4150
 0.6220	 8.3930
 0.6230	 8.3760
 0.6240	 8.3640
 0.6250	 8.3570
 0.6260	 8.3530
 0.6270	 8.3510
 0.6280	 8.3510
 0.6290	 8.3520
 0.6300	 8.3530
 0.6310	 8.3520
 0.6320	 8.3500
 0.6330	 8.3500
 0.6340	 8.3430
 0.6350	 8.3280
 0.6360	 8.3080
 0.6370	 8.2850
 0.6380	 8.2500
 0.6390	 8.2050
 0.6400	 8.1570
 0.6410	 8.0980
 0.6420	 8.0380
 0.6430	 7.9790
 0.6440	 7.9190
 0.6450	 7.8580
 0.6460	 7.8000
 0.6470	 7.7490
 0.6480	 7.6950
 0.6490	 7.6450
 0.6500	 7.6010
 0.6510	 7.5620
 0.6520	 7.5230
 0.6530	 7.4860
 0.6540	 7.4500
 0.6550	 7.4140
 0.6560	 7.3770
 0.6570	 7.3390
 0.6580	 7.3030
 0.6590	 7.2680
 0.6600	 7.2340
 0.6610	 7.1990
 0.6620	 7.1650
 0.6630	 7.1400
 0.6640	 7.1220
 0.6650	 7.1100
 0.6660	 7.1000
 0.6670	 7.0920
 0.6680	 7.0920
 0.6690	 7.1010
 0.6700	 7.1150
 0.6710	 7.1350
 0.6720	 7.1600
 0.6730	 7.1850
 0.6740	 7.2130
 0.6750	 7.2480
 0.6760	 7.2920
 0.6770	 7.3350
 0.6780	 7.3860
 0.6790	 7.4460
 0.6800	 7.5100
 0.6810	 7.5800
 0.6820	 7.6600
 0.6830	 7.7550
 0.6840	 7.8660
 0.6850	 7.9890
 0.6860	 8.1310
 0.6870	 8.3020
 0.6880	 8.4960
 0.6890	 8.7240
 0.6900	 8.9930
 0.6910	 9.3050
 0.6920	 9.6700
 0.6930	10.0850
 0.6940	10.5520
 0.6950	11.0820
 0.6960	11.6730
 0.6970	12.3200
 0.6980	13.0200
 0.6990	13.7830
 0.7000	14.5940
 0.7010	15.4410
 0.7020	16.3230
 0.7030	17.2350
 0.7040	18.1690
 0.7050	19.1170
 0.7060	20.0830
 0.7070	21.0510
 0.7080	22.0160
 0.7090	22.9790
 0.7100	23.9410
 0.7110	24.8980
 0.7120	25.8460
 0.7130	26.7830
 0.7140	27.7100
 0.7150	28.6240
 0.7160	29.5220
 0.7170	30.3940
 0.7180	31.2490
 0.7190	32.0930
 0.7200	32.9250
 0.7210	33.7320
 0.7220	34.5110
 0.7230	35.2650
 0.7240	35.9960
 0.7250	36.6960
 0.7260	37.3830
 0.7270	38.0590
 0.7280	38.6610
 0.7290	39.2530
 0.7300	39.8320
 0.7310	40.3710
 0.7320	40.8830
 0.7330	41.3780
 0.7340	41.8540
 0.7350	42.2970
 0.7360	42.7090
 0.7370	43.0970
 0.7380	43.4680
 0.7390	43.8150
 0.7400	44.1420
 0.7410	44.4470
 0.7420	44.7310
 0.7430	45.0050
 0.7440	45.2510
 0.7450	45.4670
 0.7460	45.6750
 0.7470	45.8770
 0.7480	46.0530
 0.7490	46.2010
 0.7500	46.3610
 0.7510	46.4920
 0.7520	46.6140
 0.7530	46.7480
 0.7540	46.8250
 0.7550	46.9020
 0.7560	46.9910
 0.7570	47.0680
 0.7580	47.1250
 0.7590	47.1730
 0.7600	47.2190
 0.7610	47.2580
 0.7620	47.3020
 0.7630	47.3400
 0.7640	47.3660
 0.7650	47.3980
 0.7660	47.4190
 0.7670	47.4350
 0.7680	47.4630
 0.7690	47.4710
 0.7700	47.4810
 0.7710	47.4980
 0.7720	47.4910
 0.7730	47.4910
 0.7740	47.4980
 0.7750	47.5010
 0.7760	47.4930
 0.7770	47.5050
 0.7780	47.5210
 0.7790	47.5070
 0.7800	47.5140
 0.7810	47.5230
 0.7820	47.5250
 0.7830	47.5260
 0.7840	47.5220
 0.7850	47.5170
 0.7860	47.5180
 0.7870	47.5430
 0.7880	47.5560
 0.7890	47.5540
 0.7900	47.5480
 0.7910	47.5560
 0.7920	47.5730
 0.7930	47.5910
 0.7940	47.6040
 0.7950	47.5930
 0.7960	47.5920
 0.7970	47.6120
 0.7980	47.6270
 0.7990	47.6280
 0.8000	47.6310
 0.8010	47.6460
 0.8020	47.6530
 0.8030	47.6640
 0.8040	47.6740
 0.8050	47.6770
 0.8060	47.6930
 0.8070	47.7240
 0.8080	47.7540
 0.8090	47.7550
 0.8100	47.7660
 0.8110	47.7870
 0.8120	47.8130
 0.8130	47.8310
 0.8140	47.8450
 0.8150	47.8530
 0.8160	47.8580
 0.8170	47.8760
 0.8180	47.9050
 0.8190	47.9270
 0.8200	47.9320
 0.8210	47.9670
 0.8220	48.0000
 0.8230	48.0180
 0.8240	48.0340
 0.8250	48.0490
 0.8260	48.0580
 0.8270	48.0640
 0.8280	48.0810
 0.8290	48.1070
 0.8300	48.1380
 0.8310	48.1650
 0.8320	48.1670
 0.8330	48.1790
 0.8340	48.2110
 0.8350	48.2510
 0.8360	48.2470
 0.8370	48.2500
 0.8380	48.2740
 0.8390	48.2970
 0.8400	48.3050
 0.8410	48.3280
 0.8420	48.3660
 0.8430	48.3710
 0.8440	48.3930
 0.8450	48.4270
 0.8460	48.4570
 0.8470	48.4730
 0.8480	48.4670
 0.8490	48.4710
 0.8500	48.5070
 0.8510	48.5190
 0.8520	48.5330
 0.8530	48.5510
 0.8540	48.5650
 0.8550	48.5870
 0.8560	48.6020
 0.8570	48.6090
 0.8580	48.6220
 0.8590	48.6380
 0.8600	48.6420
 0.8610	48.6320
 0.8620	48.6300
 0.8630	48.6540
 0.8640	48.6800
 0.8650	48.6870
 0.8660	48.6970
 0.8670	48.7210
 0.8680	48.7410
 0.8690	48.7360
 0.8700	48.7190
 0.8710	48.7200
 0.8720	48.7380
 0.8730	48.7500
 0.8740	48.7520
 0.8750	48.7610
 0.8760	48.7680
 0.8770	48.7460
 0.8780	48.7530
 0.8790	48.7580
 0.8800	48.7440
 0.8810	48.7330
 0.8820	48.7260
 0.8830	48.7330
 0.8840	48.7520
 0.8850	48.7610
 0.8860	48.7730
 0.8870	48.7680
 0.8880	48.7330
 0.8890	48.7200
 0.8900	48.7170
 0.8910	48.7150
 0.8920	48.7090
 0.8930	48.7190
 0.8940	48.7190
 0.8950	48.7040
 0.8960	48.6830
 0.8970	48.6740
 0.8980	48.6830
 0.8990	48.6940
 0.9000	48.6860
 0.9010	48.6630
 0.9020	48.6390
 0.9030	48.6250
 0.9040	48.6300
 0.9050	48.6240
 0.9060	48.6090
 0.9070	48.5960
 0.9080	48.5890
 0.9090	48.5930
 0.9100	48.5960
 0.9110	48.5840
 0.9120	48.5650
 0.9130	48.5520
 0.9140	48.5460
 0.9150	48.5450
 0.9160	48.5500
 0.9170	48.5360
 0.9180	48.5200
 0.9190	48.5230
 0.9200	48.5020
 0.9210	48.4850
 0.9220	48.4730
 0.9230	48.4510
 0.9240	48.4310
 0.9250	48.4310
 0.9260	48.4410
 0.9270	48.4340
 0.9280	48.4170
 0.9290	48.3940
 0.9300	48.3680
 0.9310	48.3390
 0.9320	48.3220
 0.9330	48.3160
 0.9340	48.3090
 0.9350	48.2870
 0.9360	48.2510
 0.9370	48.2330
 0.9380	48.2310
 0.9390	48.2000
 0.9400	48.1900
 0.9410	48.1870
 0.9420	48.1740
 0.9430	48.1470
 0.9440	48.1320
 0.9450	48.1170
 0.9460	48.0890
 0.9470	48.0550
 0.9480	48.0200
 0.9490	47.9840
 0.9500	47.9440
 0.9510	47.9000
 0.9520	47.8480
 0.9530	47.8020
 0.9540	47.7700
 0.9550	47.7180
 0.9560	47.6710
 0.9570	47.6270
 0.9580	47.5770
 0.9590	47.5230
 0.9600	47.4880
 0.9610	47.4610
 0.9620	47.4220
 0.9630	47.3930
 0.9640	47.3530
 0.9650	47.3270
 0.9660	47.3400
 0.9670	47.3520
 0.9680	47.3350
 0.9690	47.3210
 0.9700	47.3460
 0.9710	47.3380
 0.9720	47.3270
 0.9730	47.3220
 0.9740	47.3240
 0.9750	47.3320
 0.9760	47.3350
 0.9770	47.3430
 0.9780	47.3690
 0.9790	47.3880
 0.9800	47.3870
 0.9810	47.3750
 0.9820	47.3730
 0.9830	47.4190
 0.9840	47.4450
 0.9850	47.4590
 0.9860	47.4950
 0.9870	47.5210
 0.9880	47.5460
 0.9890	47.5740
 0.9900	47.6000
 0.9910	47.6010
 0.9920	47.6290
 0.9930	47.6590
 0.9940	47.6510
 0.9950	47.7080
 0.9960	47.7330
 0.9970	47.7410
 0.9980	47.7820
 0.9990	47.8270
 1.0000	47.9080
 1.0010	48.0060
 1.0020	48.0790
 1.0030	48.1130
 1.0040	48.1450
 1.0050	48.1760
 1.0060	48.2050
 1.0070	48.2280
 1.0080	48.2540
 1.0090	48.2790
 1.0100	48.3070
 1.0110	48.3370
 1.0120	48.3650
 1.0130	48.3920
 1.0140	48.4200
 1.0150	48.4520
 1.0160	48.4800
 1.0170	48.5090
 1.0180	48.5350
 1.0190	48.5580
 1.0200	48.5840
 1.0210	48.6060
 1.0220	48.6300
 1.0230	48.6570
 1.0240	48.6840
 1.0250	48.7120
 1.0260	48.7450
 1.0270	48.7710
 1.0280	48.7900
 1.0290	48.8130
 1.0300	48.8330
 1.0310	48.8570
 1.0320	48.8840
 1.0330	48.9130
 1.0340	48.9360
 1.0350	48.9520
 1.0360	48.9720
 1.0370	48.9900
 1.0380	49.0090
 1.0390	49.0300
 1.0400	49.0500
 1.0410	49.0640
 1.0420	49.0820
 1.0430	49.1030
 1.0440	49.1210
 1.0450	49.1380
 1.0460	49.1570
 1.0470	49.1790
 1.0480	49.1970
 1.0490	49.2180
 1.0500	49.2360
 1.0510	49.2500
 1.0520	49.2610
 1.0530	49.2760
 1.0540	49.2920
 1.0550	49.3040
 1.0560	49.3170
 1.0570	49.3270
 1.0580	49.3290
 1.0590	49.3380
 1.0600	49.3490
 1.0610	49.3590
 1.0620	49.3690
 1.0630	49.3790
 1.0640	49.3880
 1.0650	49.3970
 1.0660	49.4070
 1.0670	49.4150
 1.0680	49.4230
 1.0690	49.4290
 1.0700	49.4350
 1.0710	49.4400
 1.0720	49.4430
 1.0730	49.4430
 1.0740	49.4460
 1.0750	49.4480
 1.0760	49.4490
 1.0770	49.4520
 1.0780	49.4530
 1.0790	49.4560
 1.0800	49.4560
 1.0810	49.4530
 1.0820	49.4510
 1.0830	49.4470
 1.0840	49.4430
 1.0850	49.4380
 1.0860	49.4350
 1.0870	49.4300
 1.0880	49.4220
 1.0890	49.4160
 1.0900	49.4100
 1.0910	49.4040
 1.0920	49.3980
 1.0930	49.3940
 1.0940	49.3920
 1.0950	49.3860
 1.0960	49.3790
 1.0970	49.3700
 1.0980	49.3560
 1.0990	49.3450
 1.1000	49.3340
 1.1010	49.3230
 1.1020	49.3130
 1.1030	49.3020
 1.1040	49.2900
 1.1050	49.2760
 1.1060	49.2620
 1.1070	49.2470
 1.1080	49.2320
 1.1090	49.2180
 1.1100	49.2040
 1.1110	49.1930
 1.1120	49.1780
 1.1130	49.1630
 1.1140	49.1460
 1.1150	49.1240
 1.1160	49.1030
 1.1170	49.0860
 1.1180	49.0610
 1.1190	49.0320
 1.1200	49.0020
 1.1210	48.9710
 1.1220	48.9360
 1.1230	48.9010
 1.1240	48.8630
 1.1250	48.8210
 1.1260	48.7750
 1.1270	48.7250
 1.1280	48.6730
 1.1290	48.6130
 1.1300	48.5460
 1.1310	48.4740
 1.1320	48.3980
 1.1330	48.3140
 1.1340	48.2230
 1.1350	48.1300
 1.1360	48.0340
 1.1370	47.9270
 1.1380	47.8160
 1.1390	47.7010
 1.1400	47.5760
 1.1410	47.4500
 1.1420	47.3210
 1.1430	47.1880
 1.1440	47.0560
 1.1450	46.9190
 1.1460	46.7880
 1.1470	46.6560
 1.1480	46.5280
 1.1490	46.4010
 1.1500	46.2820
 1.1510	46.1650
 1.1520	46.0580
 1.1530	45.9580
 1.1540	45.8650
 1.1550	45.7780
 1.1560	45.6990
 1.1570	45.6290
 1.1580	45.5650
 1.1590	45.5090
 1.1600	45.4630
 1.1610	45.4190
 1.1620	45.3800
 1.1630	45.3500
 1.1640	45.3210
 1.1650	45.2960
 1.1660	45.2770
 1.1670	45.2580
 1.1680	45.2410
 1.1690	45.2290
 1.1700	45.2220
 1.1710	45.2130
 1.1720	45.2090
 1.1730	45.2030
 1.1740	45.1970
 1.1750	45.1880
 1.1760	45.1780
 1.1770	45.1670
 1.1780	45.1550
 1.1790	45.1440
 1.1800	45.1330
 1.1810	45.1210
 1.1820	45.1060
 1.1830	45.0890
 1.1840	45.0730
 1.1850	45.0590
 1.1860	45.0450
 1.1870	45.0330
 1.1880	45.0220
 1.1890	45.0100
 1.1900	45.0000
 1.1910	44.9920
 1.1920	44.9860
 1.1930	44.9820
 1.1940	44.9780
 1.1950	44.9770
 1.1960	44.9770
 1.1970	44.9750
 1.1980	44.9750
 1.1990	44.9760
 1.2000	44.9770
 1.2010	44.9820
 1.2020	44.9910
 1.2030	45.0020
 1.2040	45.0140
 1.2050	45.0270
 1.2060	45.0440
 1.2070	45.0600
 1.2080	45.0770
 1.2090	45.0970
 1.2100	45.1180
 1.2110	45.1450
 1.2120	45.1780
 1.2130	45.2110
 1.2140	45.2500
 1.2150	45.2870
 1.2160	45.3240
 1.2170	45.3620
 1.2180	45.4040
 1.2190	45.4470
 1.2200	45.4950
 1.2210	45.5450
 1.2220	45.5940
 1.2230	45.6460
 1.2240	45.6970
 1.2250	45.7480
 1.2260	45.8000
 1.2270	45.8510
 1.2280	45.9010
 1.2290	45.9460
 1.2300	45.9900
 1.2310	46.0340
 1.2320	46.0770
 1.2330	46.1200
 1.2340	46.1620
 1.2350	46.2070
 1.2360	46.2470
 1.2370	46.2850
 1.2380	46.3230
 1.2390	46.3570
 1.2400	46.3890
 1.2410	46.4190
 1.2420	46.4490
 1.2430	46.4790
 1.2440	46.5060
 1.2450	46.5340
 1.2460	46.5620
 1.2470	46.5880
 1.2480	46.6150
 1.2490	46.6420
 1.2500	46.6660
 1.2510	46.6900
 1.2520	46.7130
 1.2530	46.7330
 1.2540	46.7520
 1.2550	46.7730
 1.2560	46.7920
 1.2570	46.8110
 1.2580	46.8290
 1.2590	46.8470
 1.2600	46.8680
 1.2610	46.8830
 1.2620	46.8950
 1.2630	46.9070
 1.2640	46.9140
 1.2650	46.9220
 1.2660	46.9310
 1.2670	46.9370
 1.2680	46.9420
 1.2690	46.9470
 1.2700	46.9520
 1.2710	46.9590
 1.2720	46.9660
 1.2730	46.9680
 1.2740	46.9690
 1.2750	46.9700
 1.2760	46.9730
 1.2770	46.9750
 1.2780	46.9740
 1.2790	46.9710
 1.2800	46.9650
 1.2810	46.9590
 1.2820	46.9520
 1.2830	46.9450
 1.2840	46.9390
 1.2850	46.9310
 1.2860	46.9220
 1.2870	46.9110
 1.2880	46.8990
 1.2890	46.8810
 1.2900	46.8600
 1.2910	46.8380
 1.2920	46.8160
 1.2930	46.7920
 1.2940	46.7680
 1.2950	46.7430
 1.2960	46.7140
 1.2970	46.6800
 1.2980	46.6420
 1.2990	46.6030
 1.3000	46.5600
 1.3010	46.5170
 1.3020	46.4740
 1.3030	46.4230
 1.3040	46.3710
 1.3050	46.3190
 1.3060	46.2640
 1.3070	46.2090
 1.3080	46.1460
 1.3090	46.0780
 1.3100	46.0080
 1.3110	45.9350
 1.3120	45.8590
 1.3130	45.7810
 1.3140	45.6970
 1.3150	45.6050
 1.3160	45.5130
 1.3170	45.4170
 1.3180	45.3160
 1.3190	45.2140
 1.3200	45.1090
 1.3210	44.9980
 1.3220	44.8840
 1.3230	44.7670
 1.3240	44.6470
 1.3250	44.5270
 1.3260	44.4040
 1.3270	44.2770
 1.3280	44.1490
 1.3290	44.0160
 1.3300	43.8840
 1.3310	43.7500
 1.3320	43.6120
 1.3330	43.4700
 1.3340	43.3240
 1.3350	43.1740
 1.3360	43.0240
 1.3370	42.8730
 1.3380	42.7220
 1.3390	42.5730
 1.3400	42.4240
 1.3410	42.2750
 1.3420	42.1260
 1.3430	41.9770
 1.3440	41.8270
 1.3450	41.6810
 1.3460	41.5370
 1.3470	41.3950
 1.3480	41.2540
 1.3490	41.1150
 1.3500	40.9790
 1.3510	40.8430
 1.3520	40.7090
 1.3530	40.5760
 1.3540	40.4410
 1.3550	40.3030
 1.3560	40.1640
 1.3570	40.0230
 1.3580	39.8830
 1.3590	39.7400
 1.3600	39.5940
 1.3610	39.4420
 1.3620	39.2840
 1.3630	39.1240
 1.3640	38.9590
 1.3650	38.7860
 1.3660	38.6070
 1.3670	38.4170
 1.3680	38.2150
 1.3690	38.0040
 1.3700	37.7790
 1.3710	37.5430
 1.3720	37.2970
 1.3730	37.0320
 1.3740	36.7560
 1.3750	36.4640
 1.3760	36.1480
 1.3770	35.8140
 1.3780	35.4530
 1.3790	35.0700
 1.3800	34.6630
 1.3810	34.2290
 1.3820	33.7760
 1.3830	33.3020
 1.3840	32.8060
 1.3850	32.2880
 1.3860	31.7550
 1.3870	31.1980
 1.3880	30.6370
 1.3890	30.0630
 1.3900	29.4810
 1.3910	28.8990
 1.3920	28.3130
 1.3930	27.7230
 1.3940	27.1350
 1.3950	26.5430
 1.3960	25.9580
 1.3970	25.3840
 1.3980	24.8190
 1.3990	24.2760
 1.4000	23.7470
 1.4010	23.2320
 1.4020	22.7400
 1.4030	22.2630
 1.4040	21.8070
 1.4050	21.3750
 1.4060	20.9620
 1.4070	20.5770
 1.4080	20.2130
 1.4090	19.8700
 1.4100	19.5500
 1.4110	19.2510
 1.4120	18.9730
 1.4130	18.7160
 1.4140	18.4780
 1.4150	18.2620
 1.4160	18.0640
 1.4170	17.8840
 1.4180	17.7210
 1.4190	17.5720
 1.4200	17.4350
 1.4210	17.3100
 1.4220	17.1980
 1.4230	17.0980
 1.4240	17.0100
 1.4250	16.9300
 1.4260	16.8620
 1.4270	16.7990
 1.4280	16.7460
 1.4290	16.7000
 1.4300	16.6630
 1.4310	16.6300
 1.4320	16.6060
 1.4330	16.5850
 1.4340	16.5680
 1.4350	16.5570
 1.4360	16.5500
 1.4370	16.5480
 1.4380	16.5500
 1.4390	16.5540
 1.4400	16.5620
 1.4410	16.5720
 1.4420	16.5840
 1.4430	16.5990
 1.4440	16.6160
 1.4450	16.6350
 1.4460	16.6550
 1.4470	16.6780
 1.4480	16.7010
 1.4490	16.7250
 1.4500	16.7510
 1.4510	16.7780
 1.4520	16.8070
 1.4530	16.8380
 1.4540	16.8680
 1.4550	16.8990
 1.4560	16.9300
 1.4570	16.9630
 1.4580	17.0000
 1.4590	17.0400
 1.4600	17.0850
 1.4610	17.1330
 1.4620	17.1830
 1.4630	17.2390
 1.4640	17.2990
 1.4650	17.3630
 1.4660	17.4340
 1.4670	17.5080
 1.4680	17.5880
 1.4690	17.6720
 1.4700	17.7600
