Name: Puya venusta
Type: vegetation
Class: Shrub
Genus: Puya
Species: venusta
Sample No.: JPL078
Owner: JPL
Wavelength Range: VSWIR
Origin: 34.12502; - 118.11037; WGS84
Collection Date: 2/2/2016
Description: Samples were collected at the Huntington Garden in San Marino California as part of a JPL Subcontract studying HyTES imagery. Samples were taken to JPL and processed within 48 hours of collection. The same leaves were processed in the Nicolet and then measured using the ASD.
Measurement: Bidirectional reflectance
First Column: X
Second Column: Y
X Units: Wavelength (micrometer)
Y Units: Reflectance (percentage)
First X Value: 0.35
Last X Value: 2.5
Number of X Values: 2151
Additional Information: 

 0.3500	11.6120
 0.3510	10.7840
 0.3520	10.1270
 0.3530	10.6890
 0.3540	12.3090
 0.3550	11.7510
 0.3560	11.0730
 0.3570	10.8180
 0.3580	10.6650
 0.3590	10.7040
 0.3600	10.8320
 0.3610	11.0030
 0.3620	11.2860
 0.3630	11.3780
 0.3640	11.2810
 0.3650	11.1530
 0.3660	11.4270
 0.3670	11.2810
 0.3680	10.8190
 0.3690	10.7800
 0.3700	10.9740
 0.3710	11.4790
 0.3720	12.0190
 0.3730	11.5210
 0.3740	11.3740
 0.3750	11.5510
 0.3760	11.6580
 0.3770	11.9090
 0.3780	12.1170
 0.3790	12.2440
 0.3800	12.3680
 0.3810	12.2730
 0.3820	11.8690
 0.3830	11.3460
 0.3840	11.4330
 0.3850	11.6180
 0.3860	11.9050
 0.3870	12.3230
 0.3880	11.9390
 0.3890	11.7330
 0.3900	11.9620
 0.3910	12.0290
 0.3920	11.9080
 0.3930	11.9670
 0.3940	12.3830
 0.3950	12.6740
 0.3960	12.7080
 0.3970	12.5070
 0.3980	12.2340
 0.3990	12.3760
 0.4000	12.6040
 0.4010	12.7070
 0.4020	12.7260
 0.4030	12.9710
 0.4040	13.2030
 0.4050	13.1650
 0.4060	12.9730
 0.4070	12.9300
 0.4080	13.0520
 0.4090	13.1700
 0.4100	13.3700
 0.4110	13.5270
 0.4120	13.5880
 0.4130	13.6480
 0.4140	13.8270
 0.4150	13.9400
 0.4160	13.8410
 0.4170	14.0680
 0.4180	14.3190
 0.4190	14.4140
 0.4200	14.3320
 0.4210	14.4610
 0.4220	14.7470
 0.4230	15.0500
 0.4240	15.2640
 0.4250	15.2780
 0.4260	15.2680
 0.4270	15.4890
 0.4280	15.6720
 0.4290	15.7790
 0.4300	15.8430
 0.4310	15.9570
 0.4320	16.0580
 0.4330	16.2360
 0.4340	16.5140
 0.4350	16.5300
 0.4360	16.5420
 0.4370	16.6280
 0.4380	16.7230
 0.4390	16.7840
 0.4400	16.8630
 0.4410	16.9690
 0.4420	16.9530
 0.4430	17.0080
 0.4440	17.1290
 0.4450	17.2400
 0.4460	17.3760
 0.4470	17.4360
 0.4480	17.4340
 0.4490	17.5160
 0.4500	17.5830
 0.4510	17.5990
 0.4520	17.5900
 0.4530	17.7480
 0.4540	17.8460
 0.4550	17.8470
 0.4560	17.8370
 0.4570	17.8070
 0.4580	17.8310
 0.4590	17.9160
 0.4600	17.9310
 0.4610	17.9780
 0.4620	18.0170
 0.4630	17.9900
 0.4640	17.9670
 0.4650	17.9720
 0.4660	18.0020
 0.4670	18.0240
 0.4680	17.9920
 0.4690	17.9800
 0.4700	18.0200
 0.4710	17.9340
 0.4720	18.0100
 0.4730	18.1460
 0.4740	18.0710
 0.4750	18.0430
 0.4760	18.0770
 0.4770	18.1320
 0.4780	18.1180
 0.4790	18.1480
 0.4800	18.1680
 0.4810	18.1210
 0.4820	18.1550
 0.4830	18.1670
 0.4840	18.1530
 0.4850	18.1900
 0.4860	18.2080
 0.4870	18.2190
 0.4880	18.2370
 0.4890	18.2260
 0.4900	18.2640
 0.4910	18.3170
 0.4920	18.3090
 0.4930	18.2870
 0.4940	18.3340
 0.4950	18.4300
 0.4960	18.4020
 0.4970	18.4230
 0.4980	18.4980
 0.4990	18.5790
 0.5000	18.6080
 0.5010	18.6450
 0.5020	18.7050
 0.5030	18.7580
 0.5040	18.7990
 0.5050	18.8720
 0.5060	18.9920
 0.5070	19.0970
 0.5080	19.2240
 0.5090	19.3390
 0.5100	19.3960
 0.5110	19.5160
 0.5120	19.6540
 0.5130	19.7870
 0.5140	19.9380
 0.5150	20.0840
 0.5160	20.2840
 0.5170	20.5520
 0.5180	20.6580
 0.5190	20.7710
 0.5200	20.9520
 0.5210	21.1630
 0.5220	21.3670
 0.5230	21.5530
 0.5240	21.7220
 0.5250	21.8880
 0.5260	22.0340
 0.5270	22.1680
 0.5280	22.3090
 0.5290	22.4780
 0.5300	22.6420
 0.5310	22.7750
 0.5320	22.8610
 0.5330	22.9530
 0.5340	23.0470
 0.5350	23.1270
 0.5360	23.1710
 0.5370	23.2320
 0.5380	23.3170
 0.5390	23.3980
 0.5400	23.4680
 0.5410	23.5600
 0.5420	23.6740
 0.5430	23.7360
 0.5440	23.7580
 0.5450	23.7660
 0.5460	23.7810
 0.5470	23.7260
 0.5480	23.6870
 0.5490	23.6940
 0.5500	23.6910
 0.5510	23.6940
 0.5520	23.6900
 0.5530	23.6690
 0.5540	23.6520
 0.5550	23.6160
 0.5560	23.5740
 0.5570	23.5640
 0.5580	23.5020
 0.5590	23.4270
 0.5600	23.3670
 0.5610	23.2970
 0.5620	23.2300
 0.5630	23.1440
 0.5640	23.0180
 0.5650	22.9270
 0.5660	22.8560
 0.5670	22.7830
 0.5680	22.6820
 0.5690	22.5780
 0.5700	22.4820
 0.5710	22.3940
 0.5720	22.2970
 0.5730	22.1760
 0.5740	22.0460
 0.5750	21.9380
 0.5760	21.8500
 0.5770	21.7660
 0.5780	21.6750
 0.5790	21.5930
 0.5800	21.5100
 0.5810	21.4360
 0.5820	21.3810
 0.5830	21.3460
 0.5840	21.3180
 0.5850	21.2860
 0.5860	21.2400
 0.5870	21.1920
 0.5880	21.1600
 0.5890	21.1420
 0.5900	21.0690
 0.5910	21.0250
 0.5920	21.0130
 0.5930	20.9850
 0.5940	20.9480
 0.5950	20.8970
 0.5960	20.8520
 0.5970	20.8700
 0.5980	20.8790
 0.5990	20.8700
 0.6000	20.8500
 0.6010	20.8030
 0.6020	20.7550
 0.6030	20.7130
 0.6040	20.6640
 0.6050	20.6250
 0.6060	20.5810
 0.6070	20.5210
 0.6080	20.4560
 0.6090	20.3840
 0.6100	20.3470
 0.6110	20.3770
 0.6120	20.3110
 0.6130	20.2070
 0.6140	20.1090
 0.6150	20.0240
 0.6160	19.9640
 0.6170	19.9120
 0.6180	19.8520
 0.6190	19.8090
 0.6200	19.7680
 0.6210	19.7160
 0.6220	19.6490
 0.6230	19.6160
 0.6240	19.5970
 0.6250	19.5760
 0.6260	19.5660
 0.6270	19.5500
 0.6280	19.5300
 0.6290	19.5160
 0.6300	19.5290
 0.6310	19.5270
 0.6320	19.5010
 0.6330	19.4840
 0.6340	19.4540
 0.6350	19.4190
 0.6360	19.3890
 0.6370	19.3470
 0.6380	19.3110
 0.6390	19.2730
 0.6400	19.2150
 0.6410	19.1840
 0.6420	19.1410
 0.6430	19.0730
 0.6440	19.0250
 0.6450	18.9570
 0.6460	18.8900
 0.6470	18.8470
 0.6480	18.7950
 0.6490	18.7450
 0.6500	18.7000
 0.6510	18.6590
 0.6520	18.6210
 0.6530	18.5950
 0.6540	18.5760
 0.6550	18.5340
 0.6560	18.4880
 0.6570	18.4430
 0.6580	18.3960
 0.6590	18.3380
 0.6600	18.2780
 0.6610	18.2200
 0.6620	18.1610
 0.6630	18.1050
 0.6640	18.0490
 0.6650	17.9940
 0.6660	17.9700
 0.6670	17.9210
 0.6680	17.8670
 0.6690	17.8590
 0.6700	17.8450
 0.6710	17.8270
 0.6720	17.8140
 0.6730	17.8160
 0.6740	17.8160
 0.6750	17.8340
 0.6760	17.8720
 0.6770	17.8480
 0.6780	17.8430
 0.6790	17.8790
 0.6800	17.9340
 0.6810	17.9980
 0.6820	18.0530
 0.6830	18.1010
 0.6840	18.1700
 0.6850	18.2500
 0.6860	18.3570
 0.6870	18.5020
 0.6880	18.6620
 0.6890	18.8250
 0.6900	19.0150
 0.6910	19.2740
 0.6920	19.5480
 0.6930	19.8710
 0.6940	20.2590
 0.6950	20.6670
 0.6960	21.0980
 0.6970	21.5730
 0.6980	22.1020
 0.6990	22.6260
 0.7000	23.1690
 0.7010	23.7490
 0.7020	24.3700
 0.7030	24.9730
 0.7040	25.5740
 0.7050	26.1910
 0.7060	26.8220
 0.7070	27.4650
 0.7080	28.1070
 0.7090	28.7410
 0.7100	29.3830
 0.7110	30.0330
 0.7120	30.6940
 0.7130	31.3790
 0.7140	32.0390
 0.7150	32.6800
 0.7160	33.3240
 0.7170	33.9930
 0.7180	34.6670
 0.7190	35.3380
 0.7200	35.9970
 0.7210	36.6280
 0.7220	37.2550
 0.7230	37.8840
 0.7240	38.5010
 0.7250	39.1030
 0.7260	39.6750
 0.7270	40.2110
 0.7280	40.7270
 0.7290	41.2300
 0.7300	41.7180
 0.7310	42.1800
 0.7320	42.5980
 0.7330	43.0050
 0.7340	43.4050
 0.7350	43.7720
 0.7360	44.0940
 0.7370	44.3940
 0.7380	44.6900
 0.7390	44.9910
 0.7400	45.2620
 0.7410	45.4970
 0.7420	45.7060
 0.7430	45.9140
 0.7440	46.1120
 0.7450	46.2900
 0.7460	46.4340
 0.7470	46.5620
 0.7480	46.6880
 0.7490	46.8150
 0.7500	46.9220
 0.7510	47.0180
 0.7520	47.1040
 0.7530	47.1790
 0.7540	47.2340
 0.7550	47.2880
 0.7560	47.3450
 0.7570	47.3880
 0.7580	47.4300
 0.7590	47.4830
 0.7600	47.5420
 0.7610	47.5700
 0.7620	47.5820
 0.7630	47.5970
 0.7640	47.6270
 0.7650	47.6480
 0.7660	47.6550
 0.7670	47.6650
 0.7680	47.7100
 0.7690	47.7190
 0.7700	47.7150
 0.7710	47.7200
 0.7720	47.7380
 0.7730	47.7430
 0.7740	47.7470
 0.7750	47.7600
 0.7760	47.7470
 0.7770	47.7660
 0.7780	47.7920
 0.7790	47.7750
 0.7800	47.7820
 0.7810	47.7970
 0.7820	47.8020
 0.7830	47.7910
 0.7840	47.7880
 0.7850	47.7970
 0.7860	47.8180
 0.7870	47.8450
 0.7880	47.8590
 0.7890	47.8470
 0.7900	47.8160
 0.7910	47.8430
 0.7920	47.8610
 0.7930	47.8630
 0.7940	47.8780
 0.7950	47.8650
 0.7960	47.8370
 0.7970	47.8210
 0.7980	47.8500
 0.7990	47.8770
 0.8000	47.8720
 0.8010	47.8380
 0.8020	47.8310
 0.8030	47.8350
 0.8040	47.8400
 0.8050	47.8370
 0.8060	47.8250
 0.8070	47.8000
 0.8080	47.7830
 0.8090	47.8020
 0.8100	47.8110
 0.8110	47.7930
 0.8120	47.7560
 0.8130	47.7380
 0.8140	47.7180
 0.8150	47.7070
 0.8160	47.7130
 0.8170	47.7090
 0.8180	47.7010
 0.8190	47.6850
 0.8200	47.6580
 0.8210	47.6520
 0.8220	47.6360
 0.8230	47.6030
 0.8240	47.5670
 0.8250	47.5330
 0.8260	47.5110
 0.8270	47.4920
 0.8280	47.4430
 0.8290	47.4100
 0.8300	47.3930
 0.8310	47.3790
 0.8320	47.3580
 0.8330	47.3300
 0.8340	47.2920
 0.8350	47.2490
 0.8360	47.2240
 0.8370	47.2120
 0.8380	47.2110
 0.8390	47.2210
 0.8400	47.2180
 0.8410	47.2080
 0.8420	47.1940
 0.8430	47.1730
 0.8440	47.1740
 0.8450	47.1740
 0.8460	47.1550
 0.8470	47.1500
 0.8480	47.1750
 0.8490	47.1910
 0.8500	47.1600
 0.8510	47.1580
 0.8520	47.1630
 0.8530	47.1630
 0.8540	47.1560
 0.8550	47.1590
 0.8560	47.1770
 0.8570	47.1920
 0.8580	47.1700
 0.8590	47.1640
 0.8600	47.1600
 0.8610	47.1490
 0.8620	47.1440
 0.8630	47.1390
 0.8640	47.1440
 0.8650	47.1650
 0.8660	47.2000
 0.8670	47.1850
 0.8680	47.1530
 0.8690	47.1530
 0.8700	47.1590
 0.8710	47.1610
 0.8720	47.1640
 0.8730	47.1800
 0.8740	47.1760
 0.8750	47.1750
 0.8760	47.1790
 0.8770	47.1740
 0.8780	47.1580
 0.8790	47.1370
 0.8800	47.1340
 0.8810	47.1940
 0.8820	47.1520
 0.8830	47.1150
 0.8840	47.1580
 0.8850	47.1560
 0.8860	47.1530
 0.8870	47.1500
 0.8880	47.1370
 0.8890	47.1100
 0.8900	47.1120
 0.8910	47.1260
 0.8920	47.1110
 0.8930	47.0850
 0.8940	47.0830
 0.8950	47.0880
 0.8960	47.0570
 0.8970	47.0540
 0.8980	47.0300
 0.8990	46.9980
 0.9000	47.0270
 0.9010	47.0050
 0.9020	46.9910
 0.9030	46.9980
 0.9040	46.9580
 0.9050	46.9460
 0.9060	46.9290
 0.9070	46.8910
 0.9080	46.8770
 0.9090	46.8710
 0.9100	46.8640
 0.9110	46.8500
 0.9120	46.8320
 0.9130	46.7820
 0.9140	46.7560
 0.9150	46.7860
 0.9160	46.7360
 0.9170	46.6930
 0.9180	46.6670
 0.9190	46.6320
 0.9200	46.5670
 0.9210	46.5140
 0.9220	46.4550
 0.9230	46.3540
 0.9240	46.2790
 0.9250	46.2070
 0.9260	46.1270
 0.9270	46.0440
 0.9280	45.9470
 0.9290	45.8630
 0.9300	45.7700
 0.9310	45.6190
 0.9320	45.5190
 0.9330	45.3970
 0.9340	45.2460
 0.9350	45.1530
 0.9360	45.0860
 0.9370	44.9620
 0.9380	44.7760
 0.9390	44.6450
 0.9400	44.4920
 0.9410	44.3360
 0.9420	44.1890
 0.9430	44.0240
 0.9440	43.8300
 0.9450	43.6180
 0.9460	43.4140
 0.9470	43.2590
 0.9480	43.0040
 0.9490	42.7800
 0.9500	42.6470
 0.9510	42.2980
 0.9520	41.9490
 0.9530	41.7150
 0.9540	41.5790
 0.9550	41.2300
 0.9560	40.9910
 0.9570	40.8400
 0.9580	40.6620
 0.9590	40.4640
 0.9600	40.2390
 0.9610	40.0530
 0.9620	39.9570
 0.9630	39.8520
 0.9640	39.7730
 0.9650	39.7130
 0.9660	39.6560
 0.9670	39.6010
 0.9680	39.5460
 0.9690	39.4800
 0.9700	39.4060
 0.9710	39.3980
 0.9720	39.4410
 0.9730	39.4380
 0.9740	39.3260
 0.9750	39.3560
 0.9760	39.3760
 0.9770	39.3770
 0.9780	39.4130
 0.9790	39.4110
 0.9800	39.4050
 0.9810	39.4210
 0.9820	39.4640
 0.9830	39.5000
 0.9840	39.5140
 0.9850	39.5280
 0.9860	39.5830
 0.9870	39.7220
 0.9880	39.7650
 0.9890	39.7390
 0.9900	39.7650
 0.9910	39.8190
 0.9920	39.8830
 0.9930	39.9710
 0.9940	40.0820
 0.9950	40.1120
 0.9960	40.1090
 0.9970	40.1630
 0.9980	40.3290
 0.9990	40.4490
 1.0000	40.5110
 1.0010	41.5750
 1.0020	41.6520
 1.0030	41.7370
 1.0040	41.8240
 1.0050	41.9210
 1.0060	42.0230
 1.0070	42.1210
 1.0080	42.2110
 1.0090	42.2850
 1.0100	42.3670
 1.0110	42.4550
 1.0120	42.5410
 1.0130	42.6290
 1.0140	42.7190
 1.0150	42.8050
 1.0160	42.8930
 1.0170	43.0100
 1.0180	43.1220
 1.0190	43.2250
 1.0200	43.3260
 1.0210	43.4110
 1.0220	43.4900
 1.0230	43.5810
 1.0240	43.6820
 1.0250	43.7790
 1.0260	43.8890
 1.0270	43.9820
 1.0280	44.0640
 1.0290	44.1470
 1.0300	44.2020
 1.0310	44.2880
 1.0320	44.4070
 1.0330	44.5080
 1.0340	44.5630
 1.0350	44.6370
 1.0360	44.7230
 1.0370	44.8150
 1.0380	44.8960
 1.0390	45.0220
 1.0400	45.1000
 1.0410	45.1220
 1.0420	45.1730
 1.0430	45.2400
 1.0440	45.2950
 1.0450	45.3190
 1.0460	45.3890
 1.0470	45.5030
 1.0480	45.5760
 1.0490	45.6600
 1.0500	45.7260
 1.0510	45.7530
 1.0520	45.7850
 1.0530	45.8180
 1.0540	45.8600
 1.0550	45.8890
 1.0560	45.8960
 1.0570	45.9310
 1.0580	45.9830
 1.0590	46.0170
 1.0600	46.0680
 1.0610	46.0920
 1.0620	46.0820
 1.0630	46.0890
 1.0640	46.0940
 1.0650	46.0980
 1.0660	46.1080
 1.0670	46.1150
 1.0680	46.1210
 1.0690	46.1250
 1.0700	46.1240
 1.0710	46.1190
 1.0720	46.1140
 1.0730	46.1110
 1.0740	46.0870
 1.0750	46.0490
 1.0760	46.0180
 1.0770	45.9620
 1.0780	45.9340
 1.0790	45.9330
 1.0800	45.9160
 1.0810	45.9100
 1.0820	45.8880
 1.0830	45.8510
 1.0840	45.8160
 1.0850	45.7770
 1.0860	45.7320
 1.0870	45.6920
 1.0880	45.6510
 1.0890	45.6160
 1.0900	45.5890
 1.0910	45.5470
 1.0920	45.5100
 1.0930	45.4550
 1.0940	45.3830
 1.0950	45.3200
 1.0960	45.2400
 1.0970	45.1870
 1.0980	45.1570
 1.0990	45.1110
 1.1000	45.0760
 1.1010	45.0340
 1.1020	44.9880
 1.1030	44.9230
 1.1040	44.8710
 1.1050	44.8190
 1.1060	44.7560
 1.1070	44.6860
 1.1080	44.6160
 1.1090	44.5340
 1.1100	44.4680
 1.1110	44.4120
 1.1120	44.3450
 1.1130	44.2830
 1.1140	44.2150
 1.1150	44.1480
 1.1160	44.0650
 1.1170	43.9820
 1.1180	43.8830
 1.1190	43.7690
 1.1200	43.6330
 1.1210	43.4990
 1.1220	43.3660
 1.1230	43.2360
 1.1240	43.0900
 1.1250	42.9120
 1.1260	42.7280
 1.1270	42.4960
 1.1280	42.2150
 1.1290	41.9430
 1.1300	41.6550
 1.1310	41.3450
 1.1320	41.0330
 1.1330	40.6820
 1.1340	40.2910
 1.1350	39.8990
 1.1360	39.4870
 1.1370	39.0600
 1.1380	38.6450
 1.1390	38.2140
 1.1400	37.7860
 1.1410	37.3550
 1.1420	36.9040
 1.1430	36.4620
 1.1440	36.0390
 1.1450	35.6070
 1.1460	35.2200
 1.1470	34.8590
 1.1480	34.5110
 1.1490	34.1830
 1.1500	33.8790
 1.1510	33.5920
 1.1520	33.3330
 1.1530	33.1000
 1.1540	32.8910
 1.1550	32.7050
 1.1560	32.5430
 1.1570	32.4120
 1.1580	32.2950
 1.1590	32.1910
 1.1600	32.0980
 1.1610	32.0100
 1.1620	31.9300
 1.1630	31.8520
 1.1640	31.7890
 1.1650	31.7370
 1.1660	31.6950
 1.1670	31.6540
 1.1680	31.6260
 1.1690	31.5980
 1.1700	31.5700
 1.1710	31.5440
 1.1720	31.5240
 1.1730	31.5030
 1.1740	31.4800
 1.1750	31.4630
 1.1760	31.4520
 1.1770	31.4360
 1.1780	31.4100
 1.1790	31.3830
 1.1800	31.3550
 1.1810	31.3190
 1.1820	31.2920
 1.1830	31.2690
 1.1840	31.2380
 1.1850	31.2200
 1.1860	31.2030
 1.1870	31.1650
 1.1880	31.1370
 1.1890	31.1030
 1.1900	31.0850
 1.1910	31.0780
 1.1920	31.0740
 1.1930	31.0910
 1.1940	31.0840
 1.1950	31.0640
 1.1960	31.0490
 1.1970	31.0370
 1.1980	31.0370
 1.1990	31.0570
 1.2000	31.0800
 1.2010	31.0960
 1.2020	31.1040
 1.2030	31.1030
 1.2040	31.1040
 1.2050	31.1100
 1.2060	31.1270
 1.2070	31.1550
 1.2080	31.1800
 1.2090	31.2030
 1.2100	31.2260
 1.2110	31.2520
 1.2120	31.2760
 1.2130	31.3060
 1.2140	31.3460
 1.2150	31.3820
 1.2160	31.4190
 1.2170	31.4570
 1.2180	31.4950
 1.2190	31.5230
 1.2200	31.5490
 1.2210	31.5820
 1.2220	31.6260
 1.2230	31.6770
 1.2240	31.7330
 1.2250	31.7930
 1.2260	31.8430
 1.2270	31.8840
 1.2280	31.9210
 1.2290	31.9570
 1.2300	31.9910
 1.2310	32.0260
 1.2320	32.0600
 1.2330	32.0950
 1.2340	32.1360
 1.2350	32.1850
 1.2360	32.2270
 1.2370	32.2700
 1.2380	32.3090
 1.2390	32.3510
 1.2400	32.3840
 1.2410	32.4150
 1.2420	32.4540
 1.2430	32.4860
 1.2440	32.5100
 1.2450	32.5490
 1.2460	32.5900
 1.2470	32.6200
 1.2480	32.6540
 1.2490	32.6900
 1.2500	32.7210
 1.2510	32.7510
 1.2520	32.7750
 1.2530	32.7900
 1.2540	32.8080
 1.2550	32.8210
 1.2560	32.8360
 1.2570	32.8670
 1.2580	32.8860
 1.2590	32.9020
 1.2600	32.9260
 1.2610	32.9340
 1.2620	32.9270
 1.2630	32.9180
 1.2640	32.9110
 1.2650	32.9060
 1.2660	32.9090
 1.2670	32.9090
 1.2680	32.9090
 1.2690	32.9060
 1.2700	32.8910
 1.2710	32.8720
 1.2720	32.8550
 1.2730	32.8310
 1.2740	32.7990
 1.2750	32.7790
 1.2760	32.7520
 1.2770	32.7110
 1.2780	32.6720
 1.2790	32.6240
 1.2800	32.5660
 1.2810	32.5050
 1.2820	32.4440
 1.2830	32.3790
 1.2840	32.3150
 1.2850	32.2450
 1.2860	32.1700
 1.2870	32.0920
 1.2880	32.0120
 1.2890	31.9160
 1.2900	31.8250
 1.2910	31.7350
 1.2920	31.6420
 1.2930	31.5460
 1.2940	31.4420
 1.2950	31.3310
 1.2960	31.2130
 1.2970	31.0850
 1.2980	30.9540
 1.2990	30.8260
 1.3000	30.6910
 1.3010	30.5570
 1.3020	30.4230
 1.3030	30.2700
 1.3040	30.1120
 1.3050	29.9540
 1.3060	29.7930
 1.3070	29.6310
 1.3080	29.4630
 1.3090	29.2810
 1.3100	29.0960
 1.3110	28.9150
 1.3120	28.7310
 1.3130	28.5470
 1.3140	28.3610
 1.3150	28.1750
 1.3160	27.9810
 1.3170	27.7850
 1.3180	27.5850
 1.3190	27.3810
 1.3200	27.1670
 1.3210	26.9550
 1.3220	26.7480
 1.3230	26.5360
 1.3240	26.3310
 1.3250	26.1250
 1.3260	25.9160
 1.3270	25.7120
 1.3280	25.5040
 1.3290	25.2960
 1.3300	25.0900
 1.3310	24.8820
 1.3320	24.6750
 1.3330	24.4780
 1.3340	24.2850
 1.3350	24.0950
 1.3360	23.9080
 1.3370	23.7170
 1.3380	23.5320
 1.3390	23.3560
 1.3400	23.1820
 1.3410	23.0150
 1.3420	22.8510
 1.3430	22.6870
 1.3440	22.5380
 1.3450	22.3910
 1.3460	22.2520
 1.3470	22.1100
 1.3480	21.9680
 1.3490	21.8290
 1.3500	21.6900
 1.3510	21.5600
 1.3520	21.4350
 1.3530	21.3090
 1.3540	21.1810
 1.3550	21.0570
 1.3560	20.9320
 1.3570	20.8090
 1.3580	20.6930
 1.3590	20.5720
 1.3600	20.4450
 1.3610	20.3110
 1.3620	20.1710
 1.3630	20.0280
 1.3640	19.8800
 1.3650	19.7330
 1.3660	19.5780
 1.3670	19.4210
 1.3680	19.2550
 1.3690	19.0780
 1.3700	18.8990
 1.3710	18.7090
 1.3720	18.5130
 1.3730	18.3130
 1.3740	18.1050
 1.3750	17.8870
 1.3760	17.6590
 1.3770	17.4250
 1.3780	17.1820
 1.3790	16.9380
 1.3800	16.6930
 1.3810	16.4430
 1.3820	16.1960
 1.3830	15.9460
 1.3840	15.7000
 1.3850	15.4550
 1.3860	15.2190
 1.3870	14.9830
 1.3880	14.7600
 1.3890	14.5440
 1.3900	14.3430
 1.3910	14.1520
 1.3920	13.9670
 1.3930	13.7960
 1.3940	13.6370
 1.3950	13.4900
 1.3960	13.3580
 1.3970	13.2380
 1.3980	13.1260
 1.3990	13.0230
 1.4000	12.9300
 1.4010	12.8430
 1.4020	12.7570
 1.4030	12.6810
 1.4040	12.6090
 1.4050	12.5420
 1.4060	12.4900
 1.4070	12.4390
 1.4080	12.3910
 1.4090	12.3470
 1.4100	12.3020
 1.4110	12.2630
 1.4120	12.2290
 1.4130	12.1980
 1.4140	12.1700
 1.4150	12.1450
 1.4160	12.1210
 1.4170	12.1000
 1.4180	12.0780
 1.4190	12.0530
 1.4200	12.0320
 1.4210	12.0110
 1.4220	11.9950
 1.4230	11.9810
 1.4240	11.9650
 1.4250	11.9520
 1.4260	11.9400
 1.4270	11.9280
 1.4280	11.9180
 1.4290	11.9090
 1.4300	11.9020
 1.4310	11.8950
 1.4320	11.8890
 1.4330	11.8820
 1.4340	11.8720
 1.4350	11.8640
 1.4360	11.8560
 1.4370	11.8510
 1.4380	11.8480
 1.4390	11.8470
 1.4400	11.8440
 1.4410	11.8400
 1.4420	11.8360
 1.4430	11.8300
 1.4440	11.8280
 1.4450	11.8260
 1.4460	11.8190
 1.4470	11.8170
 1.4480	11.8160
 1.4490	11.8160
 1.4500	11.8210
 1.4510	11.8180
 1.4520	11.8140
 1.4530	11.8100
 1.4540	11.8080
 1.4550	11.8130
 1.4560	11.8160
 1.4570	11.8180
 1.4580	11.8200
 1.4590	11.8190
 1.4600	11.8160
 1.4610	11.8190
 1.4620	11.8200
 1.4630	11.8220
 1.4640	11.8320
 1.4650	11.8420
 1.4660	11.8520
 1.4670	11.8580
 1.4680	11.8610
 1.4690	11.8630
 1.4700	11.8650
 1.4710	11.8750
 1.4720	11.8870
 1.4730	11.8960
 1.4740	11.9070
 1.4750	11.9140
 1.4760	11.9180
 1.4770	11.9280
 1.4780	11.9320
 1.4790	11.9390
 1.4800	11.9530
 1.4810	11.9670
 1.4820	11.9860
