Name: Quercus lobata 1
Type: vegetation
Class: Tree
Genus: Quercus
Species: lobata
Sample No.: VH086
Owner: UCSB
Wavelength Range: VSWIR
Origin: 34.7139; -120.0598; WGS84
Collection Date: 4/21/2013
Description: Samples were collected as part of the HyspIRI Airborne Campaign. 48 individual plants were sampled in three times in 2013 - spring  summer  and fall. The name of the sample includes a 1  2  or 3 which references a different individual of the species. Samples were taken to JPL and processed within 48 hours of collection. The same leaves were processed in the Nicolet and then measured using the ASD.
Measurement: Bidirectional reflectance
First Column: X
Second Column: Y
X Units: Wavelength (micrometers)
Y Units: Reflectance (percentage)
First X Value: 0.35
Last X Value: 2.5
Number of X Values: 2151
Additional Information: vegetation.tree.quercus.lobata.vswir.vh086.ucsb.asd.ancillary.txt

 0.3500	 3.5340
 0.3510	 3.4120
 0.3520	 3.3740
 0.3530	 3.3750
 0.3540	 3.3340
 0.3550	 3.1950
 0.3560	 3.2010
 0.3570	 3.2580
 0.3580	 3.1410
 0.3590	 3.1450
 0.3600	 3.1620
 0.3610	 3.1590
 0.3620	 3.2780
 0.3630	 3.2470
 0.3640	 3.2160
 0.3650	 3.3230
 0.3660	 3.2260
 0.3670	 3.1350
 0.3680	 3.1700
 0.3690	 3.3430
 0.3700	 3.2770
 0.3710	 3.2250
 0.3720	 3.3110
 0.3730	 3.2510
 0.3740	 3.2570
 0.3750	 3.2960
 0.3760	 3.2860
 0.3770	 3.2600
 0.3780	 3.2510
 0.3790	 3.2530
 0.3800	 3.2360
 0.3810	 3.2560
 0.3820	 3.2840
 0.3830	 3.2880
 0.3840	 3.2590
 0.3850	 3.2860
 0.3860	 3.3260
 0.3870	 3.3100
 0.3880	 3.3320
 0.3890	 3.3680
 0.3900	 3.4000
 0.3910	 3.4290
 0.3920	 3.4480
 0.3930	 3.4370
 0.3940	 3.3980
 0.3950	 3.3880
 0.3960	 3.4620
 0.3970	 3.5650
 0.3980	 3.6020
 0.3990	 3.6580
 0.4000	 3.6910
 0.4010	 3.7000
 0.4020	 3.7490
 0.4030	 3.7660
 0.4040	 3.7920
 0.4050	 3.8690
 0.4060	 3.9300
 0.4070	 3.9620
 0.4080	 3.9830
 0.4090	 4.0240
 0.4100	 4.0900
 0.4110	 4.1610
 0.4120	 4.2300
 0.4130	 4.3240
 0.4140	 4.3750
 0.4150	 4.3950
 0.4160	 4.4270
 0.4170	 4.4900
 0.4180	 4.5640
 0.4190	 4.6330
 0.4200	 4.6810
 0.4210	 4.7250
 0.4220	 4.7800
 0.4230	 4.8420
 0.4240	 4.8670
 0.4250	 4.9090
 0.4260	 4.9640
 0.4270	 4.9960
 0.4280	 5.0080
 0.4290	 5.0320
 0.4300	 5.0770
 0.4310	 5.1160
 0.4320	 5.1580
 0.4330	 5.1970
 0.4340	 5.2260
 0.4350	 5.2370
 0.4360	 5.2500
 0.4370	 5.2720
 0.4380	 5.3010
 0.4390	 5.3210
 0.4400	 5.3280
 0.4410	 5.3270
 0.4420	 5.3280
 0.4430	 5.3310
 0.4440	 5.3400
 0.4450	 5.3580
 0.4460	 5.3730
 0.4470	 5.3820
 0.4480	 5.3920
 0.4490	 5.4150
 0.4500	 5.4320
 0.4510	 5.4410
 0.4520	 5.4460
 0.4530	 5.4550
 0.4540	 5.4700
 0.4550	 5.4840
 0.4560	 5.4900
 0.4570	 5.4820
 0.4580	 5.4900
 0.4590	 5.5160
 0.4600	 5.5080
 0.4610	 5.5100
 0.4620	 5.5210
 0.4630	 5.5290
 0.4640	 5.5340
 0.4650	 5.5420
 0.4660	 5.5490
 0.4670	 5.5430
 0.4680	 5.5510
 0.4690	 5.5580
 0.4700	 5.5510
 0.4710	 5.5510
 0.4720	 5.5520
 0.4730	 5.5550
 0.4740	 5.5590
 0.4750	 5.5660
 0.4760	 5.5660
 0.4770	 5.5600
 0.4780	 5.5650
 0.4790	 5.5700
 0.4800	 5.5750
 0.4810	 5.5790
 0.4820	 5.5770
 0.4830	 5.5870
 0.4840	 5.6040
 0.4850	 5.6060
 0.4860	 5.6160
 0.4870	 5.6310
 0.4880	 5.6410
 0.4890	 5.6360
 0.4900	 5.6560
 0.4910	 5.6890
 0.4920	 5.7040
 0.4930	 5.7150
 0.4940	 5.7240
 0.4950	 5.7390
 0.4960	 5.7730
 0.4970	 5.8030
 0.4980	 5.8330
 0.4990	 5.8730
 0.5000	 5.9140
 0.5010	 5.9560
 0.5020	 6.0030
 0.5030	 6.0610
 0.5040	 6.1350
 0.5050	 6.2130
 0.5060	 6.2900
 0.5070	 6.3870
 0.5080	 6.4900
 0.5090	 6.6030
 0.5100	 6.7350
 0.5110	 6.8720
 0.5120	 7.0220
 0.5130	 7.1900
 0.5140	 7.3680
 0.5150	 7.5620
 0.5160	 7.7740
 0.5170	 8.0010
 0.5180	 8.2250
 0.5190	 8.4580
 0.5200	 8.7040
 0.5210	 8.9630
 0.5220	 9.2250
 0.5230	 9.4830
 0.5240	 9.7370
 0.5250	 9.9900
 0.5260	10.2330
 0.5270	10.4650
 0.5280	10.6880
 0.5290	10.8960
 0.5300	11.0910
 0.5310	11.2790
 0.5320	11.4620
 0.5330	11.6240
 0.5340	11.7750
 0.5350	11.9200
 0.5360	12.0450
 0.5370	12.1660
 0.5380	12.2830
 0.5390	12.3900
 0.5400	12.4930
 0.5410	12.6020
 0.5420	12.7160
 0.5430	12.8170
 0.5440	12.9040
 0.5450	12.9830
 0.5460	13.0590
 0.5470	13.1100
 0.5480	13.1540
 0.5490	13.2010
 0.5500	13.2520
 0.5510	13.2880
 0.5520	13.3110
 0.5530	13.3220
 0.5540	13.3130
 0.5550	13.2910
 0.5560	13.2540
 0.5570	13.2000
 0.5580	13.1280
 0.5590	13.0440
 0.5600	12.9500
 0.5610	12.8530
 0.5620	12.7440
 0.5630	12.6250
 0.5640	12.5010
 0.5650	12.3680
 0.5660	12.2310
 0.5670	12.0910
 0.5680	11.9410
 0.5690	11.7830
 0.5700	11.6220
 0.5710	11.4640
 0.5720	11.3110
 0.5730	11.1610
 0.5740	11.0170
 0.5750	10.8840
 0.5760	10.7630
 0.5770	10.6490
 0.5780	10.5400
 0.5790	10.4340
 0.5800	10.3290
 0.5810	10.2310
 0.5820	10.1450
 0.5830	10.0590
 0.5840	 9.9760
 0.5850	 9.8980
 0.5860	 9.8230
 0.5870	 9.7560
 0.5880	 9.6930
 0.5890	 9.6330
 0.5900	 9.5800
 0.5910	 9.5370
 0.5920	 9.5030
 0.5930	 9.4720
 0.5940	 9.4420
 0.5950	 9.4140
 0.5960	 9.3870
 0.5970	 9.3600
 0.5980	 9.3290
 0.5990	 9.2950
 0.6000	 9.2570
 0.6010	 9.2130
 0.6020	 9.1710
 0.6030	 9.1280
 0.6040	 9.0750
 0.6050	 9.0170
 0.6060	 8.9540
 0.6070	 8.8850
 0.6080	 8.8130
 0.6090	 8.7380
 0.6100	 8.6700
 0.6110	 8.6150
 0.6120	 8.5350
 0.6130	 8.4410
 0.6140	 8.3460
 0.6150	 8.2580
 0.6160	 8.1790
 0.6170	 8.1070
 0.6180	 8.0400
 0.6190	 7.9840
 0.6200	 7.9320
 0.6210	 7.8850
 0.6220	 7.8460
 0.6230	 7.8130
 0.6240	 7.7810
 0.6250	 7.7520
 0.6260	 7.7350
 0.6270	 7.7220
 0.6280	 7.7110
 0.6290	 7.7000
 0.6300	 7.6910
 0.6310	 7.6820
 0.6320	 7.6710
 0.6330	 7.6530
 0.6340	 7.6310
 0.6350	 7.5990
 0.6360	 7.5540
 0.6370	 7.5050
 0.6380	 7.4450
 0.6390	 7.3740
 0.6400	 7.2990
 0.6410	 7.2210
 0.6420	 7.1390
 0.6430	 7.0550
 0.6440	 6.9710
 0.6450	 6.8860
 0.6460	 6.8040
 0.6470	 6.7320
 0.6480	 6.6650
 0.6490	 6.6060
 0.6500	 6.5550
 0.6510	 6.5130
 0.6520	 6.4760
 0.6530	 6.4410
 0.6540	 6.4040
 0.6550	 6.3650
 0.6560	 6.3230
 0.6570	 6.2760
 0.6580	 6.2280
 0.6590	 6.1800
 0.6600	 6.1290
 0.6610	 6.0750
 0.6620	 6.0180
 0.6630	 5.9680
 0.6640	 5.9230
 0.6650	 5.8810
 0.6660	 5.8460
 0.6670	 5.8190
 0.6680	 5.7990
 0.6690	 5.7800
 0.6700	 5.7640
 0.6710	 5.7510
 0.6720	 5.7440
 0.6730	 5.7470
 0.6740	 5.7510
 0.6750	 5.7580
 0.6760	 5.7670
 0.6770	 5.7760
 0.6780	 5.7920
 0.6790	 5.8130
 0.6800	 5.8340
 0.6810	 5.8620
 0.6820	 5.8990
 0.6830	 5.9490
 0.6840	 6.0090
 0.6850	 6.0860
 0.6860	 6.1820
 0.6870	 6.3000
 0.6880	 6.4540
 0.6890	 6.6510
 0.6900	 6.9030
 0.6910	 7.2240
 0.6920	 7.6090
 0.6930	 8.0700
 0.6940	 8.6140
 0.6950	 9.2300
 0.6960	 9.9180
 0.6970	10.6750
 0.6980	11.4940
 0.6990	12.3610
 0.7000	13.2720
 0.7010	14.2150
 0.7020	15.1720
 0.7030	16.1430
 0.7040	17.1190
 0.7050	18.0920
 0.7060	19.0600
 0.7070	20.0240
 0.7080	20.9790
 0.7090	21.9200
 0.7100	22.8520
 0.7110	23.7820
 0.7120	24.7070
 0.7130	25.6190
 0.7140	26.5260
 0.7150	27.4300
 0.7160	28.3250
 0.7170	29.2020
 0.7180	30.0690
 0.7190	30.9280
 0.7200	31.7740
 0.7210	32.6060
 0.7220	33.4190
 0.7230	34.2110
 0.7240	34.9810
 0.7250	35.7280
 0.7260	36.4490
 0.7270	37.1440
 0.7280	37.8130
 0.7290	38.4530
 0.7300	39.0650
 0.7310	39.6520
 0.7320	40.2080
 0.7330	40.7380
 0.7340	41.2400
 0.7350	41.7110
 0.7360	42.1650
 0.7370	42.5940
 0.7380	42.9910
 0.7390	43.3670
 0.7400	43.7160
 0.7410	44.0430
 0.7420	44.3570
 0.7430	44.6440
 0.7440	44.9100
 0.7450	45.1580
 0.7460	45.3890
 0.7470	45.6080
 0.7480	45.8060
 0.7490	45.9810
 0.7500	46.1530
 0.7510	46.3140
 0.7520	46.4600
 0.7530	46.5940
 0.7540	46.7270
 0.7550	46.8450
 0.7560	46.9430
 0.7570	47.0310
 0.7580	47.1220
 0.7590	47.2080
 0.7600	47.2830
 0.7610	47.3600
 0.7620	47.4280
 0.7630	47.4900
 0.7640	47.5530
 0.7650	47.6050
 0.7660	47.6570
 0.7670	47.7080
 0.7680	47.7560
 0.7690	47.7960
 0.7700	47.8330
 0.7710	47.8720
 0.7720	47.9110
 0.7730	47.9510
 0.7740	47.9840
 0.7750	48.0100
 0.7760	48.0400
 0.7770	48.0790
 0.7780	48.1180
 0.7790	48.1470
 0.7800	48.1720
 0.7810	48.1960
 0.7820	48.2190
 0.7830	48.2500
 0.7840	48.2820
 0.7850	48.3110
 0.7860	48.3350
 0.7870	48.3670
 0.7880	48.3910
 0.7890	48.4110
 0.7900	48.4350
 0.7910	48.4560
 0.7920	48.4780
 0.7930	48.5000
 0.7940	48.5170
 0.7950	48.5360
 0.7960	48.5510
 0.7970	48.5670
 0.7980	48.5920
 0.7990	48.6130
 0.8000	48.6250
 0.8010	48.6300
 0.8020	48.6410
 0.8030	48.6570
 0.8040	48.6710
 0.8050	48.6780
 0.8060	48.6900
 0.8070	48.6980
 0.8080	48.7040
 0.8090	48.7140
 0.8100	48.7230
 0.8110	48.7300
 0.8120	48.7370
 0.8130	48.7400
 0.8140	48.7390
 0.8150	48.7390
 0.8160	48.7430
 0.8170	48.7540
 0.8180	48.7540
 0.8190	48.7470
 0.8200	48.7490
 0.8210	48.7570
 0.8220	48.7600
 0.8230	48.7550
 0.8240	48.7500
 0.8250	48.7490
 0.8260	48.7450
 0.8270	48.7390
 0.8280	48.7440
 0.8290	48.7410
 0.8300	48.7350
 0.8310	48.7310
 0.8320	48.7240
 0.8330	48.7150
 0.8340	48.7100
 0.8350	48.7100
 0.8360	48.7150
 0.8370	48.7040
 0.8380	48.6870
 0.8390	48.6910
 0.8400	48.6980
 0.8410	48.6970
 0.8420	48.6890
 0.8430	48.6960
 0.8440	48.6990
 0.8450	48.6970
 0.8460	48.6940
 0.8470	48.6950
 0.8480	48.6930
 0.8490	48.6930
 0.8500	48.7000
 0.8510	48.7080
 0.8520	48.7070
 0.8530	48.7030
 0.8540	48.7100
 0.8550	48.7110
 0.8560	48.7050
 0.8570	48.6980
 0.8580	48.7060
 0.8590	48.7190
 0.8600	48.7270
 0.8610	48.7240
 0.8620	48.7160
 0.8630	48.7160
 0.8640	48.7180
 0.8650	48.7160
 0.8660	48.7250
 0.8670	48.7330
 0.8680	48.7380
 0.8690	48.7440
 0.8700	48.7450
 0.8710	48.7490
 0.8720	48.7540
 0.8730	48.7570
 0.8740	48.7690
 0.8750	48.7730
 0.8760	48.7700
 0.8770	48.7710
 0.8780	48.7760
 0.8790	48.7870
 0.8800	48.7960
 0.8810	48.7890
 0.8820	48.7980
 0.8830	48.8110
 0.8840	48.8160
 0.8850	48.8170
 0.8860	48.8150
 0.8870	48.8140
 0.8880	48.8190
 0.8890	48.8300
 0.8900	48.8360
 0.8910	48.8380
 0.8920	48.8410
 0.8930	48.8510
 0.8940	48.8610
 0.8950	48.8650
 0.8960	48.8610
 0.8970	48.8570
 0.8980	48.8610
 0.8990	48.8710
 0.9000	48.8770
 0.9010	48.8830
 0.9020	48.8910
 0.9030	48.8990
 0.9040	48.8990
 0.9050	48.9130
 0.9060	48.9190
 0.9070	48.9070
 0.9080	48.9030
 0.9090	48.9140
 0.9100	48.9260
 0.9110	48.9280
 0.9120	48.9260
 0.9130	48.9330
 0.9140	48.9360
 0.9150	48.9290
 0.9160	48.9380
 0.9170	48.9420
 0.9180	48.9380
 0.9190	48.9330
 0.9200	48.9340
 0.9210	48.9350
 0.9220	48.9340
 0.9230	48.9290
 0.9240	48.9240
 0.9250	48.9160
 0.9260	48.9100
 0.9270	48.9130
 0.9280	48.8950
 0.9290	48.8820
 0.9300	48.8800
 0.9310	48.8660
 0.9320	48.8380
 0.9330	48.8130
 0.9340	48.7970
 0.9350	48.7720
 0.9360	48.7670
 0.9370	48.7500
 0.9380	48.7170
 0.9390	48.7100
 0.9400	48.6870
 0.9410	48.6510
 0.9420	48.6160
 0.9430	48.5980
 0.9440	48.5770
 0.9450	48.5380
 0.9460	48.4810
 0.9470	48.4460
 0.9480	48.4100
 0.9490	48.3610
 0.9500	48.3030
 0.9510	48.2710
 0.9520	48.2280
 0.9530	48.1570
 0.9540	48.0670
 0.9550	48.0170
 0.9560	47.9670
 0.9570	47.9110
 0.9580	47.8500
 0.9590	47.7890
 0.9600	47.7410
 0.9610	47.7030
 0.9620	47.6650
 0.9630	47.6360
 0.9640	47.6120
 0.9650	47.5820
 0.9660	47.5440
 0.9670	47.5370
 0.9680	47.5270
 0.9690	47.5120
 0.9700	47.5010
 0.9710	47.4980
 0.9720	47.4720
 0.9730	47.4450
 0.9740	47.4500
 0.9750	47.4340
 0.9760	47.4340
 0.9770	47.4430
 0.9780	47.4380
 0.9790	47.4320
 0.9800	47.4360
 0.9810	47.4420
 0.9820	47.4360
 0.9830	47.4460
 0.9840	47.4510
 0.9850	47.4480
 0.9860	47.4500
 0.9870	47.4620
 0.9880	47.4920
 0.9890	47.5200
 0.9900	47.5240
 0.9910	47.5270
 0.9920	47.5810
 0.9930	47.6340
 0.9940	47.6880
 0.9950	47.7420
 0.9960	47.7960
 0.9970	47.8500
 0.9980	47.9040
 0.9990	47.9570
 1.0000	48.0110
 1.0010	48.0650
 1.0020	48.1190
 1.0030	48.1730
 1.0040	48.2270
 1.0050	48.2800
 1.0060	48.3340
 1.0070	48.3880
 1.0080	48.4420
 1.0090	48.4960
 1.0100	48.4960
 1.0110	48.5230
 1.0120	48.5450
 1.0130	48.5630
 1.0140	48.5840
 1.0150	48.6060
 1.0160	48.6270
 1.0170	48.6450
 1.0180	48.6650
 1.0190	48.6810
 1.0200	48.6970
 1.0210	48.7210
 1.0220	48.7420
 1.0230	48.7610
 1.0240	48.7790
 1.0250	48.7990
 1.0260	48.8150
 1.0270	48.8320
 1.0280	48.8520
 1.0290	48.8700
 1.0300	48.8840
 1.0310	48.9020
 1.0320	48.9220
 1.0330	48.9400
 1.0340	48.9590
 1.0350	48.9730
 1.0360	48.9830
 1.0370	48.9980
 1.0380	49.0150
 1.0390	49.0340
 1.0400	49.0510
 1.0410	49.0700
 1.0420	49.0850
 1.0430	49.0970
 1.0440	49.1100
 1.0450	49.1250
 1.0460	49.1380
 1.0470	49.1500
 1.0480	49.1610
 1.0490	49.1700
 1.0500	49.1800
 1.0510	49.1890
 1.0520	49.2040
 1.0530	49.2150
 1.0540	49.2280
 1.0550	49.2360
 1.0560	49.2390
 1.0570	49.2450
 1.0580	49.2480
 1.0590	49.2520
 1.0600	49.2540
 1.0610	49.2610
 1.0620	49.2710
 1.0630	49.2790
 1.0640	49.2940
 1.0650	49.3010
 1.0660	49.3000
 1.0670	49.3020
 1.0680	49.3030
 1.0690	49.3020
 1.0700	49.3030
 1.0710	49.3050
 1.0720	49.3070
 1.0730	49.3080
 1.0740	49.3100
 1.0750	49.3150
 1.0760	49.3140
 1.0770	49.3090
 1.0780	49.3060
 1.0790	49.2960
 1.0800	49.2920
 1.0810	49.2930
 1.0820	49.2900
 1.0830	49.2860
 1.0840	49.2820
 1.0850	49.2750
 1.0860	49.2690
 1.0870	49.2650
 1.0880	49.2620
 1.0890	49.2560
 1.0900	49.2490
 1.0910	49.2430
 1.0920	49.2370
 1.0930	49.2280
 1.0940	49.2180
 1.0950	49.2080
 1.0960	49.1930
 1.0970	49.1840
 1.0980	49.1810
 1.0990	49.1730
 1.1000	49.1650
 1.1010	49.1550
 1.1020	49.1410
 1.1030	49.1280
 1.1040	49.1160
 1.1050	49.1040
 1.1060	49.0910
 1.1070	49.0770
 1.1080	49.0630
 1.1090	49.0450
 1.1100	49.0300
 1.1110	49.0160
 1.1120	49.0000
 1.1130	48.9810
 1.1140	48.9630
 1.1150	48.9450
 1.1160	48.9250
 1.1170	48.9040
 1.1180	48.8820
 1.1190	48.8590
 1.1200	48.8310
 1.1210	48.8020
 1.1220	48.7710
 1.1230	48.7360
 1.1240	48.6980
 1.1250	48.6550
 1.1260	48.6110
 1.1270	48.5580
 1.1280	48.5000
 1.1290	48.4340
 1.1300	48.3620
 1.1310	48.2830
 1.1320	48.1970
 1.1330	48.1050
 1.1340	48.0070
 1.1350	47.9030
 1.1360	47.7920
 1.1370	47.6750
 1.1380	47.5520
 1.1390	47.4230
 1.1400	47.2880
 1.1410	47.1510
 1.1420	47.0110
 1.1430	46.8660
 1.1440	46.7210
 1.1450	46.5710
 1.1460	46.4280
 1.1470	46.2860
 1.1480	46.1500
 1.1490	46.0150
 1.1500	45.8900
 1.1510	45.7650
 1.1520	45.6530
 1.1530	45.5500
 1.1540	45.4550
 1.1550	45.3690
 1.1560	45.2920
 1.1570	45.2210
 1.1580	45.1600
 1.1590	45.1050
 1.1600	45.0550
 1.1610	45.0150
 1.1620	44.9770
 1.1630	44.9430
 1.1640	44.9170
 1.1650	44.8930
 1.1660	44.8720
 1.1670	44.8550
 1.1680	44.8440
 1.1690	44.8300
 1.1700	44.8180
 1.1710	44.8070
 1.1720	44.7960
 1.1730	44.7850
 1.1740	44.7750
 1.1750	44.7670
 1.1760	44.7560
 1.1770	44.7460
 1.1780	44.7340
 1.1790	44.7210
 1.1800	44.7100
 1.1810	44.6970
 1.1820	44.6850
 1.1830	44.6700
 1.1840	44.6550
 1.1850	44.6420
 1.1860	44.6280
 1.1870	44.6170
 1.1880	44.6070
 1.1890	44.5970
 1.1900	44.5880
 1.1910	44.5820
 1.1920	44.5760
 1.1930	44.5690
 1.1940	44.5640
 1.1950	44.5610
 1.1960	44.5600
 1.1970	44.5590
 1.1980	44.5620
 1.1990	44.5660
 1.2000	44.5690
 1.2010	44.5740
 1.2020	44.5820
 1.2030	44.5910
 1.2040	44.6020
 1.2050	44.6150
 1.2060	44.6310
 1.2070	44.6480
 1.2080	44.6650
 1.2090	44.6830
 1.2100	44.7010
 1.2110	44.7210
 1.2120	44.7410
 1.2130	44.7630
 1.2140	44.7860
 1.2150	44.8090
 1.2160	44.8330
 1.2170	44.8550
 1.2180	44.8780
 1.2190	44.9030
 1.2200	44.9260
 1.2210	44.9520
 1.2220	44.9780
 1.2230	45.0030
 1.2240	45.0320
 1.2250	45.0600
 1.2260	45.0860
 1.2270	45.1120
 1.2280	45.1330
 1.2290	45.1540
 1.2300	45.1760
 1.2310	45.1980
 1.2320	45.2210
 1.2330	45.2420
 1.2340	45.2630
 1.2350	45.2810
 1.2360	45.2990
 1.2370	45.3170
 1.2380	45.3350
 1.2390	45.3520
 1.2400	45.3690
 1.2410	45.3850
 1.2420	45.4010
 1.2430	45.4170
 1.2440	45.4350
 1.2450	45.4520
 1.2460	45.4650
 1.2470	45.4810
 1.2480	45.4940
 1.2490	45.5060
 1.2500	45.5200
 1.2510	45.5320
 1.2520	45.5420
 1.2530	45.5520
 1.2540	45.5590
 1.2550	45.5660
 1.2560	45.5720
 1.2570	45.5770
 1.2580	45.5820
 1.2590	45.5880
 1.2600	45.5940
 1.2610	45.5980
 1.2620	45.6030
 1.2630	45.6040
 1.2640	45.6030
 1.2650	45.6010
 1.2660	45.5990
 1.2670	45.5960
 1.2680	45.5920
 1.2690	45.5860
 1.2700	45.5800
 1.2710	45.5730
 1.2720	45.5630
 1.2730	45.5530
 1.2740	45.5430
 1.2750	45.5310
 1.2760	45.5190
 1.2770	45.5070
 1.2780	45.4910
 1.2790	45.4730
 1.2800	45.4540
 1.2810	45.4320
 1.2820	45.4110
 1.2830	45.3910
 1.2840	45.3690
 1.2850	45.3470
 1.2860	45.3240
 1.2870	45.2970
 1.2880	45.2660
 1.2890	45.2350
 1.2900	45.2020
 1.2910	45.1660
 1.2920	45.1290
 1.2930	45.0890
 1.2940	45.0480
 1.2950	45.0060
 1.2960	44.9620
 1.2970	44.9160
 1.2980	44.8690
 1.2990	44.8180
 1.3000	44.7640
 1.3010	44.7050
 1.3020	44.6410
 1.3030	44.5760
 1.3040	44.5090
 1.3050	44.4410
 1.3060	44.3740
 1.3070	44.3010
 1.3080	44.2260
 1.3090	44.1470
 1.3100	44.0640
 1.3110	43.9780
 1.3120	43.8870
 1.3130	43.7960
 1.3140	43.7010
 1.3150	43.6020
 1.3160	43.5000
 1.3170	43.3970
 1.3180	43.2870
 1.3190	43.1760
 1.3200	43.0650
 1.3210	42.9460
 1.3220	42.8240
 1.3230	42.7000
 1.3240	42.5720
 1.3250	42.4440
 1.3260	42.3140
 1.3270	42.1780
 1.3280	42.0420
 1.3290	41.9060
 1.3300	41.7680
 1.3310	41.6300
 1.3320	41.4900
 1.3330	41.3450
 1.3340	41.1980
 1.3350	41.0490
 1.3360	40.9000
 1.3370	40.7540
 1.3380	40.6080
 1.3390	40.4620
 1.3400	40.3170
 1.3410	40.1730
 1.3420	40.0290
 1.3430	39.8860
 1.3440	39.7450
 1.3450	39.6040
 1.3460	39.4620
 1.3470	39.3260
 1.3480	39.1910
 1.3490	39.0580
 1.3500	38.9270
 1.3510	38.7950
 1.3520	38.6620
 1.3530	38.5300
 1.3540	38.3960
 1.3550	38.2640
 1.3560	38.1310
 1.3570	37.9980
 1.3580	37.8650
 1.3590	37.7280
 1.3600	37.5890
 1.3610	37.4470
 1.3620	37.3010
 1.3630	37.1480
 1.3640	36.9880
 1.3650	36.8180
 1.3660	36.6410
 1.3670	36.4540
 1.3680	36.2570
 1.3690	36.0480
 1.3700	35.8230
 1.3710	35.5830
 1.3720	35.3280
 1.3730	35.0550
 1.3740	34.7670
 1.3750	34.4600
 1.3760	34.1300
 1.3770	33.7760
 1.3780	33.3940
 1.3790	32.9900
 1.3800	32.5640
 1.3810	32.1130
 1.3820	31.6440
 1.3830	31.1550
 1.3840	30.6460
 1.3850	30.1160
 1.3860	29.5710
 1.3870	29.0030
 1.3880	28.4330
 1.3890	27.8490
 1.3900	27.2580
 1.3910	26.6700
 1.3920	26.0760
 1.3930	25.4800
 1.3940	24.8900
 1.3950	24.2980
 1.3960	23.7170
 1.3970	23.1480
 1.3980	22.5900
 1.3990	22.0540
 1.4000	21.5350
 1.4010	21.0310
 1.4020	20.5520
 1.4030	20.0880
 1.4040	19.6470
 1.4050	19.2300
 1.4060	18.8340
 1.4070	18.4650
 1.4080	18.1190
 1.4090	17.7920
 1.4100	17.4870
 1.4110	17.2020
 1.4120	16.9370
 1.4130	16.6920
 1.4140	16.4650
 1.4150	16.2570
 1.4160	16.0660
 1.4170	15.8900
 1.4180	15.7290
 1.4190	15.5800
 1.4200	15.4440
 1.4210	15.3200
 1.4220	15.2070
 1.4230	15.1060
 1.4240	15.0140
 1.4250	14.9300
 1.4260	14.8550
 1.4270	14.7870
 1.4280	14.7290
 1.4290	14.6740
 1.4300	14.6270
 1.4310	14.5840
 1.4320	14.5480
 1.4330	14.5160
 1.4340	14.4900
 1.4350	14.4670
 1.4360	14.4480
 1.4370	14.4320
 1.4380	14.4190
 1.4390	14.4100
 1.4400	14.4040
 1.4410	14.4010
 1.4420	14.4000
 1.4430	14.4020
 1.4440	14.4050
 1.4450	14.4100
 1.4460	14.4150
 1.4470	14.4230
 1.4480	14.4320
 1.4490	14.4430
 1.4500	14.4570
 1.4510	14.4710
 1.4520	14.4870
 1.4530	14.5030
 1.4540	14.5220
 1.4550	14.5430
 1.4560	14.5650
 1.4570	14.5890
 1.4580	14.6180
 1.4590	14.6490
 1.4600	14.6830
 1.4610	14.7220
 1.4620	14.7640
 1.4630	14.8110
 1.4640	14.8620
 1.4650	14.9190
 1.4660	14.9800
 1.4670	15.0450
 1.4680	15.1180
 1.4690	15.1940
 1.4700	15.2730
