Name: Ehretia austin-smithii
Type: vegetation
Class: Tree
Genus: Ehretia
Species: austin-smithii
Sample No.: JPL172
Owner: JPL
Wavelength Range: VSWIR
Origin: 34.12625; -118.1137; WGS84
Collection Date: 9/14/2016
Description: Samples were collected at the Huntington Garden in San Marino California as part of a JPL Subcontract studying HyTES imagery. Samples were taken to JPL and processed within 48 hours of collection. The same leaves were processed in the Nicolet and then measured using the ASD.
Measurement: Bidirectional reflectance
First Column: X
Second Column: Y
X Units: Wavelength (micrometer)
Y Units: Reflectance (percentage)
First X Value: 0.35
Last X Value: 2.5
Number of X Values: 2151
Additional Information: vegetation.tree.ehretia.austin-smithii.vswir.jpl172.jpl.asd.ancillary.txt

 0.3500	 7.2510
 0.3510	 7.1180
 0.3520	 7.1470
 0.3530	 7.2180
 0.3540	 7.2020
 0.3550	 7.1730
 0.3560	 7.0800
 0.3570	 7.0070
 0.3580	 7.0720
 0.3590	 7.0910
 0.3600	 7.0870
 0.3610	 7.0860
 0.3620	 7.0840
 0.3630	 7.0740
 0.3640	 7.0560
 0.3650	 7.0480
 0.3660	 7.1380
 0.3670	 7.1440
 0.3680	 7.0720
 0.3690	 7.0560
 0.3700	 7.0710
 0.3710	 7.0930
 0.3720	 7.0830
 0.3730	 6.9660
 0.3740	 6.9550
 0.3750	 7.0070
 0.3760	 7.0190
 0.3770	 7.0510
 0.3780	 7.0900
 0.3790	 7.0920
 0.3800	 7.0020
 0.3810	 6.9570
 0.3820	 6.9690
 0.3830	 7.0080
 0.3840	 6.9900
 0.3850	 6.9870
 0.3860	 7.0040
 0.3870	 7.0160
 0.3880	 7.0020
 0.3890	 6.9810
 0.3900	 6.9770
 0.3910	 7.0110
 0.3920	 6.9970
 0.3930	 6.9870
 0.3940	 7.0210
 0.3950	 7.0560
 0.3960	 7.0610
 0.3970	 7.0360
 0.3980	 7.0070
 0.3990	 7.0210
 0.4000	 7.0370
 0.4010	 7.0390
 0.4020	 7.0580
 0.4030	 7.0530
 0.4040	 7.0400
 0.4050	 7.0400
 0.4060	 7.0240
 0.4070	 7.0310
 0.4080	 7.0570
 0.4090	 7.0690
 0.4100	 7.0530
 0.4110	 7.0350
 0.4120	 7.0360
 0.4130	 7.0520
 0.4140	 7.0710
 0.4150	 7.0810
 0.4160	 7.0750
 0.4170	 7.0680
 0.4180	 7.0770
 0.4190	 7.0890
 0.4200	 7.0710
 0.4210	 7.0700
 0.4220	 7.0790
 0.4230	 7.0850
 0.4240	 7.0840
 0.4250	 7.0760
 0.4260	 7.0710
 0.4270	 7.0780
 0.4280	 7.0860
 0.4290	 7.0850
 0.4300	 7.0760
 0.4310	 7.0770
 0.4320	 7.0610
 0.4330	 7.0410
 0.4340	 7.0340
 0.4350	 7.0240
 0.4360	 7.0230
 0.4370	 7.0330
 0.4380	 7.0470
 0.4390	 7.0650
 0.4400	 7.0820
 0.4410	 7.0980
 0.4420	 7.1110
 0.4430	 7.1150
 0.4440	 7.1160
 0.4450	 7.1270
 0.4460	 7.1330
 0.4470	 7.1390
 0.4480	 7.1440
 0.4490	 7.1470
 0.4500	 7.1520
 0.4510	 7.1570
 0.4520	 7.1630
 0.4530	 7.1740
 0.4540	 7.1800
 0.4550	 7.1790
 0.4560	 7.1780
 0.4570	 7.1910
 0.4580	 7.2010
 0.4590	 7.1990
 0.4600	 7.2050
 0.4610	 7.2110
 0.4620	 7.2140
 0.4630	 7.2140
 0.4640	 7.2240
 0.4650	 7.2250
 0.4660	 7.2150
 0.4670	 7.2180
 0.4680	 7.2320
 0.4690	 7.2410
 0.4700	 7.2370
 0.4710	 7.2380
 0.4720	 7.2430
 0.4730	 7.2490
 0.4740	 7.2500
 0.4750	 7.2630
 0.4760	 7.2700
 0.4770	 7.2670
 0.4780	 7.2700
 0.4790	 7.2700
 0.4800	 7.2700
 0.4810	 7.2720
 0.4820	 7.2760
 0.4830	 7.2750
 0.4840	 7.2700
 0.4850	 7.2680
 0.4860	 7.2650
 0.4870	 7.2680
 0.4880	 7.2770
 0.4890	 7.2860
 0.4900	 7.2950
 0.4910	 7.3050
 0.4920	 7.3160
 0.4930	 7.3300
 0.4940	 7.3460
 0.4950	 7.3640
 0.4960	 7.3820
 0.4970	 7.4020
 0.4980	 7.4210
 0.4990	 7.4360
 0.5000	 7.4650
 0.5010	 7.4940
 0.5020	 7.5220
 0.5030	 7.5590
 0.5040	 7.5910
 0.5050	 7.6290
 0.5060	 7.6780
 0.5070	 7.7200
 0.5080	 7.7700
 0.5090	 7.8290
 0.5100	 7.8870
 0.5110	 7.9530
 0.5120	 8.0280
 0.5130	 8.1100
 0.5140	 8.1960
 0.5150	 8.2920
 0.5160	 8.3960
 0.5170	 8.5060
 0.5180	 8.6200
 0.5190	 8.7370
 0.5200	 8.8600
 0.5210	 8.9920
 0.5220	 9.1220
 0.5230	 9.2520
 0.5240	 9.3860
 0.5250	 9.5170
 0.5260	 9.6440
 0.5270	 9.7650
 0.5280	 9.8780
 0.5290	 9.9890
 0.5300	10.0930
 0.5310	10.1870
 0.5320	10.2760
 0.5330	10.3600
 0.5340	10.4370
 0.5350	10.5060
 0.5360	10.5650
 0.5370	10.6160
 0.5380	10.6600
 0.5390	10.6960
 0.5400	10.7180
 0.5410	10.7300
 0.5420	10.7370
 0.5430	10.7550
 0.5440	10.7860
 0.5450	10.8280
 0.5460	10.8780
 0.5470	10.9310
 0.5480	10.9800
 0.5490	11.0210
 0.5500	11.0480
 0.5510	11.0700
 0.5520	11.0860
 0.5530	11.0960
 0.5540	11.0970
 0.5550	11.0910
 0.5560	11.0750
 0.5570	11.0440
 0.5580	11.0080
 0.5590	10.9650
 0.5600	10.9130
 0.5610	10.8550
 0.5620	10.7910
 0.5630	10.7240
 0.5640	10.6570
 0.5650	10.5890
 0.5660	10.5170
 0.5670	10.4400
 0.5680	10.3620
 0.5690	10.2840
 0.5700	10.2050
 0.5710	10.1260
 0.5720	10.0470
 0.5730	 9.9720
 0.5740	 9.9010
 0.5750	 9.8320
 0.5760	 9.7690
 0.5770	 9.7090
 0.5780	 9.6530
 0.5790	 9.6030
 0.5800	 9.5540
 0.5810	 9.5090
 0.5820	 9.4720
 0.5830	 9.4330
 0.5840	 9.3980
 0.5850	 9.3670
 0.5860	 9.3380
 0.5870	 9.3100
 0.5880	 9.2860
 0.5890	 9.2680
 0.5900	 9.2490
 0.5910	 9.2310
 0.5920	 9.2130
 0.5930	 9.1940
 0.5940	 9.1880
 0.5950	 9.1820
 0.5960	 9.1720
 0.5970	 9.1670
 0.5980	 9.1590
 0.5990	 9.1490
 0.6000	 9.1380
 0.6010	 9.1270
 0.6020	 9.1130
 0.6030	 9.0950
 0.6040	 9.0740
 0.6050	 9.0470
 0.6060	 9.0160
 0.6070	 8.9810
 0.6080	 8.9440
 0.6090	 8.8940
 0.6100	 8.8280
 0.6110	 8.7530
 0.6120	 8.7160
 0.6130	 8.6990
 0.6140	 8.6860
 0.6150	 8.6580
 0.6160	 8.6300
 0.6170	 8.6020
 0.6180	 8.5750
 0.6190	 8.5460
 0.6200	 8.5190
 0.6210	 8.4970
 0.6220	 8.4790
 0.6230	 8.4670
 0.6240	 8.4560
 0.6250	 8.4470
 0.6260	 8.4410
 0.6270	 8.4370
 0.6280	 8.4320
 0.6290	 8.4270
 0.6300	 8.4210
 0.6310	 8.4180
 0.6320	 8.4160
 0.6330	 8.4130
 0.6340	 8.4060
 0.6350	 8.3930
 0.6360	 8.3780
 0.6370	 8.3570
 0.6380	 8.3340
 0.6390	 8.3080
 0.6400	 8.2770
 0.6410	 8.2450
 0.6420	 8.2130
 0.6430	 8.1800
 0.6440	 8.1480
 0.6450	 8.1140
 0.6460	 8.0800
 0.6470	 8.0480
 0.6480	 8.0220
 0.6490	 7.9970
 0.6500	 7.9750
 0.6510	 7.9570
 0.6520	 7.9440
 0.6530	 7.9330
 0.6540	 7.9210
 0.6550	 7.9050
 0.6560	 7.8900
 0.6570	 7.8750
 0.6580	 7.8570
 0.6590	 7.8370
 0.6600	 7.8150
 0.6610	 7.7920
 0.6620	 7.7680
 0.6630	 7.7510
 0.6640	 7.7370
 0.6650	 7.7240
 0.6660	 7.7130
 0.6670	 7.7040
 0.6680	 7.7000
 0.6690	 7.7030
 0.6700	 7.7070
 0.6710	 7.7130
 0.6720	 7.7240
 0.6730	 7.7370
 0.6740	 7.7550
 0.6750	 7.7750
 0.6760	 7.7960
 0.6770	 7.8210
 0.6780	 7.8510
 0.6790	 7.8850
 0.6800	 7.9210
 0.6810	 7.9600
 0.6820	 8.0030
 0.6830	 8.0510
 0.6840	 8.1030
 0.6850	 8.1620
 0.6860	 8.2280
 0.6870	 8.3020
 0.6880	 8.3870
 0.6890	 8.4900
 0.6900	 8.6140
 0.6910	 8.7620
 0.6920	 8.9410
 0.6930	 9.1560
 0.6940	 9.4120
 0.6950	 9.7120
 0.6960	10.0580
 0.6970	10.4480
 0.6980	10.8790
 0.6990	11.3490
 0.7000	11.8560
 0.7010	12.3920
 0.7020	12.9500
 0.7030	13.5240
 0.7040	14.1110
 0.7050	14.7080
 0.7060	15.3090
 0.7070	15.9140
 0.7080	16.5240
 0.7090	17.1360
 0.7100	17.7530
 0.7110	18.3730
 0.7120	18.9970
 0.7130	19.6210
 0.7140	20.2440
 0.7150	20.8680
 0.7160	21.4900
 0.7170	22.1080
 0.7180	22.7210
 0.7190	23.3300
 0.7200	23.9300
 0.7210	24.5210
 0.7220	25.1030
 0.7230	25.6730
 0.7240	26.2270
 0.7250	26.7690
 0.7260	27.2940
 0.7270	27.7990
 0.7280	28.2870
 0.7290	28.7580
 0.7300	29.2100
 0.7310	29.6410
 0.7320	30.0540
 0.7330	30.4470
 0.7340	30.8220
 0.7350	31.1800
 0.7360	31.5190
 0.7370	31.8390
 0.7380	32.1410
 0.7390	32.4250
 0.7400	32.6920
 0.7410	32.9440
 0.7420	33.1830
 0.7430	33.4050
 0.7440	33.6130
 0.7450	33.8060
 0.7460	33.9860
 0.7470	34.1540
 0.7480	34.3100
 0.7490	34.4560
 0.7500	34.5920
 0.7510	34.7190
 0.7520	34.8380
 0.7530	34.9500
 0.7540	35.0550
 0.7550	35.1550
 0.7560	35.2490
 0.7570	35.3370
 0.7580	35.4210
 0.7590	35.5030
 0.7600	35.5810
 0.7610	35.6530
 0.7620	35.7220
 0.7630	35.7890
 0.7640	35.8540
 0.7650	35.9160
 0.7660	35.9740
 0.7670	36.0320
 0.7680	36.0900
 0.7690	36.1440
 0.7700	36.1970
 0.7710	36.2510
 0.7720	36.3040
 0.7730	36.3550
 0.7740	36.4050
 0.7750	36.4560
 0.7760	36.5080
 0.7770	36.5580
 0.7780	36.6080
 0.7790	36.6610
 0.7800	36.7080
 0.7810	36.7560
 0.7820	36.8070
 0.7830	36.8550
 0.7840	36.9080
 0.7850	36.9570
 0.7860	37.0000
 0.7870	37.0500
 0.7880	37.0980
 0.7890	37.1440
 0.7900	37.1880
 0.7910	37.2350
 0.7920	37.2800
 0.7930	37.3220
 0.7940	37.3650
 0.7950	37.4080
 0.7960	37.4500
 0.7970	37.4890
 0.7980	37.5280
 0.7990	37.5680
 0.8000	37.6070
 0.8010	37.6440
 0.8020	37.6800
 0.8030	37.7170
 0.8040	37.7540
 0.8050	37.7880
 0.8060	37.8200
 0.8070	37.8510
 0.8080	37.8810
 0.8090	37.9120
 0.8100	37.9420
 0.8110	37.9720
 0.8120	38.0000
 0.8130	38.0250
 0.8140	38.0520
 0.8150	38.0790
 0.8160	38.1040
 0.8170	38.1300
 0.8180	38.1540
 0.8190	38.1760
 0.8200	38.2010
 0.8210	38.2260
 0.8220	38.2480
 0.8230	38.2690
 0.8240	38.2900
 0.8250	38.3120
 0.8260	38.3340
 0.8270	38.3540
 0.8280	38.3730
 0.8290	38.3930
 0.8300	38.4130
 0.8310	38.4330
 0.8320	38.4550
 0.8330	38.4730
 0.8340	38.4930
 0.8350	38.5180
 0.8360	38.5430
 0.8370	38.5620
 0.8380	38.5800
 0.8390	38.6030
 0.8400	38.6270
 0.8410	38.6510
 0.8420	38.6750
 0.8430	38.7010
 0.8440	38.7270
 0.8450	38.7530
 0.8460	38.7790
 0.8470	38.8050
 0.8480	38.8340
 0.8490	38.8650
 0.8500	38.8960
 0.8510	38.9250
 0.8520	38.9540
 0.8530	38.9850
 0.8540	39.0190
 0.8550	39.0530
 0.8560	39.0910
 0.8570	39.1310
 0.8580	39.1720
 0.8590	39.2110
 0.8600	39.2500
 0.8610	39.2920
 0.8620	39.3360
 0.8630	39.3780
 0.8640	39.4210
 0.8650	39.4690
 0.8660	39.5150
 0.8670	39.5630
 0.8680	39.6140
 0.8690	39.6690
 0.8700	39.7210
 0.8710	39.7740
 0.8720	39.8270
 0.8730	39.8820
 0.8740	39.9400
 0.8750	40.0010
 0.8760	40.0610
 0.8770	40.1190
 0.8780	40.1820
 0.8790	40.2460
 0.8800	40.3100
 0.8810	40.3740
 0.8820	40.4380
 0.8830	40.5020
 0.8840	40.5680
 0.8850	40.6370
 0.8860	40.7030
 0.8870	40.7700
 0.8880	40.8420
 0.8890	40.9110
 0.8900	40.9810
 0.8910	41.0520
 0.8920	41.1200
 0.8930	41.1910
 0.8940	41.2580
 0.8950	41.3240
 0.8960	41.3910
 0.8970	41.4650
 0.8980	41.5360
 0.8990	41.6000
 0.9000	41.6630
 0.9010	41.7330
 0.9020	41.8030
 0.9030	41.8700
 0.9040	41.9360
 0.9050	42.0070
 0.9060	42.0750
 0.9070	42.1360
 0.9080	42.2000
 0.9090	42.2630
 0.9100	42.3260
 0.9110	42.3880
 0.9120	42.4400
 0.9130	42.4960
 0.9140	42.5580
 0.9150	42.6200
 0.9160	42.6740
 0.9170	42.7300
 0.9180	42.7850
 0.9190	42.8360
 0.9200	42.8830
 0.9210	42.9310
 0.9220	42.9820
 0.9230	43.0330
 0.9240	43.0840
 0.9250	43.1260
 0.9260	43.1630
 0.9270	43.2000
 0.9280	43.2390
 0.9290	43.2800
 0.9300	43.3190
 0.9310	43.3500
 0.9320	43.3810
 0.9330	43.4130
 0.9340	43.4450
 0.9350	43.4730
 0.9360	43.5040
 0.9370	43.5340
 0.9380	43.5590
 0.9390	43.5860
 0.9400	43.6070
 0.9410	43.6270
 0.9420	43.6490
 0.9430	43.6720
 0.9440	43.6940
 0.9450	43.7120
 0.9460	43.7250
 0.9470	43.7320
 0.9480	43.7430
 0.9490	43.7490
 0.9500	43.7470
 0.9510	43.7590
 0.9520	43.7700
 0.9530	43.7740
 0.9540	43.7690
 0.9550	43.7680
 0.9560	43.7700
 0.9570	43.7740
 0.9580	43.7770
 0.9590	43.7790
 0.9600	43.7750
 0.9610	43.7730
 0.9620	43.7850
 0.9630	43.7950
 0.9640	43.7970
 0.9650	43.8010
 0.9660	43.8160
 0.9670	43.8210
 0.9680	43.8310
 0.9690	43.8420
 0.9700	43.8440
 0.9710	43.8580
 0.9720	43.8770
 0.9730	43.8920
 0.9740	43.8970
 0.9750	43.8990
 0.9760	43.9090
 0.9770	43.9190
 0.9780	43.9180
 0.9790	43.9330
 0.9800	43.9500
 0.9810	43.9700
 0.9820	43.9950
 0.9830	43.9910
 0.9840	44.0000
 0.9850	44.0200
 0.9860	44.0280
 0.9870	44.0420
 0.9880	44.0610
 0.9890	44.0730
 0.9900	44.0730
 0.9910	44.0920
 0.9920	44.1030
 0.9930	44.1060
 0.9940	44.1160
 0.9950	44.1400
 0.9960	44.1640
 0.9970	44.1750
 0.9980	44.1740
 0.9990	44.1790
 1.0000	44.1880
 1.0010	44.3770
 1.0020	44.3890
 1.0030	44.4020
 1.0040	44.4180
 1.0050	44.4320
 1.0060	44.4450
 1.0070	44.4560
 1.0080	44.4690
 1.0090	44.4810
 1.0100	44.4940
 1.0110	44.5090
 1.0120	44.5230
 1.0130	44.5390
 1.0140	44.5510
 1.0150	44.5610
 1.0160	44.5750
 1.0170	44.5870
 1.0180	44.5970
 1.0190	44.6130
 1.0200	44.6270
 1.0210	44.6410
 1.0220	44.6570
 1.0230	44.6720
 1.0240	44.6900
 1.0250	44.7010
 1.0260	44.7080
 1.0270	44.7180
 1.0280	44.7240
 1.0290	44.7360
 1.0300	44.7530
 1.0310	44.7680
 1.0320	44.7840
 1.0330	44.8000
 1.0340	44.8080
 1.0350	44.8170
 1.0360	44.8260
 1.0370	44.8330
 1.0380	44.8440
 1.0390	44.8600
 1.0400	44.8720
 1.0410	44.8830
 1.0420	44.8950
 1.0430	44.9050
 1.0440	44.9160
 1.0450	44.9300
 1.0460	44.9410
 1.0470	44.9500
 1.0480	44.9590
 1.0490	44.9670
 1.0500	44.9760
 1.0510	44.9870
 1.0520	44.9950
 1.0530	45.0050
 1.0540	45.0160
 1.0550	45.0260
 1.0560	45.0370
 1.0570	45.0480
 1.0580	45.0570
 1.0590	45.0680
 1.0600	45.0800
 1.0610	45.0900
 1.0620	45.1000
 1.0630	45.1100
 1.0640	45.1200
 1.0650	45.1290
 1.0660	45.1380
 1.0670	45.1470
 1.0680	45.1570
 1.0690	45.1650
 1.0700	45.1740
 1.0710	45.1860
 1.0720	45.1940
 1.0730	45.2020
 1.0740	45.2100
 1.0750	45.2160
 1.0760	45.2220
 1.0770	45.2290
 1.0780	45.2360
 1.0790	45.2420
 1.0800	45.2490
 1.0810	45.2580
 1.0820	45.2640
 1.0830	45.2660
 1.0840	45.2720
 1.0850	45.2790
 1.0860	45.2850
 1.0870	45.2920
 1.0880	45.3040
 1.0890	45.3100
 1.0900	45.3120
 1.0910	45.3180
 1.0920	45.3250
 1.0930	45.3290
 1.0940	45.3300
 1.0950	45.3350
 1.0960	45.3370
 1.0970	45.3420
 1.0980	45.3520
 1.0990	45.3570
 1.1000	45.3580
 1.1010	45.3600
 1.1020	45.3600
 1.1030	45.3630
 1.1040	45.3660
 1.1050	45.3680
 1.1060	45.3690
 1.1070	45.3680
 1.1080	45.3690
 1.1090	45.3710
 1.1100	45.3720
 1.1110	45.3750
 1.1120	45.3760
 1.1130	45.3770
 1.1140	45.3760
 1.1150	45.3730
 1.1160	45.3710
 1.1170	45.3690
 1.1180	45.3660
 1.1190	45.3620
 1.1200	45.3580
 1.1210	45.3520
 1.1220	45.3450
 1.1230	45.3370
 1.1240	45.3290
 1.1250	45.3170
 1.1260	45.3010
 1.1270	45.2870
 1.1280	45.2740
 1.1290	45.2540
 1.1300	45.2340
 1.1310	45.2090
 1.1320	45.1780
 1.1330	45.1460
 1.1340	45.1120
 1.1350	45.0760
 1.1360	45.0380
 1.1370	44.9970
 1.1380	44.9540
 1.1390	44.9100
 1.1400	44.8660
 1.1410	44.8190
 1.1420	44.7710
 1.1430	44.7240
 1.1440	44.6750
 1.1450	44.6240
 1.1460	44.5760
 1.1470	44.5280
 1.1480	44.4820
 1.1490	44.4370
 1.1500	44.3940
 1.1510	44.3500
 1.1520	44.3110
 1.1530	44.2710
 1.1540	44.2370
 1.1550	44.2080
 1.1560	44.1830
 1.1570	44.1610
 1.1580	44.1390
 1.1590	44.1190
 1.1600	44.0990
 1.1610	44.0820
 1.1620	44.0670
 1.1630	44.0530
 1.1640	44.0430
 1.1650	44.0330
 1.1660	44.0260
 1.1670	44.0170
 1.1680	44.0080
 1.1690	44.0010
 1.1700	43.9930
 1.1710	43.9870
 1.1720	43.9830
 1.1730	43.9800
 1.1740	43.9790
 1.1750	43.9770
 1.1760	43.9730
 1.1770	43.9670
 1.1780	43.9610
 1.1790	43.9570
 1.1800	43.9520
 1.1810	43.9490
 1.1820	43.9450
 1.1830	43.9390
 1.1840	43.9330
 1.1850	43.9290
 1.1860	43.9230
 1.1870	43.9170
 1.1880	43.9130
 1.1890	43.9100
 1.1900	43.9070
 1.1910	43.9080
 1.1920	43.9070
 1.1930	43.9060
 1.1940	43.9060
 1.1950	43.9060
 1.1960	43.9070
 1.1970	43.9090
 1.1980	43.9110
 1.1990	43.9150
 1.2000	43.9180
 1.2010	43.9220
 1.2020	43.9270
 1.2030	43.9310
 1.2040	43.9350
 1.2050	43.9410
 1.2060	43.9480
 1.2070	43.9560
 1.2080	43.9640
 1.2090	43.9730
 1.2100	43.9810
 1.2110	43.9890
 1.2120	43.9970
 1.2130	44.0050
 1.2140	44.0120
 1.2150	44.0210
 1.2160	44.0320
 1.2170	44.0420
 1.2180	44.0520
 1.2190	44.0640
 1.2200	44.0740
 1.2210	44.0840
 1.2220	44.0980
 1.2230	44.1080
 1.2240	44.1160
 1.2250	44.1250
 1.2260	44.1330
 1.2270	44.1420
 1.2280	44.1530
 1.2290	44.1640
 1.2300	44.1750
 1.2310	44.1840
 1.2320	44.1930
 1.2330	44.2020
 1.2340	44.2100
 1.2350	44.2160
 1.2360	44.2240
 1.2370	44.2330
 1.2380	44.2390
 1.2390	44.2460
 1.2400	44.2520
 1.2410	44.2570
 1.2420	44.2620
 1.2430	44.2670
 1.2440	44.2720
 1.2450	44.2780
 1.2460	44.2830
 1.2470	44.2900
 1.2480	44.2960
 1.2490	44.3010
 1.2500	44.3050
 1.2510	44.3090
 1.2520	44.3120
 1.2530	44.3140
 1.2540	44.3180
 1.2550	44.3210
 1.2560	44.3250
 1.2570	44.3270
 1.2580	44.3290
 1.2590	44.3310
 1.2600	44.3320
 1.2610	44.3330
 1.2620	44.3340
 1.2630	44.3340
 1.2640	44.3340
 1.2650	44.3320
 1.2660	44.3320
 1.2670	44.3310
 1.2680	44.3290
 1.2690	44.3260
 1.2700	44.3210
 1.2710	44.3160
 1.2720	44.3100
 1.2730	44.3060
 1.2740	44.3020
 1.2750	44.2970
 1.2760	44.2910
 1.2770	44.2850
 1.2780	44.2780
 1.2790	44.2710
 1.2800	44.2670
 1.2810	44.2620
 1.2820	44.2550
 1.2830	44.2480
 1.2840	44.2400
 1.2850	44.2300
 1.2860	44.2190
 1.2870	44.2080
 1.2880	44.1970
 1.2890	44.1850
 1.2900	44.1720
 1.2910	44.1600
 1.2920	44.1470
 1.2930	44.1320
 1.2940	44.1160
 1.2950	44.1010
 1.2960	44.0830
 1.2970	44.0660
 1.2980	44.0490
 1.2990	44.0290
 1.3000	44.0080
 1.3010	43.9870
 1.3020	43.9640
 1.3030	43.9400
 1.3040	43.9140
 1.3050	43.8880
 1.3060	43.8600
 1.3070	43.8320
 1.3080	43.8040
 1.3090	43.7750
 1.3100	43.7440
 1.3110	43.7100
 1.3120	43.6750
 1.3130	43.6410
 1.3140	43.6050
 1.3150	43.5680
 1.3160	43.5290
 1.3170	43.4900
 1.3180	43.4470
 1.3190	43.4020
 1.3200	43.3590
 1.3210	43.3140
 1.3220	43.2660
 1.3230	43.2190
 1.3240	43.1700
 1.3250	43.1200
 1.3260	43.0710
 1.3270	43.0190
 1.3280	42.9650
 1.3290	42.9100
 1.3300	42.8540
 1.3310	42.7980
 1.3320	42.7410
 1.3330	42.6840
 1.3340	42.6240
 1.3350	42.5630
 1.3360	42.5010
 1.3370	42.4410
 1.3380	42.3790
 1.3390	42.3160
 1.3400	42.2540
 1.3410	42.1940
 1.3420	42.1330
 1.3430	42.0730
 1.3440	42.0120
 1.3450	41.9510
 1.3460	41.8870
 1.3470	41.8240
 1.3480	41.7620
 1.3490	41.7020
 1.3500	41.6420
 1.3510	41.5830
 1.3520	41.5240
 1.3530	41.4650
 1.3540	41.4060
 1.3550	41.3470
 1.3560	41.2870
 1.3570	41.2260
 1.3580	41.1650
 1.3590	41.1000
 1.3600	41.0370
 1.3610	40.9710
 1.3620	40.9020
 1.3630	40.8320
 1.3640	40.7570
 1.3650	40.6790
 1.3660	40.5980
 1.3670	40.5120
 1.3680	40.4220
 1.3690	40.3250
 1.3700	40.2200
 1.3710	40.1070
 1.3720	39.9840
 1.3730	39.8500
 1.3740	39.7100
 1.3750	39.5590
 1.3760	39.3930
 1.3770	39.2170
 1.3780	39.0220
 1.3790	38.8110
 1.3800	38.5860
 1.3810	38.3420
 1.3820	38.0850
 1.3830	37.8150
 1.3840	37.5280
 1.3850	37.2250
 1.3860	36.9070
 1.3870	36.5710
 1.3880	36.2250
 1.3890	35.8660
 1.3900	35.4940
 1.3910	35.1160
 1.3920	34.7280
 1.3930	34.3290
 1.3940	33.9260
 1.3950	33.5150
 1.3960	33.1020
 1.3970	32.6920
 1.3980	32.2830
 1.3990	31.8830
 1.4000	31.4870
 1.4010	31.0960
 1.4020	30.7160
 1.4030	30.3420
 1.4040	29.9810
 1.4050	29.6340
 1.4060	29.3000
 1.4070	28.9820
 1.4080	28.6790
 1.4090	28.3890
 1.4100	28.1150
 1.4110	27.8530
 1.4120	27.6080
 1.4130	27.3770
 1.4140	27.1610
 1.4150	26.9620
 1.4160	26.7750
 1.4170	26.6000
 1.4180	26.4380
 1.4190	26.2860
 1.4200	26.1440
 1.4210	26.0140
 1.4220	25.8930
 1.4230	25.7830
 1.4240	25.6820
 1.4250	25.5880
 1.4260	25.5030
 1.4270	25.4240
 1.4280	25.3530
 1.4290	25.2880
 1.4300	25.2310
 1.4310	25.1790
 1.4320	25.1340
 1.4330	25.0920
 1.4340	25.0560
 1.4350	25.0230
 1.4360	24.9950
 1.4370	24.9720
 1.4380	24.9520
 1.4390	24.9370
 1.4400	24.9240
 1.4410	24.9140
 1.4420	24.9060
 1.4430	24.9000
 1.4440	24.8960
 1.4450	24.8950
 1.4460	24.8950
 1.4470	24.8980
 1.4480	24.9020
 1.4490	24.9080
 1.4500	24.9160
 1.4510	24.9250
 1.4520	24.9350
 1.4530	24.9470
 1.4540	24.9600
 1.4550	24.9760
 1.4560	24.9930
 1.4570	25.0130
 1.4580	25.0350
 1.4590	25.0610
 1.4600	25.0900
 1.4610	25.1240
 1.4620	25.1620
 1.4630	25.2040
 1.4640	25.2500
 1.4650	25.2990
 1.4660	25.3530
 1.4670	25.4110
 1.4680	25.4740
 1.4690	25.5420
 1.4700	25.6120
 1.4710	25.6890
 1.4720	25.7680
 1.4730	25.8510
 1.4740	25.9360
 1.4750	26.0250
 1.4760	26.1170
 1.4770	26.2110
