Name: Umbellularia californica 2
Type: vegetation
Class: Shrub
Genus: Umbellularia
Species: californica
Sample No.: VH238
Owner: UCSB
Wavelength Range: TIR
Origin: 34.5074; -119.7632; WGS84
Collection Date: 10/13/2013
Description: Samples were collected as part of the HyspIRI Airborne Campaign. 48 individual plants were sampled in three times in 2013 - spring  summer  and fall. The name of the sample includes a 1  2  or 3 which references a different individual of the species. Samples were taken to JPL and processed within 48 hours of collection. The same leaves were processed in the Nicolet and then measured using the ASD.
Measurement: Hemispherical reflectance
First Column: X
Second Column: Y
X Units: Wavelength (micrometers)
Y Units: Reflectance (percentage)
First X Value: 2.501
Last X Value: 15.387
Number of X Values: 1737
Additional Information: vegetation.shrub.umbellularia.californica.tir.vh238.ucsb.nicolet.ancillary.txt

 2.5010	 6.5040
 2.5030	 6.6760
 2.5040	 6.8540
 2.5050	 7.0170
 2.5060	 7.0660
 2.5070	 6.9060
 2.5090	 7.0110
 2.5100	 7.0830
 2.5110	 7.0040
 2.5120	 6.7030
 2.5140	 6.7300
 2.5150	 6.7960
 2.5160	 6.8340
 2.5170	 6.7370
 2.5180	 6.7250
 2.5200	 6.7680
 2.5210	 6.7180
 2.5220	 6.5960
 2.5230	 6.6860
 2.5250	 6.7240
 2.5260	 6.6690
 2.5270	 6.4040
 2.5280	 6.4520
 2.5290	 6.4270
 2.5310	 6.5260
 2.5320	 6.6160
 2.5330	 6.5000
 2.5340	 6.4520
 2.5360	 6.6490
 2.5370	 6.6950
 2.5380	 6.6040
 2.5390	 6.6440
 2.5410	 6.7550
 2.5420	 6.5670
 2.5430	 6.5250
 2.5440	 6.6830
 2.5460	 6.7850
 2.5470	 6.5590
 2.5480	 6.5150
 2.5490	 6.6080
 2.5510	 6.9010
 2.5520	 6.8410
 2.5530	 6.7120
 2.5540	 6.5320
 2.5560	 6.5210
 2.5570	 6.6610
 2.5580	 6.9070
 2.5590	 6.8750
 2.5610	 6.7080
 2.5620	 6.6130
 2.5630	 6.6920
 2.5640	 6.7040
 2.5660	 6.6480
 2.5670	 6.6360
 2.5680	 6.7120
 2.5700	 6.7870
 2.5710	 6.7780
 2.5720	 6.6600
 2.5730	 6.5900
 2.5750	 6.5020
 2.5760	 6.6740
 2.5770	 6.9600
 2.5790	 7.0700
 2.5800	 7.0050
 2.5810	 6.9900
 2.5820	 6.8520
 2.5840	 6.6520
 2.5850	 6.6230
 2.5860	 6.8060
 2.5880	 6.7760
 2.5890	 6.8790
 2.5900	 7.0430
 2.5910	 7.0680
 2.5930	 6.7200
 2.5940	 6.5590
 2.5950	 6.5990
 2.5970	 6.8130
 2.5980	 6.7380
 2.5990	 6.6790
 2.6000	 6.6570
 2.6020	 6.5760
 2.6030	 6.4420
 2.6040	 6.4400
 2.6060	 6.4000
 2.6070	 6.4370
 2.6080	 6.3080
 2.6100	 6.2930
 2.6110	 6.5050
 2.6120	 6.6220
 2.6140	 6.3990
 2.6150	 6.4430
 2.6160	 6.5590
 2.6180	 6.4700
 2.6190	 6.4270
 2.6200	 6.4840
 2.6220	 6.3440
 2.6230	 6.2160
 2.6240	 6.2350
 2.6260	 6.3400
 2.6270	 6.3650
 2.6280	 6.3970
 2.6300	 6.2590
 2.6310	 6.1720
 2.6320	 6.1910
 2.6340	 6.2560
 2.6350	 6.2080
 2.6360	 6.3230
 2.6380	 6.1020
 2.6390	 5.9440
 2.6400	 5.8910
 2.6420	 5.8480
 2.6430	 5.7760
 2.6440	 5.9060
 2.6460	 5.9180
 2.6470	 5.9530
 2.6480	 5.8360
 2.6500	 5.8610
 2.6510	 5.6950
 2.6520	 5.5890
 2.6540	 5.5980
 2.6550	 5.5920
 2.6560	 5.5860
 2.6580	 5.7020
 2.6590	 5.7580
 2.6610	 5.6900
 2.6620	 5.4470
 2.6630	 5.4660
 2.6650	 5.4670
 2.6660	 5.4390
 2.6670	 5.2530
 2.6690	 5.1760
 2.6700	 5.1150
 2.6720	 5.1800
 2.6730	 5.4060
 2.6740	 5.3650
 2.6760	 5.1160
 2.6770	 5.0730
 2.6780	 5.2280
 2.6800	 5.1630
 2.6810	 4.8760
 2.6830	 4.8680
 2.6840	 4.7760
 2.6850	 4.8780
 2.6870	 4.8630
 2.6880	 4.8020
 2.6900	 4.8120
 2.6910	 4.8090
 2.6920	 4.6760
 2.6940	 4.6400
 2.6950	 4.5990
 2.6970	 4.6850
 2.6980	 4.6280
 2.6990	 4.3430
 2.7010	 4.2340
 2.7020	 4.3280
 2.7040	 4.3780
 2.7050	 4.4590
 2.7060	 4.4420
 2.7080	 4.2990
 2.7090	 4.1220
 2.7110	 4.2670
 2.7120	 4.3640
 2.7130	 4.3750
 2.7150	 4.2810
 2.7160	 4.1230
 2.7180	 4.0040
 2.7190	 4.1740
 2.7210	 4.3170
 2.7220	 4.1380
 2.7230	 4.0320
 2.7250	 4.0990
 2.7260	 3.7940
 2.7280	 3.8650
 2.7290	 4.1300
 2.7310	 4.2340
 2.7320	 4.1000
 2.7330	 4.0110
 2.7350	 4.2610
 2.7360	 4.3950
 2.7380	 3.9870
 2.7390	 3.5450
 2.7410	 3.2420
 2.7420	 3.0930
 2.7440	 3.4430
 2.7450	 4.0700
 2.7470	 4.6010
 2.7480	 4.5940
 2.7490	 4.1900
 2.7510	 3.6720
 2.7520	 3.2680
 2.7540	 3.5260
 2.7550	 3.8120
 2.7570	 4.6430
 2.7580	 4.4090
 2.7600	 3.7180
 2.7610	 3.6740
 2.7630	 3.4920
 2.7640	 3.2230
 2.7660	 4.1170
 2.7670	 4.6340
 2.7680	 4.0020
 2.7700	 3.6010
 2.7710	 3.8710
 2.7730	 3.7220
 2.7740	 3.4910
 2.7760	 3.6140
 2.7770	 4.0610
 2.7790	 4.1430
 2.7800	 4.0200
 2.7820	 3.9250
 2.7830	 4.0790
 2.7850	 3.8320
 2.7860	 3.6210
 2.7880	 3.6440
 2.7890	 3.8090
 2.7910	 3.7810
 2.7920	 3.9380
 2.7940	 3.9210
 2.7950	 3.6740
 2.7970	 3.3690
 2.7980	 3.5770
 2.8000	 3.8860
 2.8010	 3.7140
 2.8030	 3.4970
 2.8040	 3.5360
 2.8060	 3.4860
 2.8070	 3.5780
 2.8090	 3.5080
 2.8110	 3.4330
 2.8120	 3.2490
 2.8140	 3.0730
 2.8150	 3.2720
 2.8170	 3.5670
 2.8180	 3.6400
 2.8200	 3.9040
 2.8210	 3.7800
 2.8230	 3.6960
 2.8240	 3.5610
 2.8260	 3.1980
 2.8270	 3.1410
 2.8290	 3.4390
 2.8300	 3.5590
 2.8320	 3.6560
 2.8340	 3.6190
 2.8350	 3.7060
 2.8370	 3.4420
 2.8380	 3.3610
 2.8400	 3.3570
 2.8410	 3.4990
 2.8430	 3.5520
 2.8440	 3.4560
 2.8460	 3.5980
 2.8480	 3.7800
 2.8490	 3.5950
 2.8510	 3.5210
 2.8520	 3.4840
 2.8540	 3.6290
 2.8550	 3.6140
 2.8570	 3.6520
 2.8590	 3.7130
 2.8600	 3.6780
 2.8620	 3.5190
 2.8630	 3.5250
 2.8650	 3.5670
 2.8660	 3.4110
 2.8680	 3.3130
 2.8700	 3.5310
 2.8710	 3.6240
 2.8730	 3.5670
 2.8740	 3.7910
 2.8760	 4.2570
 2.8780	 4.0800
 2.8790	 3.6460
 2.8810	 3.1720
 2.8820	 3.1970
 2.8840	 3.2030
 2.8860	 3.6430
 2.8870	 3.4870
 2.8890	 3.2870
 2.8900	 3.3510
 2.8920	 3.3760
 2.8940	 3.2600
 2.8950	 3.6840
 2.8970	 3.8820
 2.8980	 3.5910
 2.9000	 3.6180
 2.9020	 3.4290
 2.9030	 3.3630
 2.9050	 3.4420
 2.9070	 3.5540
 2.9080	 3.4380
 2.9100	 3.1630
 2.9120	 3.1330
 2.9130	 3.1870
 2.9150	 3.4140
 2.9160	 3.6930
 2.9180	 3.6010
 2.9200	 3.3890
 2.9210	 3.4250
 2.9230	 3.5090
 2.9250	 3.5190
 2.9260	 3.5490
 2.9280	 3.4290
 2.9300	 3.3040
 2.9310	 3.3790
 2.9330	 3.4390
 2.9350	 3.7030
 2.9360	 3.6320
 2.9380	 3.5650
 2.9400	 3.5620
 2.9410	 3.5570
 2.9430	 3.4700
 2.9450	 3.4640
 2.9460	 3.6710
 2.9480	 3.4900
 2.9500	 3.2250
 2.9510	 3.6910
 2.9530	 4.0460
 2.9550	 4.2230
 2.9560	 4.4620
 2.9580	 3.7000
 2.9600	 4.2100
 2.9610	 5.0640
 2.9630	 4.3970
 2.9650	 2.2200
 2.9660	 1.5330
 2.9680	 4.1010
 2.9700	 5.4550
 2.9720	 4.4810
 2.9730	 4.2100
 2.9750	 4.7390
 2.9770	 2.5830
 2.9780	 2.8110
 2.9800	 3.6310
 2.9820	 3.7680
 2.9840	 4.1060
 2.9850	 4.3350
 2.9870	 3.6580
 2.9890	 2.9180
 2.9900	 0.7100
 2.9920	 -0.712
 2.9940	 1.9560
 2.9960	 2.4870
 2.9970	 2.1190
 2.9990	 3.4010
 3.0010	 2.2170
 3.0030	 2.9690
 3.0040	 3.4230
 3.0060	 2.6200
 3.0080	 2.8780
 3.0100	 2.9520
 3.0110	 4.5850
 3.0130	 5.2510
 3.0150	 4.9550
 3.0170	 4.7740
 3.0180	 4.0830
 3.0200	 3.6300
 3.0220	 3.0070
 3.0240	 3.6770
 3.0250	 4.4590
 3.0270	 4.6990
 3.0290	 4.3390
 3.0310	 3.3650
 3.0320	 3.0550
 3.0340	 4.1830
 3.0360	 4.7750
 3.0380	 4.1680
 3.0400	 4.7140
 3.0410	 4.6990
 3.0430	 4.4410
 3.0450	 4.0630
 3.0470	 3.1690
 3.0480	 -0.335
 3.0500	 0.0830
 3.0520	 2.3290
 3.0540	 2.3110
 3.0560	 2.4850
 3.0570	 4.5410
 3.0590	 6.4720
 3.0610	 5.1320
 3.0630	 3.5960
 3.0650	 4.6290
 3.0660	 4.5370
 3.0680	 3.8690
 3.0700	 3.1650
 3.0720	 2.7280
 3.0740	 2.6400
 3.0760	 3.2520
 3.0770	 3.6520
 3.0790	 3.2710
 3.0810	 3.5080
 3.0830	 3.9460
 3.0850	 3.9490
 3.0870	 3.9650
 3.0880	 4.1740
 3.0900	 3.8470
 3.0920	 3.7840
 3.0940	 3.7790
 3.0960	 3.5060
 3.0980	 3.2870
 3.0990	 3.8120
 3.1010	 3.9290
 3.1030	 3.7350
 3.1050	 3.7810
 3.1070	 4.2210
 3.1090	 4.2250
 3.1110	 4.0700
 3.1120	 3.8620
 3.1140	 3.9830
 3.1160	 3.7590
 3.1180	 3.7590
 3.1200	 4.0400
 3.1220	 4.2560
 3.1240	 3.7410
 3.1260	 3.9370
 3.1270	 4.6900
 3.1290	 4.1810
 3.1310	 3.3850
 3.1330	 3.1620
 3.1350	 2.6390
 3.1370	 2.8890
 3.1390	 3.4180
 3.1410	 4.8360
 3.1430	 4.7620
 3.1450	 5.1900
 3.1460	 5.3210
 3.1480	 3.7360
 3.1500	 3.0770
 3.1520	 2.8260
 3.1540	 2.6350
 3.1560	 4.7370
 3.1580	 5.0520
 3.1600	 4.2140
 3.1620	 4.1530
 3.1640	 2.7060
 3.1660	 1.6970
 3.1680	 2.0890
 3.1700	 0.3120
 3.1710	 1.8640
 3.1730	 6.0670
 3.1750	 6.9440
 3.1770	 4.1810
 3.1790	 -0.197
 3.1810	 -0.934
 3.1830	 2.0750
 3.1850	 4.8270
 3.1870	 4.6880
 3.1890	 3.7190
 3.1910	 3.8330
 3.1930	 3.8520
 3.1950	 3.7870
 3.1970	 3.7370
 3.1990	 3.6980
 3.2010	 3.8250
 3.2030	 4.0030
 3.2050	 3.9350
 3.2070	 3.6270
 3.2090	 3.9200
 3.2110	 4.1450
 3.2130	 3.8730
 3.2150	 3.8830
 3.2170	 3.9330
 3.2190	 3.9560
 3.2210	 3.8580
 3.2230	 3.6250
 3.2250	 3.6990
 3.2270	 3.7970
 3.2290	 3.6190
 3.2310	 3.6710
 3.2330	 3.7510
 3.2350	 3.7990
 3.2370	 4.0440
 3.2390	 3.7850
 3.2410	 3.6790
 3.2430	 3.6210
 3.2450	 3.7340
 3.2470	 3.8140
 3.2490	 3.8270
 3.2510	 3.8220
 3.2530	 3.6120
 3.2550	 3.6830
 3.2570	 3.8620
 3.2590	 3.7100
 3.2610	 3.5450
 3.2630	 3.6740
 3.2650	 3.7810
 3.2670	 3.9820
 3.2690	 3.8760
 3.2720	 3.4700
 3.2740	 3.1850
 3.2760	 3.4270
 3.2780	 3.7320
 3.2800	 3.5390
 3.2820	 3.5390
 3.2840	 3.8880
 3.2860	 3.9210
 3.2880	 3.8380
 3.2900	 3.9640
 3.2920	 3.8890
 3.2940	 3.3520
 3.2960	 3.0900
 3.2990	 3.4950
 3.3010	 3.6800
 3.3030	 3.4050
 3.3050	 3.3000
 3.3070	 3.5350
 3.3090	 3.7670
 3.3110	 3.5380
 3.3130	 3.9890
 3.3150	 3.9950
 3.3180	 3.6430
 3.3200	 4.0220
 3.3220	 3.7340
 3.3240	 3.3890
 3.3260	 3.5470
 3.3280	 3.6160
 3.3300	 3.8170
 3.3330	 3.8470
 3.3350	 3.5640
 3.3370	 3.4450
 3.3390	 3.9050
 3.3410	 4.1130
 3.3430	 4.1580
 3.3450	 4.0550
 3.3480	 3.7990
 3.3500	 3.4920
 3.3520	 3.5470
 3.3540	 3.6880
 3.3560	 3.6560
 3.3580	 3.6320
 3.3610	 3.6600
 3.3630	 3.7130
 3.3650	 3.6270
 3.3670	 3.5040
 3.3690	 3.5510
 3.3720	 3.6090
 3.3740	 3.6370
 3.3760	 3.6210
 3.3780	 3.6950
 3.3800	 3.6730
 3.3830	 3.7280
 3.3850	 3.6570
 3.3870	 3.6250
 3.3890	 3.6100
 3.3910	 3.5330
 3.3940	 3.3270
 3.3960	 3.3300
 3.3980	 3.4480
 3.4000	 3.4870
 3.4020	 3.4850
 3.4050	 3.5770
 3.4070	 3.6790
 3.4090	 3.6960
 3.4110	 3.8350
 3.4140	 3.9940
 3.4160	 4.3260
 3.4180	 4.6650
 3.4200	 5.2430
 3.4230	 6.2570
 3.4250	 7.3050
 3.4270	 8.3330
 3.4290	 9.3110
 3.4320	 9.4840
 3.4340	 8.3860
 3.4360	 7.4520
 3.4390	 6.8610
 3.4410	 6.3310
 3.4430	 5.9600
 3.4450	 5.7030
 3.4480	 5.3970
 3.4500	 5.1010
 3.4520	 5.1290
 3.4550	 5.3780
 3.4570	 5.4140
 3.4590	 5.3220
 3.4620	 5.1500
 3.4640	 5.1390
 3.4660	 5.1320
 3.4680	 5.0700
 3.4710	 5.0380
 3.4730	 5.0240
 3.4750	 5.1060
 3.4780	 4.9690
 3.4800	 4.6970
 3.4820	 4.5850
 3.4850	 4.4590
 3.4870	 4.3490
 3.4890	 4.3310
 3.4920	 4.3470
 3.4940	 4.3650
 3.4970	 4.3820
 3.4990	 4.2670
 3.5010	 4.4090
 3.5040	 4.9270
 3.5060	 5.6920
 3.5080	 7.0610
 3.5110	 8.4230
 3.5130	 8.6630
 3.5160	 7.8720
 3.5180	 6.9050
 3.5200	 6.4460
 3.5230	 6.2030
 3.5250	 5.9660
 3.5270	 5.6730
 3.5300	 5.3980
 3.5320	 5.3160
 3.5350	 5.3570
 3.5370	 5.2780
 3.5400	 5.2110
 3.5420	 5.3150
 3.5440	 5.2920
 3.5470	 5.0970
 3.5490	 4.9730
 3.5520	 4.8500
 3.5540	 5.0050
 3.5570	 5.0320
 3.5590	 4.9650
 3.5610	 4.8120
 3.5640	 4.7770
 3.5660	 4.7400
 3.5690	 4.6880
 3.5710	 4.6400
 3.5740	 4.6780
 3.5760	 4.7710
 3.5790	 4.7620
 3.5810	 4.6590
 3.5840	 4.8550
 3.5860	 4.9980
 3.5890	 4.9400
 3.5910	 4.8400
 3.5930	 4.7270
 3.5960	 4.6330
 3.5980	 4.5450
 3.6010	 4.6040
 3.6030	 4.4930
 3.6060	 4.5000
 3.6080	 4.6130
 3.6110	 4.7310
 3.6140	 4.7010
 3.6160	 4.6920
 3.6190	 4.7000
 3.6210	 4.7920
 3.6240	 4.7890
 3.6260	 4.6520
 3.6290	 4.6780
 3.6310	 4.6420
 3.6340	 4.5900
 3.6360	 4.6350
 3.6390	 4.6720
 3.6410	 4.6900
 3.6440	 4.6810
 3.6470	 4.6470
 3.6490	 4.6290
 3.6520	 4.6140
 3.6540	 4.5240
 3.6570	 4.6270
 3.6590	 4.7610
 3.6620	 4.6130
 3.6650	 4.4430
 3.6670	 4.2990
 3.6700	 4.3360
 3.6720	 4.5960
 3.6750	 4.6420
 3.6780	 4.5060
 3.6800	 4.4590
 3.6830	 4.4540
 3.6850	 4.4210
 3.6880	 4.4290
 3.6910	 4.5800
 3.6930	 4.6090
 3.6960	 4.6050
 3.6990	 4.5700
 3.7010	 4.5330
 3.7040	 4.4510
 3.7060	 4.4340
 3.7090	 4.4830
 3.7120	 4.4870
 3.7140	 4.6020
 3.7170	 4.6760
 3.7200	 4.6580
 3.7220	 4.6740
 3.7250	 4.7400
 3.7280	 4.6270
 3.7300	 4.3510
 3.7330	 4.2650
 3.7360	 4.3650
 3.7390	 4.6450
 3.7410	 4.6040
 3.7440	 4.5520
 3.7470	 4.5960
 3.7490	 4.5220
 3.7520	 4.5690
 3.7550	 4.4800
 3.7580	 4.5170
 3.7600	 4.5870
 3.7630	 4.5180
 3.7660	 4.6700
 3.7680	 4.6410
 3.7710	 4.3950
 3.7740	 4.2940
 3.7770	 4.3810
 3.7790	 4.4430
 3.7820	 4.4240
 3.7850	 4.5110
 3.7880	 4.5420
 3.7900	 4.6010
 3.7930	 4.6830
 3.7960	 4.7290
 3.7990	 4.7750
 3.8020	 4.7510
 3.8040	 4.6660
 3.8070	 4.5590
 3.8100	 4.4730
 3.8130	 4.5480
 3.8160	 4.5700
 3.8180	 4.6890
 3.8210	 4.6180
 3.8240	 4.4550
 3.8270	 4.5790
 3.8300	 4.7010
 3.8330	 4.6120
 3.8350	 4.5450
 3.8380	 4.6610
 3.8410	 4.6480
 3.8440	 4.6210
 3.8470	 4.6600
 3.8500	 4.7070
 3.8520	 4.7720
 3.8550	 4.8840
 3.8580	 4.7400
 3.8610	 4.6350
 3.8640	 4.5700
 3.8670	 4.5710
 3.8700	 4.6580
 3.8730	 4.6690
 3.8750	 4.5740
 3.8780	 4.5290
 3.8810	 4.5800
 3.8840	 4.6160
 3.8870	 4.5380
 3.8900	 4.5720
 3.8930	 4.6380
 3.8960	 4.6510
 3.8990	 4.7670
 3.9020	 4.8050
 3.9050	 4.7950
 3.9080	 4.6420
 3.9110	 4.4760
 3.9140	 4.4680
 3.9160	 4.4900
 3.9190	 4.5710
 3.9220	 4.6480
 3.9250	 4.6310
 3.9280	 4.5480
 3.9310	 4.5140
 3.9340	 4.5070
 3.9370	 4.6050
 3.9400	 4.6660
 3.9430	 4.6930
 3.9460	 4.7190
 3.9490	 4.6780
 3.9520	 4.6880
 3.9550	 4.6340
 3.9580	 4.5620
 3.9610	 4.6200
 3.9640	 4.6240
 3.9670	 4.6160
 3.9700	 4.5630
 3.9730	 4.5850
 3.9770	 4.6060
 3.9800	 4.6560
 3.9830	 4.6620
 3.9860	 4.6290
 3.9890	 4.6100
 3.9920	 4.5970
 3.9950	 4.5820
 3.9980	 4.5600
 4.0010	 4.5890
 4.0040	 4.6120
 4.0070	 4.6170
 4.0100	 4.5990
 4.0130	 4.6300
 4.0170	 4.7200
 4.0200	 4.7260
 4.0230	 4.6450
 4.0260	 4.5500
 4.0290	 4.5250
 4.0320	 4.5800
 4.0350	 4.6060
 4.0380	 4.6110
 4.0420	 4.6310
 4.0450	 4.6930
 4.0480	 4.7040
 4.0510	 4.5940
 4.0540	 4.5940
 4.0570	 4.6520
 4.0610	 4.6340
 4.0640	 4.5310
 4.0670	 4.6270
 4.0700	 4.7880
 4.0730	 4.7000
 4.0770	 4.4570
 4.0800	 4.4490
 4.0830	 4.5050
 4.0860	 4.5750
 4.0890	 4.6810
 4.0930	 4.6950
 4.0960	 4.5600
 4.0990	 4.6730
 4.1020	 4.8840
 4.1060	 4.6970
 4.1090	 4.2900
 4.1120	 4.3630
 4.1150	 4.5400
 4.1190	 4.4830
 4.1220	 4.6360
 4.1250	 4.7120
 4.1280	 4.6830
 4.1320	 4.6070
 4.1350	 4.5510
 4.1380	 4.5410
 4.1420	 4.6010
 4.1450	 4.6240
 4.1480	 4.5900
 4.1520	 4.5340
 4.1550	 4.5340
 4.1580	 4.5760
 4.1620	 4.6500
 4.1650	 4.5970
 4.1680	 4.5180
 4.1720	 4.5290
 4.1750	 4.5500
 4.1780	 4.5970
 4.1820	 4.5710
 4.1850	 4.5220
 4.1890	 4.5150
 4.1920	 4.6040
 4.1950	 4.6160
 4.1990	 4.5060
 4.2020	 4.5290
 4.2060	 4.5920
 4.2090	 4.4960
 4.2120	 4.4570
 4.2160	 4.5990
 4.2190	 4.6220
 4.2230	 4.6810
 4.2260	 4.8210
 4.2300	 4.4010
 4.2330	 3.9140
 4.2360	 4.4370
 4.2400	 4.8820
 4.2430	 4.7320
 4.2470	 4.8660
 4.2500	 4.6600
 4.2540	 4.4860
 4.2570	 4.4320
 4.2610	 4.6400
 4.2640	 4.7690
 4.2680	 4.7560
 4.2710	 4.6130
 4.2750	 4.3520
 4.2780	 4.3220
 4.2820	 4.3580
 4.2850	 4.4220
 4.2890	 4.3940
 4.2930	 4.3300
 4.2960	 4.4160
 4.3000	 4.5260
 4.3030	 4.5390
 4.3070	 4.4850
 4.3100	 4.3340
 4.3140	 4.2420
 4.3180	 4.2780
 4.3210	 4.3260
 4.3250	 4.3990
 4.3280	 4.4760
 4.3320	 4.4850
 4.3360	 4.3780
 4.3390	 4.3020
 4.3430	 4.3510
 4.3470	 4.4460
 4.3500	 4.5160
 4.3540	 4.5210
 4.3570	 4.3860
 4.3610	 4.2770
 4.3650	 4.4200
 4.3680	 4.5050
 4.3720	 4.4240
 4.3760	 4.3460
 4.3800	 4.3580
 4.3830	 4.3290
 4.3870	 4.3760
 4.3910	 4.4890
 4.3940	 4.4090
 4.3980	 4.3530
 4.4020	 4.5340
 4.4060	 4.5410
 4.4090	 4.4440
 4.4130	 4.3910
 4.4170	 4.4030
 4.4210	 4.4040
 4.4240	 4.4360
 4.4280	 4.4380
 4.4320	 4.4590
 4.4360	 4.3740
 4.4400	 4.3030
 4.4430	 4.3250
 4.4470	 4.3420
 4.4510	 4.3130
 4.4550	 4.3750
 4.4590	 4.3720
 4.4620	 4.2890
 4.4660	 4.2390
 4.4700	 4.2670
 4.4740	 4.2840
 4.4780	 4.2680
 4.4820	 4.2220
 4.4860	 4.2560
 4.4900	 4.3240
 4.4930	 4.2670
 4.4970	 4.2230
 4.5010	 4.3680
 4.5050	 4.4140
 4.5090	 4.3590
 4.5130	 4.3190
 4.5170	 4.2890
 4.5210	 4.2420
 4.5250	 4.1460
 4.5290	 4.1440
 4.5330	 4.1710
 4.5370	 4.2150
 4.5410	 4.2370
 4.5450	 4.2590
 4.5490	 4.3210
 4.5530	 4.3080
 4.5570	 4.2390
 4.5610	 4.1900
 4.5650	 4.2140
 4.5690	 4.2390
 4.5730	 4.2470
 4.5770	 4.2290
 4.5810	 4.1370
 4.5850	 4.0780
 4.5890	 4.0870
 4.5930	 4.1210
 4.5970	 4.1560
 4.6010	 4.2250
 4.6050	 4.3070
 4.6090	 4.2470
 4.6130	 4.3040
 4.6170	 4.2060
 4.6220	 3.9870
 4.6260	 3.9670
 4.6300	 4.0050
 4.6340	 4.1610
 4.6380	 4.2630
 4.6420	 4.2970
 4.6460	 4.2590
 4.6510	 4.2170
 4.6550	 4.2040
 4.6590	 4.2090
 4.6630	 4.2680
 4.6670	 4.2910
 4.6720	 4.2470
 4.6760	 4.1340
 4.6800	 4.1120
 4.6840	 4.1610
 4.6880	 4.2040
 4.6930	 4.1600
 4.6970	 4.1590
 4.7010	 4.1410
 4.7050	 4.1790
 4.7100	 4.2100
 4.7140	 4.1240
 4.7180	 4.0670
 4.7230	 4.1540
 4.7270	 4.1470
 4.7310	 4.0580
 4.7360	 4.0050
 4.7400	 4.0610
 4.7440	 4.1030
 4.7490	 4.0840
 4.7530	 4.0480
 4.7570	 4.0260
 4.7620	 4.0050
 4.7660	 4.0850
 4.7700	 4.0540
 4.7750	 4.0190
 4.7790	 4.0340
 4.7840	 3.9890
 4.7880	 4.1440
 4.7920	 4.3720
 4.7970	 4.2120
 4.8010	 3.9910
 4.8060	 4.1240
 4.8100	 4.2090
 4.8150	 4.1260
 4.8190	 4.0730
 4.8240	 3.9880
 4.8280	 4.0720
 4.8330	 4.0550
 4.8370	 4.0140
 4.8420	 4.1360
 4.8460	 4.2580
 4.8510	 4.2260
 4.8550	 4.2000
 4.8600	 4.1760
 4.8640	 4.1680
 4.8690	 4.1030
 4.8730	 4.1270
 4.8780	 4.2070
 4.8830	 4.2300
 4.8870	 4.0860
 4.8920	 4.0630
 4.8960	 4.1020
 4.9010	 4.1310
 4.9060	 4.1770
 4.9100	 4.1940
 4.9150	 4.1520
 4.9200	 4.2190
 4.9240	 4.2670
 4.9290	 4.3140
 4.9340	 4.2380
 4.9380	 4.1060
 4.9430	 4.1390
 4.9480	 4.2240
 4.9530	 4.1640
 4.9570	 4.1880
 4.9620	 4.1320
 4.9670	 4.0490
 4.9720	 4.0240
 4.9760	 4.1360
 4.9810	 4.1950
 4.9860	 4.1500
 4.9910	 4.1090
 4.9960	 4.1200
 5.0000	 4.0320
 5.0050	 4.0050
 5.0100	 4.0640
 5.0150	 4.1720
 5.0200	 4.1740
 5.0250	 4.2380
 5.0290	 4.2680
 5.0340	 4.2120
 5.0390	 4.0680
 5.0440	 3.9920
 5.0490	 3.9780
 5.0540	 4.0560
 5.0590	 4.0260
 5.0640	 4.0820
 5.0690	 4.1370
 5.0740	 4.0370
 5.0790	 4.0480
 5.0840	 4.1760
 5.0890	 4.1560
 5.0940	 4.1520
 5.0990	 4.1740
 5.1040	 4.1980
 5.1090	 4.1350
 5.1140	 4.1800
 5.1190	 4.1690
 5.1240	 4.1990
 5.1290	 4.1990
 5.1340	 4.2070
 5.1390	 4.1080
 5.1440	 4.0630
 5.1490	 4.0400
 5.1540	 4.1650
 5.1600	 4.1590
 5.1650	 4.1280
 5.1700	 4.0830
 5.1750	 4.1330
 5.1800	 4.1670
 5.1850	 4.1430
 5.1910	 4.0980
 5.1960	 4.2080
 5.2010	 4.2000
 5.2060	 4.1440
 5.2110	 4.0450
 5.2170	 3.9820
 5.2220	 4.0390
 5.2270	 4.1390
 5.2320	 4.0470
 5.2380	 4.1260
 5.2430	 4.1830
 5.2480	 4.0740
 5.2540	 3.9860
 5.2590	 4.0460
 5.2640	 4.0780
 5.2700	 4.1480
 5.2750	 4.0980
 5.2800	 4.0650
 5.2860	 4.0330
 5.2910	 4.0850
 5.2970	 4.0440
 5.3020	 4.0300
 5.3070	 4.0250
 5.3130	 4.0760
 5.3180	 3.9690
 5.3240	 3.9070
 5.3290	 3.9540
 5.3350	 4.0000
 5.3400	 3.9630
 5.3460	 3.9600
 5.3510	 3.9330
 5.3570	 3.9630
 5.3620	 3.9910
 5.3680	 4.0330
 5.3730	 3.9920
 5.3790	 3.9370
 5.3850	 3.8460
 5.3900	 3.9310
 5.3960	 4.0070
 5.4010	 3.9910
 5.4070	 3.9110
 5.4130	 3.8860
 5.4180	 3.8490
 5.4240	 3.9010
 5.4300	 3.9190
