Name: Ceanothus spinosus 1
Type: vegetation
Class: Shrub
Genus: Ceanothus
Species: spinosus
Sample No.: VH200
Owner: UCSB
Wavelength Range: TIR
Origin: 34.4906; -119.7908; WGS84
Collection Date: 10/13/2013
Description: Samples were collected as part of the HyspIRI Airborne Campaign. 48 individual plants were sampled in three times in 2013 - spring  summer  and fall. The name of the sample includes a 1  2  or 3 which references a different individual of the species. Samples were taken to JPL and processed within 48 hours of collection. The same leaves were processed in the Nicolet and then measured using the ASD.
Measurement: Hemispherical reflectance
First Column: X
Second Column: Y
X Units: Wavelength (micrometers)
Y Units: Reflectance (percentage)
First X Value: 2.501
Last X Value: 15.387
Number of X Values: 1737
Additional Information: vegetation.shrub.ceanothus.spinosus.tir.vh200.ucsb.nicolet.ancillary.txt

 2.5010	 8.8210
 2.5030	 8.9730
 2.5040	 8.9570
 2.5050	 8.7960
 2.5060	 8.9570
 2.5070	 9.0430
 2.5090	 8.7600
 2.5100	 8.5340
 2.5110	 8.5470
 2.5120	 8.5820
 2.5140	 8.7520
 2.5150	 8.7640
 2.5160	 8.7480
 2.5170	 8.5950
 2.5180	 8.5260
 2.5200	 8.4500
 2.5210	 8.4590
 2.5220	 8.5370
 2.5230	 8.5430
 2.5250	 8.6110
 2.5260	 8.7070
 2.5270	 8.6000
 2.5280	 8.5740
 2.5290	 8.5780
 2.5310	 8.4900
 2.5320	 8.2850
 2.5330	 8.3510
 2.5340	 8.3750
 2.5360	 8.3670
 2.5370	 8.5510
 2.5380	 8.8300
 2.5390	 8.7440
 2.5410	 8.5320
 2.5420	 8.3680
 2.5430	 8.4610
 2.5440	 8.6340
 2.5460	 8.6750
 2.5470	 8.8540
 2.5480	 8.7510
 2.5490	 8.3960
 2.5510	 8.3140
 2.5520	 8.2980
 2.5530	 8.4240
 2.5540	 8.4570
 2.5560	 8.4560
 2.5570	 8.4280
 2.5580	 8.4650
 2.5590	 8.3910
 2.5610	 8.4590
 2.5620	 8.6070
 2.5630	 8.7000
 2.5640	 8.7650
 2.5660	 8.6900
 2.5670	 8.5250
 2.5680	 8.5690
 2.5700	 8.5590
 2.5710	 8.6710
 2.5720	 8.6080
 2.5730	 8.5530
 2.5750	 8.7830
 2.5760	 8.9310
 2.5770	 8.6140
 2.5790	 8.4500
 2.5800	 8.5040
 2.5810	 8.4750
 2.5820	 8.5880
 2.5840	 8.7860
 2.5850	 8.5330
 2.5860	 8.4310
 2.5880	 8.5070
 2.5890	 8.6110
 2.5900	 8.5700
 2.5910	 8.5160
 2.5930	 8.5450
 2.5940	 8.5300
 2.5950	 8.2240
 2.5970	 8.2810
 2.5980	 8.5190
 2.5990	 8.5850
 2.6000	 8.5400
 2.6020	 8.4660
 2.6030	 8.2890
 2.6040	 8.2330
 2.6060	 8.2210
 2.6070	 8.1750
 2.6080	 8.0870
 2.6100	 8.1160
 2.6110	 8.1660
 2.6120	 8.1640
 2.6140	 8.1600
 2.6150	 8.1150
 2.6160	 7.9770
 2.6180	 7.9460
 2.6190	 7.9610
 2.6200	 7.7350
 2.6220	 7.7220
 2.6230	 8.1140
 2.6240	 7.9780
 2.6260	 7.7180
 2.6270	 7.7020
 2.6280	 7.6730
 2.6300	 7.4950
 2.6310	 7.5410
 2.6320	 7.3400
 2.6340	 7.2890
 2.6350	 7.5110
 2.6360	 7.5140
 2.6380	 7.4220
 2.6390	 7.4070
 2.6400	 7.3570
 2.6420	 7.4960
 2.6430	 7.4560
 2.6440	 7.2890
 2.6460	 7.1180
 2.6470	 7.1880
 2.6480	 7.2640
 2.6500	 7.3830
 2.6510	 7.1250
 2.6520	 6.9270
 2.6540	 6.9360
 2.6550	 6.8910
 2.6560	 6.7910
 2.6580	 6.9190
 2.6590	 6.9840
 2.6610	 7.0200
 2.6620	 6.6770
 2.6630	 6.5420
 2.6650	 6.5360
 2.6660	 6.5880
 2.6670	 6.5950
 2.6690	 6.5440
 2.6700	 6.4610
 2.6720	 6.5680
 2.6730	 6.6590
 2.6740	 6.6210
 2.6760	 6.3760
 2.6770	 6.2420
 2.6780	 6.1720
 2.6800	 6.2080
 2.6810	 6.2510
 2.6830	 6.3250
 2.6840	 6.3670
 2.6850	 6.3870
 2.6870	 6.0790
 2.6880	 5.8600
 2.6900	 5.8590
 2.6910	 6.1180
 2.6920	 6.0150
 2.6940	 6.0050
 2.6950	 6.1520
 2.6970	 6.2090
 2.6980	 6.0080
 2.6990	 5.9850
 2.7010	 5.8480
 2.7020	 5.6340
 2.7040	 5.6820
 2.7050	 5.8490
 2.7060	 5.8180
 2.7080	 5.7970
 2.7090	 5.6770
 2.7110	 5.7690
 2.7120	 5.8060
 2.7130	 5.9010
 2.7150	 5.8080
 2.7160	 5.7270
 2.7180	 5.5560
 2.7190	 5.5140
 2.7210	 5.4960
 2.7220	 5.7230
 2.7230	 5.6010
 2.7250	 5.5130
 2.7260	 5.4900
 2.7280	 5.6160
 2.7290	 5.8160
 2.7310	 5.8530
 2.7320	 5.8430
 2.7330	 6.0010
 2.7350	 5.8760
 2.7360	 5.6030
 2.7380	 5.4310
 2.7390	 5.2540
 2.7410	 5.0720
 2.7420	 5.5780
 2.7440	 6.1080
 2.7450	 6.2440
 2.7470	 6.1810
 2.7480	 6.5670
 2.7490	 6.5530
 2.7510	 6.3410
 2.7520	 6.0360
 2.7540	 5.5280
 2.7550	 5.1710
 2.7570	 5.2600
 2.7580	 5.8380
 2.7600	 6.1780
 2.7610	 6.1260
 2.7630	 6.1420
 2.7640	 6.2500
 2.7660	 6.0930
 2.7670	 6.1780
 2.7680	 6.0430
 2.7700	 5.5040
 2.7710	 5.5030
 2.7730	 5.5370
 2.7740	 5.3900
 2.7760	 5.1740
 2.7770	 5.3660
 2.7790	 5.5580
 2.7800	 5.3290
 2.7820	 5.0330
 2.7830	 5.1870
 2.7850	 5.2940
 2.7860	 5.4620
 2.7880	 5.7750
 2.7890	 5.8390
 2.7910	 5.7470
 2.7920	 5.7980
 2.7940	 5.6620
 2.7950	 5.6640
 2.7970	 5.7920
 2.7980	 5.8700
 2.8000	 5.7270
 2.8010	 5.6210
 2.8030	 5.6280
 2.8040	 5.6880
 2.8060	 5.7040
 2.8070	 5.8180
 2.8090	 5.8760
 2.8110	 5.9560
 2.8120	 5.8120
 2.8140	 5.7290
 2.8150	 5.6620
 2.8170	 5.7880
 2.8180	 5.8890
 2.8200	 5.8480
 2.8210	 5.8420
 2.8230	 6.0150
 2.8240	 6.0640
 2.8260	 6.1710
 2.8270	 6.2330
 2.8290	 6.0760
 2.8300	 5.7750
 2.8320	 5.7040
 2.8340	 5.8350
 2.8350	 6.0870
 2.8370	 5.8730
 2.8380	 5.7540
 2.8400	 5.6350
 2.8410	 5.7070
 2.8430	 5.6300
 2.8440	 5.5600
 2.8460	 5.4690
 2.8480	 5.7020
 2.8490	 5.8190
 2.8510	 5.8960
 2.8520	 5.8710
 2.8540	 5.8680
 2.8550	 5.8460
 2.8570	 5.9330
 2.8590	 5.6980
 2.8600	 5.6110
 2.8620	 5.6600
 2.8630	 5.8230
 2.8650	 5.8390
 2.8660	 5.6280
 2.8680	 5.6220
 2.8700	 5.9750
 2.8710	 6.1640
 2.8730	 6.2720
 2.8740	 6.0600
 2.8760	 5.8210
 2.8780	 5.6580
 2.8790	 5.9010
 2.8810	 6.0790
 2.8820	 5.9760
 2.8840	 5.7490
 2.8860	 6.1610
 2.8870	 6.4010
 2.8890	 6.3940
 2.8900	 6.3370
 2.8920	 6.1340
 2.8940	 5.7450
 2.8950	 5.5460
 2.8970	 5.8040
 2.8980	 5.8500
 2.9000	 5.6150
 2.9020	 5.8330
 2.9030	 6.1120
 2.9050	 6.5400
 2.9070	 6.1400
 2.9080	 5.6530
 2.9100	 5.5930
 2.9120	 5.6500
 2.9130	 5.8890
 2.9150	 5.9860
 2.9160	 5.8390
 2.9180	 5.9450
 2.9200	 5.9900
 2.9210	 6.1390
 2.9230	 6.1020
 2.9250	 5.9470
 2.9260	 5.7610
 2.9280	 5.7390
 2.9300	 5.5880
 2.9310	 5.7850
 2.9330	 6.1080
 2.9350	 6.1690
 2.9360	 5.9480
 2.9380	 6.0280
 2.9400	 6.1630
 2.9410	 6.5030
 2.9430	 6.7100
 2.9450	 6.8610
 2.9460	 6.9110
 2.9480	 6.7670
 2.9500	 6.2330
 2.9510	 5.7400
 2.9530	 5.9350
 2.9550	 6.1760
 2.9560	 5.5370
 2.9580	 5.6290
 2.9600	 5.3260
 2.9610	 5.5730
 2.9630	 6.6490
 2.9650	 6.4610
 2.9660	 5.2360
 2.9680	 5.1720
 2.9700	 7.2860
 2.9720	 7.9680
 2.9730	 5.3390
 2.9750	 2.5950
 2.9770	 4.1050
 2.9780	 6.6770
 2.9800	 7.1080
 2.9820	 6.7050
 2.9840	 6.9030
 2.9850	 7.2100
 2.9870	 6.3870
 2.9890	 4.4900
 2.9900	 4.4630
 2.9920	 5.8470
 2.9940	 6.0780
 2.9960	 5.0290
 2.9970	 6.1210
 2.9990	 6.2900
 3.0010	 5.5790
 3.0030	 7.5900
 3.0040	 8.1260
 3.0060	 7.9520
 3.0080	 7.4910
 3.0100	 6.5600
 3.0110	 6.4660
 3.0130	 7.9620
 3.0150	 7.7930
 3.0170	 6.5210
 3.0180	 6.8570
 3.0200	 7.1360
 3.0220	 6.5490
 3.0240	 6.4700
 3.0250	 5.8990
 3.0270	 6.0480
 3.0290	 7.2620
 3.0310	 7.9640
 3.0320	 6.5600
 3.0340	 6.8450
 3.0360	 7.8150
 3.0380	 6.8430
 3.0400	 7.0560
 3.0410	 8.0720
 3.0430	 7.3200
 3.0450	 8.5320
 3.0470	 7.6220
 3.0480	 4.2100
 3.0500	 2.3690
 3.0520	 3.4720
 3.0540	 4.9430
 3.0560	 4.7150
 3.0570	 4.5790
 3.0590	 6.1750
 3.0610	 6.5320
 3.0630	 5.4860
 3.0650	 5.5100
 3.0660	 6.8700
 3.0680	 6.9680
 3.0700	 6.5670
 3.0720	 6.5680
 3.0740	 5.3010
 3.0760	 4.9060
 3.0770	 5.2570
 3.0790	 5.5860
 3.0810	 6.0930
 3.0830	 6.3610
 3.0850	 6.5170
 3.0870	 6.3300
 3.0880	 5.8970
 3.0900	 5.6910
 3.0920	 5.9420
 3.0940	 5.7220
 3.0960	 5.8200
 3.0980	 6.2090
 3.0990	 6.5800
 3.1010	 6.5950
 3.1030	 6.6790
 3.1050	 6.4810
 3.1070	 5.9910
 3.1090	 5.7810
 3.1110	 5.9180
 3.1120	 5.9480
 3.1140	 5.9720
 3.1160	 6.0420
 3.1180	 6.0710
 3.1200	 6.3820
 3.1220	 6.2400
 3.1240	 5.9680
 3.1260	 6.2970
 3.1270	 6.2230
 3.1290	 6.0510
 3.1310	 6.1060
 3.1330	 6.2590
 3.1350	 6.7440
 3.1370	 6.3750
 3.1390	 5.7370
 3.1410	 5.4870
 3.1430	 4.8830
 3.1450	 5.3540
 3.1460	 6.1650
 3.1480	 5.5230
 3.1500	 5.1150
 3.1520	 6.3420
 3.1540	 7.6130
 3.1560	 5.6180
 3.1580	 4.5770
 3.1600	 5.3160
 3.1620	 3.8510
 3.1640	 5.3940
 3.1660	 7.1140
 3.1680	 6.2140
 3.1700	 5.8350
 3.1710	 3.1650
 3.1730	 2.9600
 3.1750	 4.8330
 3.1770	 5.0180
 3.1790	 4.9610
 3.1810	 5.0670
 3.1830	 5.4260
 3.1850	 5.9420
 3.1870	 5.6910
 3.1890	 5.3910
 3.1910	 5.8100
 3.1930	 5.9720
 3.1950	 6.0450
 3.1970	 5.7710
 3.1990	 5.5920
 3.2010	 5.8660
 3.2030	 6.1400
 3.2050	 6.1220
 3.2070	 6.0390
 3.2090	 6.0020
 3.2110	 6.0630
 3.2130	 6.2210
 3.2150	 6.1050
 3.2170	 5.8620
 3.2190	 5.8370
 3.2210	 6.0360
 3.2230	 6.0970
 3.2250	 6.0920
 3.2270	 5.9770
 3.2290	 5.8190
 3.2310	 5.8510
 3.2330	 5.9650
 3.2350	 5.9160
 3.2370	 5.9630
 3.2390	 6.1330
 3.2410	 5.9360
 3.2430	 5.9060
 3.2450	 5.8020
 3.2470	 5.5600
 3.2490	 5.7510
 3.2510	 6.0910
 3.2530	 5.7230
 3.2550	 5.6410
 3.2570	 5.6510
 3.2590	 5.9290
 3.2610	 6.4450
 3.2630	 6.0140
 3.2650	 5.9140
 3.2670	 5.8350
 3.2690	 5.5080
 3.2720	 5.7240
 3.2740	 5.6560
 3.2760	 5.7140
 3.2780	 5.8360
 3.2800	 5.9290
 3.2820	 6.0600
 3.2840	 6.2610
 3.2860	 6.1190
 3.2880	 6.0060
 3.2900	 5.8380
 3.2920	 5.7460
 3.2940	 5.7080
 3.2960	 6.0670
 3.2990	 6.2600
 3.3010	 5.9860
 3.3030	 5.6050
 3.3050	 5.8250
 3.3070	 6.0520
 3.3090	 5.8830
 3.3110	 5.6030
 3.3130	 5.5090
 3.3150	 5.6240
 3.3180	 5.4160
 3.3200	 5.2650
 3.3220	 5.6560
 3.3240	 5.8510
 3.3260	 5.8340
 3.3280	 5.7470
 3.3300	 5.8190
 3.3330	 5.8020
 3.3350	 5.8640
 3.3370	 5.8990
 3.3390	 6.0840
 3.3410	 5.9840
 3.3430	 5.5200
 3.3450	 5.2670
 3.3480	 5.4150
 3.3500	 5.6750
 3.3520	 5.6720
 3.3540	 5.4760
 3.3560	 5.3290
 3.3580	 5.2230
 3.3610	 5.3520
 3.3630	 5.4250
 3.3650	 5.3430
 3.3670	 5.3480
 3.3690	 5.3990
 3.3720	 5.4510
 3.3740	 5.3580
 3.3760	 5.1900
 3.3780	 5.2870
 3.3800	 5.3910
 3.3830	 5.3140
 3.3850	 5.3960
 3.3870	 5.4310
 3.3890	 5.3100
 3.3910	 5.2390
 3.3940	 5.2930
 3.3960	 5.1430
 3.3980	 4.9920
 3.4000	 5.1060
 3.4020	 5.1900
 3.4050	 5.1620
 3.4070	 5.2580
 3.4090	 5.4720
 3.4110	 5.5060
 3.4140	 5.7400
 3.4160	 6.1040
 3.4180	 6.5350
 3.4200	 6.9890
 3.4230	 7.6220
 3.4250	 8.4730
 3.4270	 9.2510
 3.4290	 9.4360
 3.4320	 9.0290
 3.4340	 8.3260
 3.4360	 7.9840
 3.4390	 7.6390
 3.4410	 7.4760
 3.4430	 7.2860
 3.4450	 7.1180
 3.4480	 7.1800
 3.4500	 7.3090
 3.4520	 7.0210
 3.4550	 6.7670
 3.4570	 6.5180
 3.4590	 6.6310
 3.4620	 6.8280
 3.4640	 6.6910
 3.4660	 6.4710
 3.4680	 6.3870
 3.4710	 6.3380
 3.4730	 6.4400
 3.4750	 6.3880
 3.4780	 6.3380
 3.4800	 6.3350
 3.4820	 6.4050
 3.4850	 6.1690
 3.4870	 6.0220
 3.4890	 6.0520
 3.4920	 5.9970
 3.4940	 5.9310
 3.4970	 6.1430
 3.4990	 6.2880
 3.5010	 6.3420
 3.5040	 6.5090
 3.5060	 6.9620
 3.5080	 7.8310
 3.5110	 8.8490
 3.5130	 8.7960
 3.5160	 8.3060
 3.5180	 7.8500
 3.5200	 7.5300
 3.5230	 7.1970
 3.5250	 6.9220
 3.5270	 6.8720
 3.5300	 6.8720
 3.5320	 6.7870
 3.5350	 6.7270
 3.5370	 6.7080
 3.5400	 6.6410
 3.5420	 6.5900
 3.5440	 6.6950
 3.5470	 6.5440
 3.5490	 6.3490
 3.5520	 6.5540
 3.5540	 6.6980
 3.5570	 6.6220
 3.5590	 6.5890
 3.5610	 6.4970
 3.5640	 6.5530
 3.5660	 6.5770
 3.5690	 6.5150
 3.5710	 6.3530
 3.5740	 6.1710
 3.5760	 6.1950
 3.5790	 6.3700
 3.5810	 6.4130
 3.5840	 6.4390
 3.5860	 6.4620
 3.5890	 6.4250
 3.5910	 6.1420
 3.5930	 6.1860
 3.5960	 6.3540
 3.5980	 6.5660
 3.6010	 6.6030
 3.6030	 6.1950
 3.6060	 6.1300
 3.6080	 6.3110
 3.6110	 6.3640
 3.6140	 6.3980
 3.6160	 6.4830
 3.6190	 6.4170
 3.6210	 6.1930
 3.6240	 6.1660
 3.6260	 6.2070
 3.6290	 6.2350
 3.6310	 6.1340
 3.6340	 6.0590
 3.6360	 6.0630
 3.6390	 6.1320
 3.6410	 6.1300
 3.6440	 6.1840
 3.6470	 6.2380
 3.6490	 6.1870
 3.6520	 6.2480
 3.6540	 6.3850
 3.6570	 6.3250
 3.6590	 6.2810
 3.6620	 6.1370
 3.6650	 6.1420
 3.6670	 6.2200
 3.6700	 6.1360
 3.6720	 6.0890
 3.6750	 6.2440
 3.6780	 6.2700
 3.6800	 6.1500
 3.6830	 6.1410
 3.6850	 6.3180
 3.6880	 6.3230
 3.6910	 6.2290
 3.6930	 6.2210
 3.6960	 6.3030
 3.6990	 6.2660
 3.7010	 6.2610
 3.7040	 6.2680
 3.7060	 6.2220
 3.7090	 6.2460
 3.7120	 6.2930
 3.7140	 6.2610
 3.7170	 6.1700
 3.7200	 6.0830
 3.7220	 6.1430
 3.7250	 6.1020
 3.7280	 5.9700
 3.7300	 5.9190
 3.7330	 6.1700
 3.7360	 6.2720
 3.7390	 6.1730
 3.7410	 6.3000
 3.7440	 6.3600
 3.7470	 6.1840
 3.7490	 6.2070
 3.7520	 6.1150
 3.7550	 6.1060
 3.7580	 6.1080
 3.7600	 6.1810
 3.7630	 6.2640
 3.7660	 6.3460
 3.7680	 6.3590
 3.7710	 6.2990
 3.7740	 6.2740
 3.7770	 6.2680
 3.7790	 6.1740
 3.7820	 6.0990
 3.7850	 6.1890
 3.7880	 6.3300
 3.7900	 6.2800
 3.7930	 6.1450
 3.7960	 6.1580
 3.7990	 6.3160
 3.8020	 6.2540
 3.8040	 6.1650
 3.8070	 6.1570
 3.8100	 6.2320
 3.8130	 6.1820
 3.8160	 6.1810
 3.8180	 6.3070
 3.8210	 6.3680
 3.8240	 6.1370
 3.8270	 6.1540
 3.8300	 6.4020
 3.8330	 6.4500
 3.8350	 6.4600
 3.8380	 6.3500
 3.8410	 6.2150
 3.8440	 6.2890
 3.8470	 6.2300
 3.8500	 6.2370
 3.8520	 6.2730
 3.8550	 6.2410
 3.8580	 6.3460
 3.8610	 6.3680
 3.8640	 6.3410
 3.8670	 6.2260
 3.8700	 6.1310
 3.8730	 6.2130
 3.8750	 6.3200
 3.8780	 6.2710
 3.8810	 6.1810
 3.8840	 6.3090
 3.8870	 6.2640
 3.8900	 6.1690
 3.8930	 6.3330
 3.8960	 6.4020
 3.8990	 6.3510
 3.9020	 6.3590
 3.9050	 6.2760
 3.9080	 6.1790
 3.9110	 6.1790
 3.9140	 6.3190
 3.9160	 6.3070
 3.9190	 6.3110
 3.9220	 6.3080
 3.9250	 6.3320
 3.9280	 6.3190
 3.9310	 6.3020
 3.9340	 6.3420
 3.9370	 6.3260
 3.9400	 6.3970
 3.9430	 6.4440
 3.9460	 6.4240
 3.9490	 6.4680
 3.9520	 6.3860
 3.9550	 6.2350
 3.9580	 6.2150
 3.9610	 6.2600
 3.9640	 6.3120
 3.9670	 6.4370
 3.9700	 6.4640
 3.9730	 6.4120
 3.9770	 6.4200
 3.9800	 6.4390
 3.9830	 6.5010
 3.9860	 6.5320
 3.9890	 6.5270
 3.9920	 6.4910
 3.9950	 6.4100
 3.9980	 6.4670
 4.0010	 6.4320
 4.0040	 6.3780
 4.0070	 6.3780
 4.0100	 6.3640
 4.0130	 6.3410
 4.0170	 6.3820
 4.0200	 6.4090
 4.0230	 6.4090
 4.0260	 6.4070
 4.0290	 6.4520
 4.0320	 6.4520
 4.0350	 6.4750
 4.0380	 6.4150
 4.0420	 6.3400
 4.0450	 6.3600
 4.0480	 6.3110
 4.0510	 6.3680
 4.0540	 6.5790
 4.0570	 6.5340
 4.0610	 6.4310
 4.0640	 6.3450
 4.0670	 6.4240
 4.0700	 6.5320
 4.0730	 6.4570
 4.0770	 6.3860
 4.0800	 6.4050
 4.0830	 6.4770
 4.0860	 6.4380
 4.0890	 6.4370
 4.0930	 6.5320
 4.0960	 6.5850
 4.0990	 6.4240
 4.1020	 6.3440
 4.1060	 6.4830
 4.1090	 6.5870
 4.1120	 6.6750
 4.1150	 6.5720
 4.1190	 6.4390
 4.1220	 6.4560
 4.1250	 6.5430
 4.1280	 6.5430
 4.1320	 6.6810
 4.1350	 6.6920
 4.1380	 6.5970
 4.1420	 6.5700
 4.1450	 6.5140
 4.1480	 6.4570
 4.1520	 6.5400
 4.1550	 6.6120
 4.1580	 6.5230
 4.1620	 6.4800
 4.1650	 6.4880
 4.1680	 6.5340
 4.1720	 6.5490
 4.1750	 6.5940
 4.1780	 6.6320
 4.1820	 6.5940
 4.1850	 6.5020
 4.1890	 6.3780
 4.1920	 6.4850
 4.1950	 6.4640
 4.1990	 6.4410
 4.2020	 6.3610
 4.2060	 6.1460
 4.2090	 6.1510
 4.2120	 6.2420
 4.2160	 6.1580
 4.2190	 6.0990
 4.2230	 6.0900
 4.2260	 5.9150
 4.2300	 5.8470
 4.2330	 5.9590
 4.2360	 6.0140
 4.2400	 5.9470
 4.2430	 5.8310
 4.2470	 5.8800
 4.2500	 6.1620
 4.2540	 6.0910
 4.2570	 6.0510
 4.2610	 6.2260
 4.2640	 6.6070
 4.2680	 6.5840
 4.2710	 6.1680
 4.2750	 6.2920
 4.2780	 6.3360
 4.2820	 6.0970
 4.2850	 6.0500
 4.2890	 5.9770
 4.2930	 6.1080
 4.2960	 6.4140
 4.3000	 6.6550
 4.3030	 6.4580
 4.3070	 6.2930
 4.3100	 6.2440
 4.3140	 6.1930
 4.3180	 6.2080
 4.3210	 6.2990
 4.3250	 6.3460
 4.3280	 6.3970
 4.3320	 6.3850
 4.3360	 6.5170
 4.3390	 6.5600
 4.3430	 6.3340
 4.3470	 6.2750
 4.3500	 6.3660
 4.3540	 6.3390
 4.3570	 6.4000
 4.3610	 6.4050
 4.3650	 6.3810
 4.3680	 6.3890
 4.3720	 6.3630
 4.3760	 6.3030
 4.3800	 6.2540
 4.3830	 6.3270
 4.3870	 6.4320
 4.3910	 6.5200
 4.3940	 6.5480
 4.3980	 6.4910
 4.4020	 6.4030
 4.4060	 6.3580
 4.4090	 6.3780
 4.4130	 6.3730
 4.4170	 6.4610
 4.4210	 6.4110
 4.4240	 6.3820
 4.4280	 6.4220
 4.4320	 6.3760
 4.4360	 6.3080
 4.4400	 6.3960
 4.4430	 6.4380
 4.4470	 6.4400
 4.4510	 6.4270
 4.4550	 6.4180
 4.4590	 6.3680
 4.4620	 6.3190
 4.4660	 6.3560
 4.4700	 6.3990
 4.4740	 6.3840
 4.4780	 6.3050
 4.4820	 6.3310
 4.4860	 6.3880
 4.4900	 6.3760
 4.4930	 6.3800
 4.4970	 6.3510
 4.5010	 6.3010
 4.5050	 6.3040
 4.5090	 6.2960
 4.5130	 6.2780
 4.5170	 6.3350
 4.5210	 6.3340
 4.5250	 6.2600
 4.5290	 6.2080
 4.5330	 6.1940
 4.5370	 6.2890
 4.5410	 6.3750
 4.5450	 6.3380
 4.5490	 6.2560
 4.5530	 6.2620
 4.5570	 6.2360
 4.5610	 6.1960
 4.5650	 6.2830
 4.5690	 6.3210
 4.5730	 6.3020
 4.5770	 6.2170
 4.5810	 6.1360
 4.5850	 6.1620
 4.5890	 6.1860
 4.5930	 6.2090
 4.5970	 6.2570
 4.6010	 6.3450
 4.6050	 6.4120
 4.6090	 6.5890
 4.6130	 6.7310
 4.6170	 6.3190
 4.6220	 5.8970
 4.6260	 6.0780
 4.6300	 6.4270
 4.6340	 6.2170
 4.6380	 6.0650
 4.6420	 6.0520
 4.6460	 6.2330
 4.6510	 6.3510
 4.6550	 6.2780
 4.6590	 6.1840
 4.6630	 6.2030
 4.6670	 6.3000
 4.6720	 6.2580
 4.6760	 6.1650
 4.6800	 6.1140
 4.6840	 6.1660
 4.6880	 6.1180
 4.6930	 6.0710
 4.6970	 6.1850
 4.7010	 6.2530
 4.7050	 6.1270
 4.7100	 6.0140
 4.7140	 6.1440
 4.7180	 6.2220
 4.7230	 6.2450
 4.7270	 6.2670
 4.7310	 6.2510
 4.7360	 6.1720
 4.7400	 6.1590
 4.7440	 6.1960
 4.7490	 6.2360
 4.7530	 6.2200
 4.7570	 6.2190
 4.7620	 6.2330
 4.7660	 6.3140
 4.7700	 6.3950
 4.7750	 6.3620
 4.7790	 6.1190
 4.7840	 6.1120
 4.7880	 6.1370
 4.7920	 6.2620
 4.7970	 6.3990
 4.8010	 6.3770
 4.8060	 6.3530
 4.8100	 6.2160
 4.8150	 6.0350
 4.8190	 6.1690
 4.8240	 6.2390
 4.8280	 6.2230
 4.8330	 6.2260
 4.8370	 6.2980
 4.8420	 6.2480
 4.8460	 6.1880
 4.8510	 6.2030
 4.8550	 6.2120
 4.8600	 6.2040
 4.8640	 6.3550
 4.8690	 6.3650
 4.8730	 6.2760
 4.8780	 6.2110
 4.8830	 6.2300
 4.8870	 6.2330
 4.8920	 6.3030
 4.8960	 6.3110
 4.9010	 6.2810
 4.9060	 6.3270
 4.9100	 6.3530
 4.9150	 6.3670
 4.9200	 6.3230
 4.9240	 6.2600
 4.9290	 6.2920
 4.9340	 6.3580
 4.9380	 6.3140
 4.9430	 6.2570
 4.9480	 6.2600
 4.9530	 6.2950
 4.9570	 6.3330
 4.9620	 6.3820
 4.9670	 6.3650
 4.9720	 6.3000
 4.9760	 6.2750
 4.9810	 6.3420
 4.9860	 6.4400
 4.9910	 6.4120
 4.9960	 6.4180
 5.0000	 6.4360
 5.0050	 6.4410
 5.0100	 6.3420
 5.0150	 6.2970
 5.0200	 6.2270
 5.0250	 6.3030
 5.0290	 6.4230
 5.0340	 6.4840
 5.0390	 6.4780
 5.0440	 6.4850
 5.0490	 6.3750
 5.0540	 6.3200
 5.0590	 6.3580
 5.0640	 6.3700
 5.0690	 6.3440
 5.0740	 6.4460
 5.0790	 6.5050
 5.0840	 6.5000
 5.0890	 6.4790
 5.0940	 6.4580
 5.0990	 6.4440
 5.1040	 6.5160
 5.1090	 6.4500
 5.1140	 6.4200
 5.1190	 6.4110
 5.1240	 6.5210
 5.1290	 6.5310
 5.1340	 6.5220
 5.1390	 6.5040
 5.1440	 6.4820
 5.1490	 6.5150
 5.1540	 6.5610
 5.1600	 6.5520
 5.1650	 6.5760
 5.1700	 6.6600
 5.1750	 6.6700
 5.1800	 6.5690
 5.1850	 6.5850
 5.1910	 6.6100
 5.1960	 6.5910
 5.2010	 6.5640
 5.2060	 6.5930
 5.2110	 6.5900
 5.2170	 6.5940
 5.2220	 6.5560
 5.2270	 6.5820
 5.2320	 6.5170
 5.2380	 6.5210
 5.2430	 6.5470
 5.2480	 6.5240
 5.2540	 6.4950
 5.2590	 6.5710
 5.2640	 6.5700
 5.2700	 6.5370
 5.2750	 6.5610
 5.2800	 6.5520
 5.2860	 6.4600
 5.2910	 6.5420
 5.2970	 6.5660
 5.3020	 6.5270
 5.3070	 6.4370
 5.3130	 6.4800
 5.3180	 6.5490
 5.3240	 6.6000
 5.3290	 6.5770
 5.3350	 6.5220
 5.3400	 6.5010
 5.3460	 6.5370
 5.3510	 6.4930
 5.3570	 6.5290
 5.3620	 6.5770
 5.3680	 6.6190
 5.3730	 6.5170
 5.3790	 6.4650
 5.3850	 6.4920
 5.3900	 6.5610
 5.3960	 6.4780
 5.4010	 6.3990
 5.4070	 6.3990
 5.4130	 6.4220
 5.4180	 6.3770
 5.4240	 6.3450
 5.4300	 6.3590
 5.4350	 6.4720
