Name: Umbellularia californica 3
Type: vegetation
Class: Shrub
Genus: Umbellularia
Species: californica
Sample No.: VH029
Owner: UCSB
Wavelength Range: VSWIR
Origin: 34.5075; -119.763; WGS84
Collection Date: 4/1/2013
Description: Samples were collected as part of the HyspIRI Airborne Campaign. 48 individual plants were sampled in three times in 2013 - spring  summer  and fall. The name of the sample includes a 1  2  or 3 which references a different individual of the species. Samples were taken to JPL and processed within 48 hours of collection. The same leaves were processed in the Nicolet and then measured using the ASD.
Measurement: Bidirectional reflectance
First Column: X
Second Column: Y
X Units: Wavelength (micrometers)
Y Units: Reflectance (percentage)
First X Value: 0.35
Last X Value: 2.5
Number of X Values: 2151
Additional Information: vegetation.shrub.umbellularia.californica.vswir.vh029.ucsb.asd.ancillary.txt

 0.3500	 8.5880
 0.3510	 9.0620
 0.3520	 9.1480
 0.3530	 8.9720
 0.3540	 8.8270
 0.3550	 8.8180
 0.3560	 8.8520
 0.3570	 8.8530
 0.3580	 8.7840
 0.3590	 8.7950
 0.3600	 8.8040
 0.3610	 8.7870
 0.3620	 8.8340
 0.3630	 8.7860
 0.3640	 8.7510
 0.3650	 8.8270
 0.3660	 8.7980
 0.3670	 8.8160
 0.3680	 8.8210
 0.3690	 8.6500
 0.3700	 8.6640
 0.3710	 8.8010
 0.3720	 8.9110
 0.3730	 8.7880
 0.3740	 8.7190
 0.3750	 8.7410
 0.3760	 8.7870
 0.3770	 8.7130
 0.3780	 8.6650
 0.3790	 8.6710
 0.3800	 8.6510
 0.3810	 8.6150
 0.3820	 8.5970
 0.3830	 8.6140
 0.3840	 8.6550
 0.3850	 8.6530
 0.3860	 8.6230
 0.3870	 8.6110
 0.3880	 8.6340
 0.3890	 8.6520
 0.3900	 8.6390
 0.3910	 8.5950
 0.3920	 8.6360
 0.3930	 8.6610
 0.3940	 8.6070
 0.3950	 8.6430
 0.3960	 8.6970
 0.3970	 8.7200
 0.3980	 8.6840
 0.3990	 8.6220
 0.4000	 8.6100
 0.4010	 8.6470
 0.4020	 8.6310
 0.4030	 8.6050
 0.4040	 8.6120
 0.4050	 8.6640
 0.4060	 8.6770
 0.4070	 8.6730
 0.4080	 8.6610
 0.4090	 8.6430
 0.4100	 8.6780
 0.4110	 8.7020
 0.4120	 8.6870
 0.4130	 8.6930
 0.4140	 8.7330
 0.4150	 8.7620
 0.4160	 8.7430
 0.4170	 8.7870
 0.4180	 8.8230
 0.4190	 8.8260
 0.4200	 8.8170
 0.4210	 8.8420
 0.4220	 8.8720
 0.4230	 8.8860
 0.4240	 8.9050
 0.4250	 8.9260
 0.4260	 8.9450
 0.4270	 8.9600
 0.4280	 8.9620
 0.4290	 8.9730
 0.4300	 8.9990
 0.4310	 9.0160
 0.4320	 9.0160
 0.4330	 9.0130
 0.4340	 9.0210
 0.4350	 9.0350
 0.4360	 9.0430
 0.4370	 9.0530
 0.4380	 9.0850
 0.4390	 9.1060
 0.4400	 9.1180
 0.4410	 9.1250
 0.4420	 9.1300
 0.4430	 9.1390
 0.4440	 9.1520
 0.4450	 9.1660
 0.4460	 9.1780
 0.4470	 9.1880
 0.4480	 9.1970
 0.4490	 9.2050
 0.4500	 9.2120
 0.4510	 9.2190
 0.4520	 9.2300
 0.4530	 9.2510
 0.4540	 9.2620
 0.4550	 9.2620
 0.4560	 9.2630
 0.4570	 9.2710
 0.4580	 9.2790
 0.4590	 9.2840
 0.4600	 9.2810
 0.4610	 9.2860
 0.4620	 9.2910
 0.4630	 9.2870
 0.4640	 9.2790
 0.4650	 9.2880
 0.4660	 9.3080
 0.4670	 9.3000
 0.4680	 9.3020
 0.4690	 9.3000
 0.4700	 9.2860
 0.4710	 9.2980
 0.4720	 9.3030
 0.4730	 9.2960
 0.4740	 9.2890
 0.4750	 9.2900
 0.4760	 9.2940
 0.4770	 9.2950
 0.4780	 9.2910
 0.4790	 9.3000
 0.4800	 9.3130
 0.4810	 9.3110
 0.4820	 9.3070
 0.4830	 9.3050
 0.4840	 9.3060
 0.4850	 9.3080
 0.4860	 9.3120
 0.4870	 9.3210
 0.4880	 9.3360
 0.4890	 9.3530
 0.4900	 9.3640
 0.4910	 9.3710
 0.4920	 9.3800
 0.4930	 9.3930
 0.4940	 9.4130
 0.4950	 9.4390
 0.4960	 9.4590
 0.4970	 9.4780
 0.4980	 9.5020
 0.4990	 9.5360
 0.5000	 9.5720
 0.5010	 9.6070
 0.5020	 9.6420
 0.5030	 9.6810
 0.5040	 9.7270
 0.5050	 9.7860
 0.5060	 9.8560
 0.5070	 9.9170
 0.5080	 9.9820
 0.5090	10.0580
 0.5100	10.1470
 0.5110	10.2540
 0.5120	10.3660
 0.5130	10.4780
 0.5140	10.6020
 0.5150	10.7420
 0.5160	10.8920
 0.5170	11.0480
 0.5180	11.2190
 0.5190	11.3950
 0.5200	11.5780
 0.5210	11.7760
 0.5220	11.9750
 0.5230	12.1700
 0.5240	12.3620
 0.5250	12.5580
 0.5260	12.7520
 0.5270	12.9420
 0.5280	13.1260
 0.5290	13.3060
 0.5300	13.4780
 0.5310	13.6400
 0.5320	13.7960
 0.5330	13.9400
 0.5340	14.0770
 0.5350	14.2090
 0.5360	14.3280
 0.5370	14.4420
 0.5380	14.5490
 0.5390	14.6460
 0.5400	14.7430
 0.5410	14.8340
 0.5420	14.9140
 0.5430	14.9930
 0.5440	15.0740
 0.5450	15.1510
 0.5460	15.2200
 0.5470	15.2950
 0.5480	15.3680
 0.5490	15.4340
 0.5500	15.4850
 0.5510	15.5230
 0.5520	15.5490
 0.5530	15.5630
 0.5540	15.5650
 0.5550	15.5520
 0.5560	15.5230
 0.5570	15.4780
 0.5580	15.4180
 0.5590	15.3450
 0.5600	15.2600
 0.5610	15.1590
 0.5620	15.0550
 0.5630	14.9480
 0.5640	14.8340
 0.5650	14.7090
 0.5660	14.5740
 0.5670	14.4360
 0.5680	14.3000
 0.5690	14.1510
 0.5700	14.0010
 0.5710	13.8610
 0.5720	13.7180
 0.5730	13.5860
 0.5740	13.4660
 0.5750	13.3490
 0.5760	13.2400
 0.5770	13.1350
 0.5780	13.0330
 0.5790	12.9330
 0.5800	12.8380
 0.5810	12.7510
 0.5820	12.6730
 0.5830	12.6070
 0.5840	12.5460
 0.5850	12.4850
 0.5860	12.4260
 0.5870	12.3690
 0.5880	12.3170
 0.5890	12.2730
 0.5900	12.2430
 0.5910	12.2170
 0.5920	12.1910
 0.5930	12.1660
 0.5940	12.1340
 0.5950	12.1020
 0.5960	12.0730
 0.5970	12.0430
 0.5980	12.0160
 0.5990	11.9890
 0.6000	11.9590
 0.6010	11.9230
 0.6020	11.8860
 0.6030	11.8480
 0.6040	11.8000
 0.6050	11.7520
 0.6060	11.7010
 0.6070	11.6430
 0.6080	11.5810
 0.6090	11.5190
 0.6100	11.4510
 0.6110	11.3710
 0.6120	11.3060
 0.6130	11.2490
 0.6140	11.1930
 0.6150	11.1360
 0.6160	11.0790
 0.6170	11.0230
 0.6180	10.9710
 0.6190	10.9280
 0.6200	10.8890
 0.6210	10.8520
 0.6220	10.8230
 0.6230	10.7970
 0.6240	10.7700
 0.6250	10.7460
 0.6260	10.7350
 0.6270	10.7250
 0.6280	10.7130
 0.6290	10.7000
 0.6300	10.6900
 0.6310	10.6810
 0.6320	10.6710
 0.6330	10.6590
 0.6340	10.6420
 0.6350	10.6180
 0.6360	10.5840
 0.6370	10.5450
 0.6380	10.5020
 0.6390	10.4530
 0.6400	10.3960
 0.6410	10.3390
 0.6420	10.2820
 0.6430	10.2240
 0.6440	10.1610
 0.6450	10.1010
 0.6460	10.0460
 0.6470	 9.9950
 0.6480	 9.9430
 0.6490	 9.9000
 0.6500	 9.8660
 0.6510	 9.8350
 0.6520	 9.8050
 0.6530	 9.7760
 0.6540	 9.7490
 0.6550	 9.7240
 0.6560	 9.6950
 0.6570	 9.6630
 0.6580	 9.6280
 0.6590	 9.5910
 0.6600	 9.5540
 0.6610	 9.5180
 0.6620	 9.4800
 0.6630	 9.4470
 0.6640	 9.4160
 0.6650	 9.3880
 0.6660	 9.3640
 0.6670	 9.3440
 0.6680	 9.3280
 0.6690	 9.3170
 0.6700	 9.3100
 0.6710	 9.3050
 0.6720	 9.3020
 0.6730	 9.3020
 0.6740	 9.3060
 0.6750	 9.3130
 0.6760	 9.3230
 0.6770	 9.3360
 0.6780	 9.3510
 0.6790	 9.3680
 0.6800	 9.3880
 0.6810	 9.4130
 0.6820	 9.4440
 0.6830	 9.4820
 0.6840	 9.5280
 0.6850	 9.5860
 0.6860	 9.6590
 0.6870	 9.7520
 0.6880	 9.8660
 0.6890	10.0100
 0.6900	10.1940
 0.6910	10.4280
 0.6920	10.7140
 0.6930	11.0610
 0.6940	11.4770
 0.6950	11.9660
 0.6960	12.5330
 0.6970	13.1750
 0.6980	13.8860
 0.6990	14.6650
 0.7000	15.5080
 0.7010	16.4040
 0.7020	17.3380
 0.7030	18.3060
 0.7040	19.2970
 0.7050	20.3030
 0.7060	21.3150
 0.7070	22.3350
 0.7080	23.3560
 0.7090	24.3750
 0.7100	25.3940
 0.7110	26.4070
 0.7120	27.4110
 0.7130	28.4140
 0.7140	29.4100
 0.7150	30.3950
 0.7160	31.3660
 0.7170	32.3230
 0.7180	33.2740
 0.7190	34.2150
 0.7200	35.1330
 0.7210	36.0400
 0.7220	36.9290
 0.7230	37.7970
 0.7240	38.6450
 0.7250	39.4690
 0.7260	40.2690
 0.7270	41.0440
 0.7280	41.7880
 0.7290	42.5000
 0.7300	43.1900
 0.7310	43.8610
 0.7320	44.4960
 0.7330	45.0950
 0.7340	45.6640
 0.7350	46.2160
 0.7360	46.7400
 0.7370	47.2360
 0.7380	47.7080
 0.7390	48.1450
 0.7400	48.5640
 0.7410	48.9610
 0.7420	49.3270
 0.7430	49.6810
 0.7440	50.0070
 0.7450	50.3080
 0.7460	50.5960
 0.7470	50.8580
 0.7480	51.1000
 0.7490	51.3290
 0.7500	51.5410
 0.7510	51.7350
 0.7520	51.9130
 0.7530	52.0790
 0.7540	52.2310
 0.7550	52.3670
 0.7560	52.4910
 0.7570	52.6080
 0.7580	52.7130
 0.7590	52.8120
 0.7600	52.9030
 0.7610	52.9840
 0.7620	53.0550
 0.7630	53.1230
 0.7640	53.1900
 0.7650	53.2490
 0.7660	53.2980
 0.7670	53.3420
 0.7680	53.3820
 0.7690	53.4230
 0.7700	53.4640
 0.7710	53.5010
 0.7720	53.5310
 0.7730	53.5580
 0.7740	53.5830
 0.7750	53.6080
 0.7760	53.6420
 0.7770	53.6690
 0.7780	53.6860
 0.7790	53.7020
 0.7800	53.7150
 0.7810	53.7330
 0.7820	53.7560
 0.7830	53.7720
 0.7840	53.7850
 0.7850	53.7970
 0.7860	53.8110
 0.7870	53.8270
 0.7880	53.8300
 0.7890	53.8340
 0.7900	53.8560
 0.7910	53.8630
 0.7920	53.8700
 0.7930	53.8780
 0.7940	53.8800
 0.7950	53.8860
 0.7960	53.8920
 0.7970	53.8930
 0.7980	53.8940
 0.7990	53.8960
 0.8000	53.8960
 0.8010	53.8940
 0.8020	53.8970
 0.8030	53.8990
 0.8040	53.8960
 0.8050	53.8880
 0.8060	53.8850
 0.8070	53.8820
 0.8080	53.8740
 0.8090	53.8600
 0.8100	53.8610
 0.8110	53.8580
 0.8120	53.8460
 0.8130	53.8430
 0.8140	53.8370
 0.8150	53.8250
 0.8160	53.8080
 0.8170	53.7990
 0.8180	53.7880
 0.8190	53.7790
 0.8200	53.7750
 0.8210	53.7540
 0.8220	53.7400
 0.8230	53.7390
 0.8240	53.7350
 0.8250	53.7230
 0.8260	53.7060
 0.8270	53.6880
 0.8280	53.6720
 0.8290	53.6640
 0.8300	53.6550
 0.8310	53.6380
 0.8320	53.6210
 0.8330	53.6160
 0.8340	53.6160
 0.8350	53.6020
 0.8360	53.5950
 0.8370	53.5870
 0.8380	53.5770
 0.8390	53.5680
 0.8400	53.5610
 0.8410	53.5520
 0.8420	53.5420
 0.8430	53.5410
 0.8440	53.5390
 0.8450	53.5350
 0.8460	53.5300
 0.8470	53.5190
 0.8480	53.5190
 0.8490	53.5280
 0.8500	53.5350
 0.8510	53.5250
 0.8520	53.5190
 0.8530	53.5200
 0.8540	53.5190
 0.8550	53.5130
 0.8560	53.5200
 0.8570	53.5320
 0.8580	53.5220
 0.8590	53.5160
 0.8600	53.5160
 0.8610	53.5180
 0.8620	53.5210
 0.8630	53.5210
 0.8640	53.5190
 0.8650	53.5180
 0.8660	53.5230
 0.8670	53.5320
 0.8680	53.5370
 0.8690	53.5360
 0.8700	53.5430
 0.8710	53.5430
 0.8720	53.5390
 0.8730	53.5410
 0.8740	53.5520
 0.8750	53.5590
 0.8760	53.5620
 0.8770	53.5670
 0.8780	53.5710
 0.8790	53.5690
 0.8800	53.5660
 0.8810	53.5770
 0.8820	53.5900
 0.8830	53.5970
 0.8840	53.5950
 0.8850	53.6010
 0.8860	53.6060
 0.8870	53.6140
 0.8880	53.6260
 0.8890	53.6230
 0.8900	53.6200
 0.8910	53.6240
 0.8920	53.6310
 0.8930	53.6340
 0.8940	53.6390
 0.8950	53.6430
 0.8960	53.6450
 0.8970	53.6480
 0.8980	53.6520
 0.8990	53.6550
 0.9000	53.6570
 0.9010	53.6560
 0.9020	53.6620
 0.9030	53.6750
 0.9040	53.6810
 0.9050	53.6820
 0.9060	53.6850
 0.9070	53.6890
 0.9080	53.6850
 0.9090	53.6900
 0.9100	53.6980
 0.9110	53.7010
 0.9120	53.6970
 0.9130	53.6890
 0.9140	53.6880
 0.9150	53.6970
 0.9160	53.6970
 0.9170	53.6980
 0.9180	53.7010
 0.9190	53.7050
 0.9200	53.7040
 0.9210	53.6980
 0.9220	53.6920
 0.9230	53.6950
 0.9240	53.6820
 0.9250	53.6750
 0.9260	53.6760
 0.9270	53.6730
 0.9280	53.6770
 0.9290	53.6650
 0.9300	53.6430
 0.9310	53.6380
 0.9320	53.6220
 0.9330	53.6060
 0.9340	53.5930
 0.9350	53.5750
 0.9360	53.5560
 0.9370	53.5400
 0.9380	53.5250
 0.9390	53.4990
 0.9400	53.4920
 0.9410	53.4840
 0.9420	53.4630
 0.9430	53.4400
 0.9440	53.3990
 0.9450	53.3600
 0.9460	53.3350
 0.9470	53.2970
 0.9480	53.2480
 0.9490	53.2020
 0.9500	53.1660
 0.9510	53.1270
 0.9520	53.0750
 0.9530	53.0130
 0.9540	52.9490
 0.9550	52.9030
 0.9560	52.8500
 0.9570	52.7980
 0.9580	52.7560
 0.9590	52.7070
 0.9600	52.6630
 0.9610	52.6240
 0.9620	52.5870
 0.9630	52.5470
 0.9640	52.5170
 0.9650	52.4930
 0.9660	52.4690
 0.9670	52.4580
 0.9680	52.4410
 0.9690	52.4190
 0.9700	52.4010
 0.9710	52.3860
 0.9720	52.3650
 0.9730	52.3520
 0.9740	52.3600
 0.9750	52.3500
 0.9760	52.3330
 0.9770	52.3220
 0.9780	52.3190
 0.9790	52.2980
 0.9800	52.2990
 0.9810	52.3100
 0.9820	52.3040
 0.9830	52.3170
 0.9840	52.3150
 0.9850	52.3020
 0.9860	52.3040
 0.9870	52.3150
 0.9880	52.3300
 0.9890	52.3460
 0.9900	52.3570
 0.9910	52.3520
 0.9920	52.3700
 0.9930	52.3870
 0.9940	52.4040
 0.9950	52.4220
 0.9960	52.4390
 0.9970	52.4560
 0.9980	52.4740
 0.9990	52.4910
 1.0000	52.5080
 1.0010	52.5260
 1.0020	52.5430
 1.0030	52.5610
 1.0040	52.5780
 1.0050	52.5950
 1.0060	52.6130
 1.0070	52.6300
 1.0080	52.6470
 1.0090	52.6650
 1.0100	52.6650
 1.0110	52.6760
 1.0120	52.6890
 1.0130	52.6980
 1.0140	52.7110
 1.0150	52.7250
 1.0160	52.7430
 1.0170	52.7610
 1.0180	52.7740
 1.0190	52.7860
 1.0200	52.7980
 1.0210	52.8040
 1.0220	52.8130
 1.0230	52.8240
 1.0240	52.8360
 1.0250	52.8480
 1.0260	52.8630
 1.0270	52.8750
 1.0280	52.8850
 1.0290	52.8960
 1.0300	52.9060
 1.0310	52.9170
 1.0320	52.9340
 1.0330	52.9430
 1.0340	52.9520
 1.0350	52.9610
 1.0360	52.9680
 1.0370	52.9720
 1.0380	52.9800
 1.0390	52.9900
 1.0400	53.0010
 1.0410	53.0150
 1.0420	53.0250
 1.0430	53.0350
 1.0440	53.0440
 1.0450	53.0500
 1.0460	53.0560
 1.0470	53.0600
 1.0480	53.0650
 1.0490	53.0690
 1.0500	53.0730
 1.0510	53.0760
 1.0520	53.0820
 1.0530	53.0860
 1.0540	53.0870
 1.0550	53.0920
 1.0560	53.0980
 1.0570	53.1060
 1.0580	53.1190
 1.0590	53.1260
 1.0600	53.1330
 1.0610	53.1370
 1.0620	53.1390
 1.0630	53.1400
 1.0640	53.1360
 1.0650	53.1360
 1.0660	53.1310
 1.0670	53.1320
 1.0680	53.1350
 1.0690	53.1440
 1.0700	53.1460
 1.0710	53.1470
 1.0720	53.1500
 1.0730	53.1500
 1.0740	53.1510
 1.0750	53.1570
 1.0760	53.1580
 1.0770	53.1560
 1.0780	53.1550
 1.0790	53.1520
 1.0800	53.1510
 1.0810	53.1490
 1.0820	53.1460
 1.0830	53.1400
 1.0840	53.1360
 1.0850	53.1320
 1.0860	53.1280
 1.0870	53.1250
 1.0880	53.1240
 1.0890	53.1190
 1.0900	53.1090
 1.0910	53.1030
 1.0920	53.0980
 1.0930	53.0920
 1.0940	53.0890
 1.0950	53.0810
 1.0960	53.0680
 1.0970	53.0570
 1.0980	53.0440
 1.0990	53.0330
 1.1000	53.0250
 1.1010	53.0150
 1.1020	53.0040
 1.1030	52.9960
 1.1040	52.9850
 1.1050	52.9730
 1.1060	52.9600
 1.1070	52.9470
 1.1080	52.9330
 1.1090	52.9180
 1.1100	52.9030
 1.1110	52.8870
 1.1120	52.8710
 1.1130	52.8580
 1.1140	52.8410
 1.1150	52.8250
 1.1160	52.8030
 1.1170	52.7780
 1.1180	52.7520
 1.1190	52.7250
 1.1200	52.6950
 1.1210	52.6670
 1.1220	52.6360
 1.1230	52.5990
 1.1240	52.5600
 1.1250	52.5160
 1.1260	52.4670
 1.1270	52.4140
 1.1280	52.3590
 1.1290	52.2970
 1.1300	52.2300
 1.1310	52.1570
 1.1320	52.0790
 1.1330	51.9930
 1.1340	51.8990
 1.1350	51.8000
 1.1360	51.6930
 1.1370	51.5820
 1.1380	51.4650
 1.1390	51.3430
 1.1400	51.2160
 1.1410	51.0870
 1.1420	50.9550
 1.1430	50.8240
 1.1440	50.6940
 1.1450	50.5630
 1.1460	50.4360
 1.1470	50.3110
 1.1480	50.1910
 1.1490	50.0730
 1.1500	49.9620
 1.1510	49.8550
 1.1520	49.7550
 1.1530	49.6610
 1.1540	49.5740
 1.1550	49.4920
 1.1560	49.4170
 1.1570	49.3490
 1.1580	49.2870
 1.1590	49.2310
 1.1600	49.1800
 1.1610	49.1340
 1.1620	49.0940
 1.1630	49.0560
 1.1640	49.0230
 1.1650	48.9900
 1.1660	48.9590
 1.1670	48.9300
 1.1680	48.9040
 1.1690	48.8770
 1.1700	48.8540
 1.1710	48.8300
 1.1720	48.8060
 1.1730	48.7830
 1.1740	48.7630
 1.1750	48.7400
 1.1760	48.7160
 1.1770	48.6910
 1.1780	48.6620
 1.1790	48.6330
 1.1800	48.6020
 1.1810	48.5710
 1.1820	48.5420
 1.1830	48.5140
 1.1840	48.4850
 1.1850	48.4570
 1.1860	48.4280
 1.1870	48.4020
 1.1880	48.3780
 1.1890	48.3570
 1.1900	48.3380
 1.1910	48.3230
 1.1920	48.3080
 1.1930	48.2950
 1.1940	48.2840
 1.1950	48.2740
 1.1960	48.2670
 1.1970	48.2640
 1.1980	48.2630
 1.1990	48.2630
 1.2000	48.2670
 1.2010	48.2740
 1.2020	48.2810
 1.2030	48.2920
 1.2040	48.3060
 1.2050	48.3180
 1.2060	48.3360
 1.2070	48.3570
 1.2080	48.3790
 1.2090	48.4050
 1.2100	48.4310
 1.2110	48.4590
 1.2120	48.4890
 1.2130	48.5210
 1.2140	48.5550
 1.2150	48.5900
 1.2160	48.6270
 1.2170	48.6630
 1.2180	48.7030
 1.2190	48.7440
 1.2200	48.7840
 1.2210	48.8260
 1.2220	48.8670
 1.2230	48.9060
 1.2240	48.9460
 1.2250	48.9840
 1.2260	49.0230
 1.2270	49.0590
 1.2280	49.0910
 1.2290	49.1270
 1.2300	49.1610
 1.2310	49.1930
 1.2320	49.2240
 1.2330	49.2520
 1.2340	49.2800
 1.2350	49.3050
 1.2360	49.3290
 1.2370	49.3510
 1.2380	49.3750
 1.2390	49.3960
 1.2400	49.4170
 1.2410	49.4420
 1.2420	49.4640
 1.2430	49.4840
 1.2440	49.5050
 1.2450	49.5210
 1.2460	49.5370
 1.2470	49.5530
 1.2480	49.5640
 1.2490	49.5770
 1.2500	49.5870
 1.2510	49.5970
 1.2520	49.6070
 1.2530	49.6180
 1.2540	49.6290
 1.2550	49.6390
 1.2560	49.6500
 1.2570	49.6580
 1.2580	49.6630
 1.2590	49.6680
 1.2600	49.6710
 1.2610	49.6730
 1.2620	49.6750
 1.2630	49.6770
 1.2640	49.6780
 1.2650	49.6790
 1.2660	49.6790
 1.2670	49.6760
 1.2680	49.6720
 1.2690	49.6660
 1.2700	49.6610
 1.2710	49.6550
 1.2720	49.6480
 1.2730	49.6420
 1.2740	49.6320
 1.2750	49.6220
 1.2760	49.6140
 1.2770	49.6030
 1.2780	49.5900
 1.2790	49.5770
 1.2800	49.5610
 1.2810	49.5430
 1.2820	49.5250
 1.2830	49.5080
 1.2840	49.4880
 1.2850	49.4690
 1.2860	49.4510
 1.2870	49.4290
 1.2880	49.4060
 1.2890	49.3800
 1.2900	49.3510
 1.2910	49.3190
 1.2920	49.2890
 1.2930	49.2580
 1.2940	49.2270
 1.2950	49.1960
 1.2960	49.1620
 1.2970	49.1260
 1.2980	49.0880
 1.2990	49.0480
 1.3000	49.0050
 1.3010	48.9580
 1.3020	48.9080
 1.3030	48.8580
 1.3040	48.8030
 1.3050	48.7470
 1.3060	48.6910
 1.3070	48.6310
 1.3080	48.5670
 1.3090	48.5020
 1.3100	48.4340
 1.3110	48.3610
 1.3120	48.2860
 1.3130	48.2090
 1.3140	48.1280
 1.3150	48.0440
 1.3160	47.9580
 1.3170	47.8720
 1.3180	47.7780
 1.3190	47.6830
 1.3200	47.5820
 1.3210	47.4760
 1.3220	47.3680
 1.3230	47.2570
 1.3240	47.1420
 1.3250	47.0260
 1.3260	46.9090
 1.3270	46.7920
 1.3280	46.6720
 1.3290	46.5480
 1.3300	46.4220
 1.3310	46.2920
 1.3320	46.1600
 1.3330	46.0280
 1.3340	45.8920
 1.3350	45.7560
 1.3360	45.6210
 1.3370	45.4830
 1.3380	45.3440
 1.3390	45.2050
 1.3400	45.0640
 1.3410	44.9240
 1.3420	44.7880
 1.3430	44.6520
 1.3440	44.5170
 1.3450	44.3820
 1.3460	44.2480
 1.3470	44.1120
 1.3480	43.9740
 1.3490	43.8390
 1.3500	43.7070
 1.3510	43.5740
 1.3520	43.4410
 1.3530	43.3100
 1.3540	43.1750
 1.3550	43.0380
 1.3560	42.9030
 1.3570	42.7650
 1.3580	42.6280
 1.3590	42.4890
 1.3600	42.3480
 1.3610	42.2030
 1.3620	42.0530
 1.3630	41.8970
 1.3640	41.7350
 1.3650	41.5650
 1.3660	41.3890
 1.3670	41.2060
 1.3680	41.0120
 1.3690	40.8080
 1.3700	40.5900
 1.3710	40.3610
 1.3720	40.1170
 1.3730	39.8570
 1.3740	39.5820
 1.3750	39.2880
 1.3760	38.9730
 1.3770	38.6370
 1.3780	38.2770
 1.3790	37.8960
 1.3800	37.4910
 1.3810	37.0600
 1.3820	36.6120
 1.3830	36.1410
 1.3840	35.6540
 1.3850	35.1480
 1.3860	34.6270
 1.3870	34.0860
 1.3880	33.5400
 1.3890	32.9800
 1.3900	32.4100
 1.3910	31.8410
 1.3920	31.2650
 1.3930	30.6850
 1.3940	30.1090
 1.3950	29.5300
 1.3960	28.9590
 1.3970	28.4000
 1.3980	27.8500
 1.3990	27.3210
 1.4000	26.8060
 1.4010	26.3040
 1.4020	25.8230
 1.4030	25.3570
 1.4040	24.9120
 1.4050	24.4910
 1.4060	24.0910
 1.4070	23.7150
 1.4080	23.3610
 1.4090	23.0270
 1.4100	22.7150
 1.4110	22.4220
 1.4120	22.1500
 1.4130	21.8990
 1.4140	21.6650
 1.4150	21.4520
 1.4160	21.2570
 1.4170	21.0750
 1.4180	20.9110
 1.4190	20.7580
 1.4200	20.6180
 1.4210	20.4920
 1.4220	20.3780
 1.4230	20.2760
 1.4240	20.1840
 1.4250	20.0990
 1.4260	20.0230
 1.4270	19.9550
 1.4280	19.8950
 1.4290	19.8420
 1.4300	19.7970
 1.4310	19.7570
 1.4320	19.7250
 1.4330	19.6960
 1.4340	19.6730
 1.4350	19.6550
 1.4360	19.6430
 1.4370	19.6340
 1.4380	19.6290
 1.4390	19.6300
 1.4400	19.6340
 1.4410	19.6400
 1.4420	19.6490
 1.4430	19.6600
 1.4440	19.6730
 1.4450	19.6880
 1.4460	19.7050
 1.4470	19.7260
 1.4480	19.7460
 1.4490	19.7690
 1.4500	19.7930
 1.4510	19.8170
 1.4520	19.8440
 1.4530	19.8710
 1.4540	19.9000
 1.4550	19.9320
 1.4560	19.9660
 1.4570	20.0030
 1.4580	20.0430
 1.4590	20.0850
 1.4600	20.1310
 1.4610	20.1810
 1.4620	20.2360
 1.4630	20.2960
 1.4640	20.3580
 1.4650	20.4270
 1.4660	20.5000
 1.4670	20.5770
 1.4680	20.6610
 1.4690	20.7500
