Name: Bambusa tuldoides
Type: vegetation
Class: Tree
Genus: Bambusa
Species: tuldoides
Sample No.: JPL215
Owner: JPL
Wavelength Range: TIR
Origin: 34.125472; -118.111507; WGS84
Collection Date: 10/3/2016
Description: Samples were collected at the Huntington Garden in San Marino California as part of a JPL Subcontract studying HyTES imagery. Samples were taken to JPL and processed within 48 hours of collection. The same leaves were processed in the Nicolet and then measured using the ASD.
Measurement: Hemispherical reflectance
First Column: X
Second Column: Y
X Units: Wavelength (micrometer)
Y Units: Reflectance (percentage)
First X Value: 2.501
Last X Value: 15.387
Number of X Values: 1737
Additional Information: vegetation.tree.bambusa.tuldoides.tir.jpl215.jpl.nicolet.ancillary.txt

 2.5010	10.8490
 2.5030	10.8380
 2.5040	10.7840
 2.5050	10.7240
 2.5060	10.6860
 2.5070	10.6500
 2.5090	10.6090
 2.5100	10.6170
 2.5110	10.6000
 2.5120	10.5280
 2.5140	10.5230
 2.5150	10.5690
 2.5160	10.5870
 2.5170	10.5970
 2.5180	10.5680
 2.5200	10.4960
 2.5210	10.4700
 2.5220	10.4440
 2.5230	10.4550
 2.5250	10.5000
 2.5260	10.4970
 2.5270	10.4230
 2.5280	10.4180
 2.5300	10.4600
 2.5310	10.4320
 2.5320	10.3390
 2.5330	10.3470
 2.5340	10.4370
 2.5360	10.4620
 2.5370	10.4640
 2.5380	10.5250
 2.5390	10.5350
 2.5410	10.4630
 2.5420	10.4550
 2.5430	10.4780
 2.5440	10.4890
 2.5460	10.5070
 2.5470	10.5060
 2.5480	10.4740
 2.5490	10.5390
 2.5510	10.6340
 2.5520	10.6180
 2.5530	10.5770
 2.5540	10.6370
 2.5560	10.6940
 2.5570	10.7390
 2.5580	10.7520
 2.5590	10.6240
 2.5610	10.5280
 2.5620	10.4830
 2.5630	10.4860
 2.5650	10.5160
 2.5660	10.6510
 2.5670	10.7930
 2.5680	10.7440
 2.5700	10.5670
 2.5710	10.6450
 2.5720	10.7670
 2.5730	10.5400
 2.5750	10.6090
 2.5760	10.7490
 2.5770	10.6530
 2.5790	10.6250
 2.5800	10.6500
 2.5810	10.6440
 2.5820	10.6270
 2.5840	10.3910
 2.5850	10.3540
 2.5860	10.5190
 2.5880	10.4010
 2.5890	10.4170
 2.5900	10.5050
 2.5910	10.6100
 2.5930	10.4770
 2.5940	 9.9210
 2.5950	 9.4810
 2.5970	 9.8080
 2.5980	10.1570
 2.5990	10.3120
 2.6010	10.2400
 2.6020	10.1040
 2.6030	10.0250
 2.6040	 9.8590
 2.6060	 9.5850
 2.6070	 9.6070
 2.6080	 9.7200
 2.6100	 9.7140
 2.6110	 9.6910
 2.6120	 9.6840
 2.6140	 9.5830
 2.6150	 9.4950
 2.6160	 9.1430
 2.6180	 8.9160
 2.6190	 9.0380
 2.6200	 8.8480
 2.6220	 8.8210
 2.6230	 9.0220
 2.6240	 8.9250
 2.6260	 8.7010
 2.6270	 8.4750
 2.6280	 8.5560
 2.6300	 8.4020
 2.6310	 8.0560
 2.6320	 8.1580
 2.6340	 8.2330
 2.6350	 8.1130
 2.6360	 8.0900
 2.6380	 8.0450
 2.6390	 7.9440
 2.6400	 7.7830
 2.6420	 7.6750
 2.6430	 7.5960
 2.6440	 7.5510
 2.6460	 7.3180
 2.6470	 7.1630
 2.6480	 7.1690
 2.6500	 7.1170
 2.6510	 6.9680
 2.6520	 6.7520
 2.6540	 6.5980
 2.6550	 6.5210
 2.6570	 6.4390
 2.6580	 6.4150
 2.6590	 6.2120
 2.6610	 6.0870
 2.6620	 6.0330
 2.6630	 5.9360
 2.6650	 5.6560
 2.6660	 5.3810
 2.6670	 5.2800
 2.6690	 5.3950
 2.6700	 5.1790
 2.6720	 5.0340
 2.6730	 5.1600
 2.6740	 5.1710
 2.6760	 4.9980
 2.6770	 4.7980
 2.6780	 4.6780
 2.6800	 4.6430
 2.6810	 4.6840
 2.6830	 4.6080
 2.6840	 4.4930
 2.6850	 4.4000
 2.6870	 4.2850
 2.6880	 4.2410
 2.6900	 4.1790
 2.6910	 4.0820
 2.6920	 3.9850
 2.6940	 3.8140
 2.6950	 3.7180
 2.6970	 3.7280
 2.6980	 3.7340
 2.6990	 3.7000
 2.7010	 3.6220
 2.7020	 3.6090
 2.7040	 3.6080
 2.7050	 3.5640
 2.7060	 3.5350
 2.7080	 3.5120
 2.7090	 3.4160
 2.7110	 3.3640
 2.7120	 3.3510
 2.7130	 3.4260
 2.7150	 3.4220
 2.7160	 3.4130
 2.7180	 3.3620
 2.7190	 3.3390
 2.7210	 3.2090
 2.7220	 3.2820
 2.7230	 3.3190
 2.7250	 3.3040
 2.7260	 3.3680
 2.7280	 3.4430
 2.7290	 3.4350
 2.7310	 3.4040
 2.7320	 3.4110
 2.7340	 3.4050
 2.7350	 3.3840
 2.7360	 3.4480
 2.7380	 3.3600
 2.7390	 3.2260
 2.7410	 3.1600
 2.7420	 3.1930
 2.7440	 3.2910
 2.7450	 3.3740
 2.7470	 3.3870
 2.7480	 3.3940
 2.7490	 3.3980
 2.7510	 3.4110
 2.7520	 3.3690
 2.7540	 3.3200
 2.7550	 3.1900
 2.7570	 3.1390
 2.7580	 3.2320
 2.7600	 3.3740
 2.7610	 3.4440
 2.7630	 3.3490
 2.7640	 3.2950
 2.7660	 3.3700
 2.7670	 3.3860
 2.7690	 3.3510
 2.7700	 3.3090
 2.7720	 3.3380
 2.7730	 3.3380
 2.7740	 3.3210
 2.7760	 3.3390
 2.7770	 3.3670
 2.7790	 3.3630
 2.7800	 3.3090
 2.7820	 3.3150
 2.7830	 3.3600
 2.7850	 3.3390
 2.7860	 3.2800
 2.7880	 3.2730
 2.7890	 3.3230
 2.7910	 3.2550
 2.7920	 3.2530
 2.7940	 3.3330
 2.7950	 3.3700
 2.7970	 3.3720
 2.7980	 3.4270
 2.8000	 3.3950
 2.8010	 3.3600
 2.8030	 3.2310
 2.8040	 3.2310
 2.8060	 3.2610
 2.8080	 3.2720
 2.8090	 3.3080
 2.8110	 3.3920
 2.8120	 3.3600
 2.8140	 3.3790
 2.8150	 3.3300
 2.8170	 3.2530
 2.8180	 3.2640
 2.8200	 3.2880
 2.8210	 3.2460
 2.8230	 3.2500
 2.8240	 3.2670
 2.8260	 3.3370
 2.8270	 3.3090
 2.8290	 3.2500
 2.8310	 3.2110
 2.8320	 3.2450
 2.8340	 3.2420
 2.8350	 3.2130
 2.8370	 3.1670
 2.8380	 3.2030
 2.8400	 3.2930
 2.8410	 3.3480
 2.8430	 3.2320
 2.8440	 3.2230
 2.8460	 3.2700
 2.8480	 3.2840
 2.8490	 3.2420
 2.8510	 3.2110
 2.8520	 3.1820
 2.8540	 3.1680
 2.8550	 3.1840
 2.8570	 3.1970
 2.8590	 3.2030
 2.8600	 3.2630
 2.8620	 3.2430
 2.8630	 3.2430
 2.8650	 3.2180
 2.8660	 3.1780
 2.8680	 3.1270
 2.8700	 3.1650
 2.8710	 3.2320
 2.8730	 3.2160
 2.8740	 3.1340
 2.8760	 3.1450
 2.8780	 3.1970
 2.8790	 3.2500
 2.8810	 3.2080
 2.8820	 3.1670
 2.8840	 3.1400
 2.8860	 3.1790
 2.8870	 3.2160
 2.8890	 3.1940
 2.8900	 3.1820
 2.8920	 3.1970
 2.8940	 3.1320
 2.8950	 3.0630
 2.8970	 3.0480
 2.8990	 3.1200
 2.9000	 3.1000
 2.9020	 3.1120
 2.9030	 3.1470
 2.9050	 3.1050
 2.9070	 3.0730
 2.9080	 3.0890
 2.9100	 3.1270
 2.9120	 3.1290
 2.9130	 3.0630
 2.9150	 3.0500
 2.9160	 3.0940
 2.9180	 3.1240
 2.9200	 3.0910
 2.9210	 3.0630
 2.9230	 2.9720
 2.9250	 2.9900
 2.9260	 3.0920
 2.9280	 3.1520
 2.9300	 3.1170
 2.9310	 3.0330
 2.9330	 3.0110
 2.9350	 3.1060
 2.9360	 3.0720
 2.9380	 3.0350
 2.9400	 3.0270
 2.9410	 3.0070
 2.9430	 3.0430
 2.9450	 3.0630
 2.9460	 3.0080
 2.9480	 3.0290
 2.9500	 3.0500
 2.9510	 3.0350
 2.9530	 2.9480
 2.9550	 2.9290
 2.9560	 2.9510
 2.9580	 2.9440
 2.9600	 2.9100
 2.9610	 2.9410
 2.9630	 2.9060
 2.9650	 2.9250
 2.9670	 2.9270
 2.9680	 2.9500
 2.9700	 2.9400
 2.9720	 2.9270
 2.9730	 2.8970
 2.9750	 2.8920
 2.9770	 2.8650
 2.9780	 2.9240
 2.9800	 2.9790
 2.9820	 2.9640
 2.9840	 2.9370
 2.9850	 2.9500
 2.9870	 2.9400
 2.9890	 2.9220
 2.9900	 2.8750
 2.9920	 2.9130
 2.9940	 2.8770
 2.9960	 2.8570
 2.9970	 2.8780
 2.9990	 2.8820
 3.0010	 2.8960
 3.0030	 2.9390
 3.0040	 2.8870
 3.0060	 2.8390
 3.0080	 2.8310
 3.0100	 2.8440
 3.0110	 2.8620
 3.0130	 2.9190
 3.0150	 2.9100
 3.0170	 2.8600
 3.0180	 2.8220
 3.0200	 2.8490
 3.0220	 2.8150
 3.0240	 2.8200
 3.0250	 2.8310
 3.0270	 2.8470
 3.0290	 2.8730
 3.0310	 2.8550
 3.0320	 2.8150
 3.0340	 2.8210
 3.0360	 2.7980
 3.0380	 2.7670
 3.0400	 2.7760
 3.0410	 2.8290
 3.0430	 2.8400
 3.0450	 2.8180
 3.0470	 2.7760
 3.0480	 2.8090
 3.0500	 2.7990
 3.0520	 2.7770
 3.0540	 2.7630
 3.0560	 2.7640
 3.0570	 2.7520
 3.0590	 2.7910
 3.0610	 2.7970
 3.0630	 2.8030
 3.0650	 2.7910
 3.0670	 2.7960
 3.0680	 2.7650
 3.0700	 2.7680
 3.0720	 2.7110
 3.0740	 2.6930
 3.0760	 2.7060
 3.0770	 2.7430
 3.0790	 2.7550
 3.0810	 2.7850
 3.0830	 2.7560
 3.0850	 2.7370
 3.0870	 2.7540
 3.0880	 2.7740
 3.0900	 2.7460
 3.0920	 2.7270
 3.0940	 2.7100
 3.0960	 2.7280
 3.0980	 2.7240
 3.1000	 2.7080
 3.1010	 2.7260
 3.1030	 2.7640
 3.1050	 2.7130
 3.1070	 2.6940
 3.1090	 2.6830
 3.1110	 2.7110
 3.1130	 2.7430
 3.1140	 2.7260
 3.1160	 2.6960
 3.1180	 2.7250
 3.1200	 2.7190
 3.1220	 2.7150
 3.1240	 2.7120
 3.1260	 2.7290
 3.1280	 2.7060
 3.1290	 2.6850
 3.1310	 2.6270
 3.1330	 2.6350
 3.1350	 2.6520
 3.1370	 2.6690
 3.1390	 2.6370
 3.1410	 2.6460
 3.1430	 2.6830
 3.1450	 2.7120
 3.1470	 2.7220
 3.1480	 2.7290
 3.1500	 2.6960
 3.1520	 2.6790
 3.1540	 2.6690
 3.1560	 2.6560
 3.1580	 2.6330
 3.1600	 2.6640
 3.1620	 2.6850
 3.1640	 2.7030
 3.1660	 2.6570
 3.1680	 2.6450
 3.1700	 2.6440
 3.1720	 2.6670
 3.1730	 2.6700
 3.1750	 2.6850
 3.1770	 2.6790
 3.1790	 2.6760
 3.1810	 2.6690
 3.1830	 2.6530
 3.1850	 2.6600
 3.1870	 2.6520
 3.1890	 2.6420
 3.1910	 2.6640
 3.1930	 2.6480
 3.1950	 2.6730
 3.1970	 2.6870
 3.1990	 2.6680
 3.2010	 2.6150
 3.2030	 2.5850
 3.2050	 2.5730
 3.2070	 2.5870
 3.2090	 2.6050
 3.2110	 2.5920
 3.2130	 2.5570
 3.2150	 2.5690
 3.2170	 2.5580
 3.2190	 2.5810
 3.2210	 2.5810
 3.2230	 2.5860
 3.2250	 2.5840
 3.2270	 2.5760
 3.2290	 2.5830
 3.2310	 2.6230
 3.2330	 2.6520
 3.2350	 2.6710
 3.2370	 2.6560
 3.2390	 2.6720
 3.2410	 2.6350
 3.2430	 2.5860
 3.2450	 2.6100
 3.2470	 2.6370
 3.2490	 2.6330
 3.2510	 2.6100
 3.2530	 2.5860
 3.2550	 2.6120
 3.2570	 2.6210
 3.2590	 2.6070
 3.2610	 2.5990
 3.2630	 2.5760
 3.2650	 2.5850
 3.2670	 2.6340
 3.2700	 2.6230
 3.2720	 2.5770
 3.2740	 2.5480
 3.2760	 2.5510
 3.2780	 2.5400
 3.2800	 2.5980
 3.2820	 2.6170
 3.2840	 2.5580
 3.2860	 2.4830
 3.2880	 2.5110
 3.2900	 2.5510
 3.2920	 2.5510
 3.2940	 2.5030
 3.2970	 2.4790
 3.2990	 2.4810
 3.3010	 2.4790
 3.3030	 2.5060
 3.3050	 2.5330
 3.3070	 2.5110
 3.3090	 2.4920
 3.3110	 2.4350
 3.3130	 2.4220
 3.3160	 2.4240
 3.3180	 2.4410
 3.3200	 2.4440
 3.3220	 2.4190
 3.3240	 2.4030
 3.3260	 2.4180
 3.3280	 2.4180
 3.3300	 2.4130
 3.3330	 2.4020
 3.3350	 2.3760
 3.3370	 2.4020
 3.3390	 2.4280
 3.3410	 2.4170
 3.3430	 2.3540
 3.3450	 2.3110
 3.3480	 2.3110
 3.3500	 2.3080
 3.3520	 2.3340
 3.3540	 2.3110
 3.3560	 2.2320
 3.3580	 2.2140
 3.3610	 2.2650
 3.3630	 2.3100
 3.3650	 2.2840
 3.3670	 2.2530
 3.3690	 2.2660
 3.3720	 2.2660
 3.3740	 2.2880
 3.3760	 2.3110
 3.3780	 2.3140
 3.3800	 2.3040
 3.3830	 2.3500
 3.3850	 2.3830
 3.3870	 2.3840
 3.3890	 2.3390
 3.3910	 2.3340
 3.3940	 2.3260
 3.3960	 2.3460
 3.3980	 2.3640
 3.4000	 2.3740
 3.4030	 2.4210
 3.4050	 2.4660
 3.4070	 2.4980
 3.4090	 2.6050
 3.4110	 2.7890
 3.4140	 2.9990
 3.4160	 3.2680
 3.4180	 3.6850
 3.4200	 4.2990
 3.4230	 5.1110
 3.4250	 6.0900
 3.4270	 7.1690
 3.4300	 7.8470
 3.4320	 7.6470
 3.4340	 6.8640
 3.4360	 6.0800
 3.4390	 5.5160
 3.4410	 5.1140
 3.4430	 4.8390
 3.4450	 4.6530
 3.4480	 4.5090
 3.4500	 4.4070
 3.4520	 4.3330
 3.4550	 4.2730
 3.4570	 4.2010
 3.4590	 4.1480
 3.4620	 4.0960
 3.4640	 4.0380
 3.4660	 3.9820
 3.4690	 3.9100
 3.4710	 3.8070
 3.4730	 3.7230
 3.4760	 3.6260
 3.4780	 3.5320
 3.4800	 3.4400
 3.4830	 3.3770
 3.4850	 3.2870
 3.4870	 3.2070
 3.4900	 3.1690
 3.4920	 3.1230
 3.4940	 3.0790
 3.4970	 3.0940
 3.4990	 3.1030
 3.5010	 3.1870
 3.5040	 3.5260
 3.5060	 4.2770
 3.5080	 5.5930
 3.5110	 6.8830
 3.5130	 7.1050
 3.5160	 6.4510
 3.5180	 5.7100
 3.5200	 5.2250
 3.5230	 4.9120
 3.5250	 4.6900
 3.5280	 4.5350
 3.5300	 4.3660
 3.5320	 4.2640
 3.5350	 4.1920
 3.5370	 4.1250
 3.5400	 4.0550
 3.5420	 4.0330
 3.5440	 4.0140
 3.5470	 3.9430
 3.5490	 3.8820
 3.5520	 3.8300
 3.5540	 3.8130
 3.5570	 3.8070
 3.5590	 3.8040
 3.5610	 3.7590
 3.5640	 3.7360
 3.5660	 3.7570
 3.5690	 3.7640
 3.5710	 3.7370
 3.5740	 3.6870
 3.5760	 3.6520
 3.5790	 3.6830
 3.5810	 3.7170
 3.5840	 3.6900
 3.5860	 3.6480
 3.5890	 3.6440
 3.5910	 3.6450
 3.5940	 3.6390
 3.5960	 3.6480
 3.5990	 3.6970
 3.6010	 3.7070
 3.6040	 3.6540
 3.6060	 3.6190
 3.6090	 3.6340
 3.6110	 3.6580
 3.6140	 3.6640
 3.6160	 3.6520
 3.6190	 3.6570
 3.6210	 3.6850
 3.6240	 3.6550
 3.6260	 3.6430
 3.6290	 3.6600
 3.6310	 3.6780
 3.6340	 3.6610
 3.6360	 3.6450
 3.6390	 3.6360
 3.6410	 3.6400
 3.6440	 3.6840
 3.6470	 3.6910
 3.6490	 3.6560
 3.6520	 3.6680
 3.6540	 3.7290
 3.6570	 3.7530
 3.6590	 3.7010
 3.6620	 3.6760
 3.6650	 3.7180
 3.6670	 3.7300
 3.6700	 3.7360
 3.6720	 3.7740
 3.6750	 3.7560
 3.6780	 3.7450
 3.6800	 3.7550
 3.6830	 3.7580
 3.6850	 3.7680
 3.6880	 3.8000
 3.6910	 3.8070
 3.6930	 3.8090
 3.6960	 3.8070
 3.6990	 3.8110
 3.7010	 3.8230
 3.7040	 3.8720
 3.7070	 3.9160
 3.7090	 3.8900
 3.7120	 3.8840
 3.7150	 3.9280
 3.7170	 3.9600
 3.7200	 3.9620
 3.7230	 3.9510
 3.7250	 3.9750
 3.7280	 4.0170
 3.7310	 4.0470
 3.7330	 4.0640
 3.7360	 4.0640
 3.7390	 4.0770
 3.7410	 4.0930
 3.7440	 4.0850
 3.7470	 4.1160
 3.7490	 4.1640
 3.7520	 4.2030
 3.7550	 4.2270
 3.7580	 4.2470
 3.7600	 4.2700
 3.7630	 4.2940
 3.7660	 4.3050
 3.7690	 4.3620
 3.7710	 4.4140
 3.7740	 4.3890
 3.7770	 4.3730
 3.7790	 4.3830
 3.7820	 4.4170
 3.7850	 4.4540
 3.7880	 4.4570
 3.7910	 4.4700
 3.7930	 4.4830
 3.7960	 4.5200
 3.7990	 4.5640
 3.8020	 4.5880
 3.8040	 4.5960
 3.8070	 4.6290
 3.8100	 4.6490
 3.8130	 4.6640
 3.8160	 4.7020
 3.8180	 4.7240
 3.8210	 4.7370
 3.8240	 4.7630
 3.8270	 4.7840
 3.8300	 4.7740
 3.8330	 4.7850
 3.8350	 4.8240
 3.8380	 4.8190
 3.8410	 4.8050
 3.8440	 4.8310
 3.8470	 4.8900
 3.8500	 4.9410
 3.8520	 4.9730
 3.8550	 4.9440
 3.8580	 4.9430
 3.8610	 4.9390
 3.8640	 4.9380
 3.8670	 4.9640
 3.8700	 5.0120
 3.8730	 5.0980
 3.8760	 5.1200
 3.8780	 5.0540
 3.8810	 5.0530
 3.8840	 5.0500
 3.8870	 5.0250
 3.8900	 5.0160
 3.8930	 5.0140
 3.8960	 5.0310
 3.8990	 5.0790
 3.9020	 5.1050
 3.9050	 5.0870
 3.9080	 5.0710
 3.9110	 5.1080
 3.9140	 5.1380
 3.9170	 5.1280
 3.9190	 5.1160
 3.9220	 5.1130
 3.9250	 5.0990
 3.9280	 5.0920
 3.9310	 5.0630
 3.9340	 5.0620
 3.9370	 5.1120
 3.9400	 5.1680
 3.9430	 5.1620
 3.9460	 5.1190
 3.9490	 5.1290
 3.9520	 5.1680
 3.9550	 5.1420
 3.9580	 5.0930
 3.9610	 5.1070
 3.9640	 5.1320
 3.9670	 5.1030
 3.9700	 5.0900
 3.9740	 5.0940
 3.9770	 5.1260
 3.9800	 5.1260
 3.9830	 5.1380
 3.9860	 5.1480
 3.9890	 5.1310
 3.9920	 5.1170
 3.9950	 5.1170
 3.9980	 5.1110
 4.0010	 5.1170
 4.0040	 5.1460
 4.0070	 5.1570
 4.0100	 5.1410
 4.0140	 5.1250
 4.0170	 5.1380
 4.0200	 5.1420
 4.0230	 5.1330
 4.0260	 5.1780
 4.0290	 5.1800
 4.0320	 5.1590
 4.0350	 5.1350
 4.0390	 5.1480
 4.0420	 5.1730
 4.0450	 5.1700
 4.0480	 5.1550
 4.0510	 5.1640
 4.0540	 5.1740
 4.0570	 5.1600
 4.0610	 5.1170
 4.0640	 5.0900
 4.0670	 5.1140
 4.0700	 5.1490
 4.0730	 5.1280
 4.0770	 5.1210
 4.0800	 5.1110
 4.0830	 5.0990
 4.0860	 5.0770
 4.0890	 5.0810
 4.0930	 5.0570
 4.0960	 5.0820
 4.0990	 5.0950
 4.1020	 5.0870
 4.1060	 5.0830
 4.1090	 5.0900
 4.1120	 5.0810
 4.1150	 5.0680
 4.1190	 5.0380
 4.1220	 5.0400
 4.1250	 5.0130
 4.1290	 4.9970
 4.1320	 5.0240
 4.1350	 5.0100
 4.1380	 4.9510
 4.1420	 4.9830
 4.1450	 5.0010
 4.1480	 4.9720
 4.1520	 4.9470
 4.1550	 4.9720
 4.1580	 4.9770
 4.1620	 4.9350
 4.1650	 4.8850
 4.1680	 4.8740
 4.1720	 4.8630
 4.1750	 4.8660
 4.1780	 4.8640
 4.1820	 4.8460
 4.1850	 4.8300
 4.1890	 4.8260
 4.1920	 4.7790
 4.1950	 4.7590
 4.1990	 4.7460
 4.2020	 4.7310
 4.2060	 4.7210
 4.2090	 4.7200
 4.2120	 4.6650
 4.2160	 4.6260
 4.2190	 4.5900
 4.2230	 4.5530
 4.2260	 4.4510
 4.2300	 4.4500
 4.2330	 4.4710
 4.2360	 4.4680
 4.2400	 4.4520
 4.2430	 4.4730
 4.2470	 4.4030
 4.2500	 4.4220
 4.2540	 4.4460
 4.2570	 4.4610
 4.2610	 4.4000
 4.2640	 4.3730
 4.2680	 4.3110
 4.2710	 4.2390
 4.2750	 4.2790
 4.2780	 4.3520
 4.2820	 4.2540
 4.2850	 4.2070
 4.2890	 4.2200
 4.2930	 4.2320
 4.2960	 4.2180
 4.3000	 4.2040
 4.3030	 4.1520
 4.3070	 4.1100
 4.3100	 4.0720
 4.3140	 4.1130
 4.3180	 4.1440
 4.3210	 4.1130
 4.3250	 4.0740
 4.3280	 4.0960
 4.3320	 4.0520
 4.3360	 4.0450
 4.3390	 4.0740
 4.3430	 4.1040
 4.3470	 4.0610
 4.3500	 4.0150
 4.3540	 3.9790
 4.3580	 3.9640
 4.3610	 3.9550
 4.3650	 3.9470
 4.3690	 3.9430
 4.3720	 3.9280
 4.3760	 3.8860
 4.3800	 3.8720
 4.3830	 3.8480
 4.3870	 3.8720
 4.3910	 3.8610
 4.3940	 3.8380
 4.3980	 3.8190
 4.4020	 3.7840
 4.4060	 3.7470
 4.4090	 3.7650
 4.4130	 3.7790
 4.4170	 3.7710
 4.4210	 3.7280
 4.4240	 3.7140
 4.4280	 3.6780
 4.4320	 3.6690
 4.4360	 3.6800
 4.4400	 3.6780
 4.4430	 3.6530
 4.4470	 3.6670
 4.4510	 3.6310
 4.4550	 3.6060
 4.4590	 3.5980
 4.4630	 3.5900
 4.4660	 3.5840
 4.4700	 3.5880
 4.4740	 3.5700
 4.4780	 3.5570
 4.4820	 3.5480
 4.4860	 3.5540
 4.4900	 3.5440
 4.4930	 3.5490
 4.4970	 3.5130
 4.5010	 3.5190
 4.5050	 3.5000
 4.5090	 3.4460
 4.5130	 3.4240
 4.5170	 3.4460
 4.5210	 3.4430
 4.5250	 3.4400
 4.5290	 3.4350
 4.5330	 3.4240
 4.5370	 3.4110
 4.5410	 3.4360
 4.5450	 3.4240
 4.5490	 3.4500
 4.5530	 3.4510
 4.5570	 3.4390
 4.5610	 3.4010
 4.5650	 3.3830
 4.5690	 3.3610
 4.5730	 3.3560
 4.5770	 3.3510
 4.5810	 3.3630
 4.5850	 3.3680
 4.5890	 3.3830
 4.5930	 3.3490
 4.5970	 3.3500
 4.6010	 3.3490
 4.6050	 3.3580
 4.6090	 3.3200
 4.6130	 3.3070
 4.6170	 3.3050
 4.6220	 3.3430
 4.6260	 3.3480
 4.6300	 3.3160
 4.6340	 3.2830
 4.6380	 3.3070
 4.6420	 3.3110
 4.6460	 3.2960
 4.6510	 3.2410
 4.6550	 3.2240
 4.6590	 3.2310
 4.6630	 3.2750
 4.6670	 3.3140
 4.6720	 3.3270
 4.6760	 3.2900
 4.6800	 3.2920
 4.6840	 3.2840
 4.6880	 3.2840
 4.6930	 3.2570
 4.6970	 3.2720
 4.7010	 3.2680
 4.7050	 3.2720
 4.7100	 3.2800
 4.7140	 3.2840
 4.7180	 3.2430
 4.7230	 3.2710
 4.7270	 3.2700
 4.7310	 3.2770
 4.7360	 3.2920
 4.7400	 3.3020
 4.7440	 3.2740
 4.7490	 3.2920
 4.7530	 3.2820
 4.7570	 3.2880
 4.7620	 3.2960
 4.7660	 3.3120
 4.7700	 3.2920
 4.7750	 3.2940
 4.7790	 3.2990
 4.7840	 3.3140
 4.7880	 3.3190
 4.7920	 3.3230
 4.7970	 3.2840
 4.8010	 3.3230
 4.8060	 3.3490
 4.8100	 3.3780
 4.8150	 3.3630
 4.8190	 3.3840
 4.8240	 3.3630
 4.8280	 3.3450
 4.8330	 3.3480
 4.8370	 3.3470
 4.8420	 3.3150
 4.8460	 3.3340
 4.8510	 3.3380
 4.8550	 3.3810
 4.8600	 3.4100
 4.8640	 3.4300
 4.8690	 3.3900
 4.8740	 3.4050
 4.8780	 3.4080
 4.8830	 3.4060
 4.8870	 3.3770
 4.8920	 3.4150
 4.8970	 3.4380
 4.9010	 3.4830
 4.9060	 3.4780
 4.9100	 3.5250
 4.9150	 3.5080
 4.9200	 3.4890
 4.9240	 3.4730
 4.9290	 3.5190
 4.9340	 3.5430
 4.9390	 3.5640
 4.9430	 3.5510
 4.9480	 3.5750
 4.9530	 3.5910
 4.9570	 3.5990
 4.9620	 3.5930
 4.9670	 3.6410
 4.9720	 3.6500
 4.9760	 3.6770
 4.9810	 3.6420
 4.9860	 3.6900
 4.9910	 3.7010
 4.9960	 3.7120
 5.0000	 3.7500
 5.0050	 3.8020
 5.0100	 3.8100
 5.0150	 3.8540
 5.0200	 3.8260
 5.0250	 3.8460
 5.0300	 3.8570
 5.0340	 3.9000
 5.0390	 3.9130
 5.0440	 3.9330
 5.0490	 3.9320
 5.0540	 3.9830
 5.0590	 4.0030
 5.0640	 4.0370
 5.0690	 4.0030
 5.0740	 4.0420
 5.0790	 4.0720
 5.0840	 4.0830
 5.0890	 4.0650
 5.0940	 4.1150
 5.0990	 4.1560
 5.1040	 4.2110
 5.1090	 4.2190
 5.1140	 4.2320
 5.1190	 4.2060
 5.1240	 4.2290
 5.1290	 4.2430
 5.1340	 4.2980
 5.1390	 4.3040
 5.1440	 4.2880
 5.1490	 4.2980
 5.1550	 4.3700
 5.1600	 4.3900
 5.1650	 4.4220
 5.1700	 4.4200
 5.1750	 4.4290
 5.1800	 4.4120
 5.1850	 4.4490
 5.1910	 4.4660
 5.1960	 4.5040
 5.2010	 4.5130
 5.2060	 4.5510
 5.2110	 4.4940
 5.2170	 4.4830
 5.2220	 4.5050
 5.2270	 4.5550
 5.2330	 4.5290
 5.2380	 4.5280
 5.2430	 4.5210
 5.2480	 4.5540
 5.2540	 4.5530
 5.2590	 4.5670
 5.2640	 4.5490
 5.2700	 4.5700
 5.2750	 4.5630
 5.2800	 4.5830
 5.2860	 4.5350
 5.2910	 4.5170
 5.2970	 4.5350
 5.3020	 4.5780
 5.3080	 4.5750
 5.3130	 4.5820
 5.3180	 4.5570
 5.3240	 4.5530
 5.3290	 4.5630
 5.3350	 4.5820
 5.3400	 4.5020
 5.3460	 4.4600
 5.3510	 4.4300
 5.3570	 4.4610
 5.3620	 4.4660
 5.3680	 4.5120
 5.3740	 4.4800
 5.3790	 4.4670
 5.3850	 4.4410
 5.3900	 4.4460
 5.3960	 4.4250
 5.4010	 4.4420
 5.4070	 4.3910
 5.4130	 4.3400
 5.4180	 4.2290
 5.4240	 4.2160
 5.4300	 4.2780
 5.4350	 4.2960
 5.4410	 4.2600
 5.4470	 4.2700
 5.4530	 4.2660
 5.4580	 4.2170
 5.4640	 4.0980
 5.4700	 4.1020
 5.4760	 4.0660
 5.4810	 4.0730
