Name: Pinus strobus
Type: Vegetation
Class: Tree
Genus: Pinus
Species: strobus
Sample No.: PIST-1-25
Owner: UCSB
Wavelength Range: TIR
Origin: USA; Massachusetts; Harvard Forest
Collection Date: 7/8/2013
Description: Samples were collected as part of NSF Macrosystem Biology proposal titled: Collaborative Research: Thermal controls on ecosystem metabolism and function: scaling from leaves to canopies to regions. Samples were collected and overnighted to JPL facilities for processing. The same leaves were processed in the Nicolet and then measured using the ASD.
Measurement: Hemispherical reflectance
First Column: X
Second Column: Y
X Units: Wavelength (micrometers)
Y Units: Reflectance (percentage)
First X Value: 2.501
Last X Value: 15.387
Number of X Values: 1737
Additional Information: vegetation.tree.pinus.strobus.tir.pist-1-25.ucsb.nicolet.ancillary.txt

 2.5010	 3.4730
 2.5030	 3.6600
 2.5040	 3.5120
 2.5050	 3.2680
 2.5060	 3.5900
 2.5070	 3.8530
 2.5090	 3.7680
 2.5100	 3.7560
 2.5110	 3.4620
 2.5120	 3.2840
 2.5140	 3.3170
 2.5150	 3.6950
 2.5160	 3.9070
 2.5170	 3.7460
 2.5180	 3.4660
 2.5200	 3.7360
 2.5210	 3.7560
 2.5220	 3.5950
 2.5230	 3.6460
 2.5250	 3.8490
 2.5260	 3.8990
 2.5270	 3.7290
 2.5280	 3.7040
 2.5290	 3.9050
 2.5310	 3.8360
 2.5320	 3.7030
 2.5330	 3.4250
 2.5340	 3.5780
 2.5360	 3.7130
 2.5370	 3.6580
 2.5380	 3.6070
 2.5390	 3.7260
 2.5410	 3.6050
 2.5420	 3.4980
 2.5430	 3.5530
 2.5440	 3.8000
 2.5460	 3.8210
 2.5470	 3.8570
 2.5480	 3.7170
 2.5490	 3.6960
 2.5510	 3.4240
 2.5520	 3.4890
 2.5530	 3.7290
 2.5540	 3.6910
 2.5560	 3.5040
 2.5570	 3.6220
 2.5580	 3.7890
 2.5590	 3.7830
 2.5610	 3.7150
 2.5620	 3.7070
 2.5630	 3.7180
 2.5640	 3.6930
 2.5660	 3.5070
 2.5670	 3.6130
 2.5680	 3.6300
 2.5700	 3.6430
 2.5710	 3.6520
 2.5720	 3.8000
 2.5730	 3.6070
 2.5750	 3.3770
 2.5760	 3.3940
 2.5770	 3.6460
 2.5790	 3.5630
 2.5800	 3.7290
 2.5810	 3.7350
 2.5820	 3.6770
 2.5840	 3.5910
 2.5850	 3.6630
 2.5860	 3.6050
 2.5880	 3.8740
 2.5890	 3.8300
 2.5900	 3.7650
 2.5910	 3.8210
 2.5930	 4.0320
 2.5940	 4.0730
 2.5950	 3.8700
 2.5970	 3.7970
 2.5980	 3.8880
 2.5990	 3.9340
 2.6000	 3.7800
 2.6020	 3.6120
 2.6030	 3.6560
 2.6040	 3.5170
 2.6060	 3.4590
 2.6070	 3.4980
 2.6080	 3.5400
 2.6100	 3.5620
 2.6110	 3.7330
 2.6120	 3.7190
 2.6140	 3.7630
 2.6150	 3.4990
 2.6160	 3.3630
 2.6180	 3.3820
 2.6190	 3.3650
 2.6200	 3.1470
 2.6220	 2.9270
 2.6230	 2.8540
 2.6240	 3.0570
 2.6260	 3.1240
 2.6270	 3.0900
 2.6280	 3.0740
 2.6300	 3.0650
 2.6310	 2.9840
 2.6320	 3.1180
 2.6340	 3.1540
 2.6350	 2.9730
 2.6360	 2.8850
 2.6380	 2.8770
 2.6390	 2.9030
 2.6400	 3.0710
 2.6420	 3.1180
 2.6430	 3.0050
 2.6440	 2.7950
 2.6460	 2.8890
 2.6470	 3.0170
 2.6480	 3.1440
 2.6500	 3.2550
 2.6510	 3.2340
 2.6520	 3.0000
 2.6540	 2.8770
 2.6550	 2.7110
 2.6560	 2.8590
 2.6580	 2.9030
 2.6590	 3.0180
 2.6610	 3.0210
 2.6620	 2.9320
 2.6630	 2.9210
 2.6650	 3.0690
 2.6660	 2.7170
 2.6670	 2.5090
 2.6690	 2.4420
 2.6700	 2.4800
 2.6720	 2.6090
 2.6730	 2.6740
 2.6740	 2.6530
 2.6760	 2.6460
 2.6770	 2.5080
 2.6780	 2.4490
 2.6800	 2.3720
 2.6810	 2.3550
 2.6830	 2.4280
 2.6840	 2.6570
 2.6850	 2.3900
 2.6870	 2.1880
 2.6880	 2.3010
 2.6900	 2.5950
 2.6910	 2.4020
 2.6920	 2.3550
 2.6940	 2.1360
 2.6950	 2.0930
 2.6970	 2.0910
 2.6980	 2.1160
 2.6990	 2.1950
 2.7010	 2.1970
 2.7020	 2.0990
 2.7040	 2.0650
 2.7050	 2.0780
 2.7060	 2.0840
 2.7080	 2.0110
 2.7090	 2.1950
 2.7110	 2.3130
 2.7120	 2.0750
 2.7130	 1.9320
 2.7150	 2.0840
 2.7160	 2.0560
 2.7180	 2.0570
 2.7190	 2.1120
 2.7210	 2.2310
 2.7220	 2.1410
 2.7230	 2.0730
 2.7250	 1.9450
 2.7260	 2.1540
 2.7280	 2.1330
 2.7290	 1.9940
 2.7310	 1.9470
 2.7320	 2.1130
 2.7330	 2.0470
 2.7350	 2.0060
 2.7360	 2.1080
 2.7380	 2.1870
 2.7390	 2.3390
 2.7410	 2.3860
 2.7420	 1.9720
 2.7440	 1.8840
 2.7450	 1.8260
 2.7470	 1.7920
 2.7480	 1.9050
 2.7490	 1.5670
 2.7510	 1.5250
 2.7520	 1.9110
 2.7540	 1.5230
 2.7550	 1.7560
 2.7570	 2.1490
 2.7580	 1.6360
 2.7600	 1.8230
 2.7610	 2.1090
 2.7630	 1.8460
 2.7640	 1.7890
 2.7660	 1.5010
 2.7670	 1.4850
 2.7680	 1.7110
 2.7700	 2.1950
 2.7710	 2.1960
 2.7730	 1.7280
 2.7740	 1.7390
 2.7760	 2.0510
 2.7770	 1.8150
 2.7790	 1.7430
 2.7800	 2.2050
 2.7820	 2.2540
 2.7830	 1.7550
 2.7850	 1.7440
 2.7860	 1.7470
 2.7880	 1.6580
 2.7890	 1.6730
 2.7910	 1.8210
 2.7920	 1.6080
 2.7940	 1.6300
 2.7950	 1.6880
 2.7970	 1.7880
 2.7980	 1.9840
 2.8000	 2.0540
 2.8010	 1.7610
 2.8030	 1.6110
 2.8040	 1.6240
 2.8060	 1.7540
 2.8070	 1.7520
 2.8090	 1.7920
 2.8110	 1.8600
 2.8120	 1.9560
 2.8140	 1.8400
 2.8150	 1.9630
 2.8170	 2.0630
 2.8180	 1.9450
 2.8200	 1.6450
 2.8210	 1.5110
 2.8230	 1.5540
 2.8240	 1.8670
 2.8260	 1.7830
 2.8270	 1.6640
 2.8290	 1.6600
 2.8300	 2.0480
 2.8320	 2.1220
 2.8340	 1.8770
 2.8350	 1.6490
 2.8370	 1.7500
 2.8380	 1.6230
 2.8400	 1.6620
 2.8410	 1.8820
 2.8430	 1.7030
 2.8440	 1.5930
 2.8460	 1.7810
 2.8480	 1.8440
 2.8490	 1.6900
 2.8510	 1.6380
 2.8520	 1.9780
 2.8540	 2.0480
 2.8550	 1.8920
 2.8570	 1.8950
 2.8590	 2.1380
 2.8600	 1.9650
 2.8620	 1.8740
 2.8630	 1.8200
 2.8650	 1.6620
 2.8660	 1.6720
 2.8680	 2.0050
 2.8700	 1.9820
 2.8710	 2.0210
 2.8730	 2.1310
 2.8740	 2.0160
 2.8760	 1.8620
 2.8780	 1.8530
 2.8790	 1.5600
 2.8810	 1.9370
 2.8820	 2.2300
 2.8840	 1.8610
 2.8860	 1.2040
 2.8870	 1.0760
 2.8890	 1.6900
 2.8900	 2.2610
 2.8920	 2.2390
 2.8940	 2.1350
 2.8950	 1.8530
 2.8970	 1.7290
 2.8980	 1.5970
 2.9000	 1.6490
 2.9020	 1.7660
 2.9030	 1.8120
 2.9050	 1.8000
 2.9070	 1.8470
 2.9080	 1.9210
 2.9100	 1.9860
 2.9120	 1.9800
 2.9130	 1.9090
 2.9150	 1.7090
 2.9160	 1.7930
 2.9180	 1.5730
 2.9200	 1.4340
 2.9210	 1.7960
 2.9230	 2.0680
 2.9250	 2.0060
 2.9260	 2.0720
 2.9280	 1.9520
 2.9300	 1.9660
 2.9310	 1.9380
 2.9330	 1.9740
 2.9350	 1.7700
 2.9360	 1.5670
 2.9380	 1.4420
 2.9400	 1.7530
 2.9410	 1.9210
 2.9430	 2.1520
 2.9450	 1.6000
 2.9460	 1.4740
 2.9480	 1.3480
 2.9500	 1.1780
 2.9510	 1.6680
 2.9530	 2.2680
 2.9550	 2.1620
 2.9560	 2.0160
 2.9580	 1.5140
 2.9600	 1.4940
 2.9610	 2.2670
 2.9630	 3.0220
 2.9650	 3.3660
 2.9660	 3.7010
 2.9680	 2.0940
 2.9700	 -0.358
 2.9720	 -0.602
 2.9730	 -0.019
 2.9750	 0.2550
 2.9770	 0.6550
 2.9780	 -0.294
 2.9800	 1.2730
 2.9820	 1.0940
 2.9840	 1.7440
 2.9850	 3.3810
 2.9870	 2.4830
 2.9890	 0.4740
 2.9900	 1.6600
 2.9920	 3.6870
 2.9940	 5.8660
 2.9960	 4.5410
 2.9970	 2.1070
 2.9990	 2.0620
 3.0010	 1.9150
 3.0030	 2.2550
 3.0040	 1.9400
 3.0060	 1.5340
 3.0080	 0.8960
 3.0100	 1.1060
 3.0110	 2.1410
 3.0130	 3.0820
 3.0150	 2.7880
 3.0170	 2.7960
 3.0180	 2.6830
 3.0200	 2.0720
 3.0220	 1.9170
 3.0240	 1.7920
 3.0250	 1.9340
 3.0270	 1.6980
 3.0290	 1.6420
 3.0310	 1.5010
 3.0320	 1.8620
 3.0340	 1.6550
 3.0360	 2.6560
 3.0380	 2.9700
 3.0400	 1.1190
 3.0410	 0.0630
 3.0430	 1.4410
 3.0450	 4.2460
 3.0470	 4.1760
 3.0480	 3.0830
 3.0500	 1.4150
 3.0520	 0.4580
 3.0540	 2.1060
 3.0560	 3.0890
 3.0570	 4.5890
 3.0590	 5.0280
 3.0610	 2.6040
 3.0630	 4.1030
 3.0650	 3.1330
 3.0660	 1.4040
 3.0680	 1.1450
 3.0700	 1.0600
 3.0720	 1.5070
 3.0740	 1.1880
 3.0760	 1.3100
 3.0770	 1.6360
 3.0790	 1.7520
 3.0810	 1.6370
 3.0830	 1.7390
 3.0850	 1.7220
 3.0870	 1.8290
 3.0880	 1.9190
 3.0900	 2.1260
 3.0920	 2.5080
 3.0940	 2.6590
 3.0960	 1.9700
 3.0980	 2.0950
 3.0990	 2.3090
 3.1010	 2.1410
 3.1030	 1.8330
 3.1050	 1.7160
 3.1070	 1.5600
 3.1090	 2.0030
 3.1110	 2.2010
 3.1120	 1.7620
 3.1140	 2.0110
 3.1160	 1.6970
 3.1180	 1.1500
 3.1200	 1.5590
 3.1220	 1.3870
 3.1240	 0.9570
 3.1260	 1.1420
 3.1270	 1.4840
 3.1290	 1.3760
 3.1310	 1.5160
 3.1330	 1.6660
 3.1350	 2.1650
 3.1370	 2.8420
 3.1390	 2.2130
 3.1410	 2.0890
 3.1430	 2.7830
 3.1450	 2.5160
 3.1460	 2.5670
 3.1480	 2.7310
 3.1500	 1.4740
 3.1520	 0.4610
 3.1540	 1.4490
 3.1560	 1.7760
 3.1580	 1.5150
 3.1600	 0.9500
 3.1620	 2.3760
 3.1640	 2.9050
 3.1660	 3.6600
 3.1680	 4.4450
 3.1700	 2.4560
 3.1710	 1.4260
 3.1730	 2.2670
 3.1750	 2.0400
 3.1770	 1.5860
 3.1790	 1.3410
 3.1810	 3.5420
 3.1830	 2.7070
 3.1850	 1.6120
 3.1870	 1.6680
 3.1890	 1.5930
 3.1910	 2.1020
 3.1930	 2.3420
 3.1950	 1.9450
 3.1970	 1.6170
 3.1990	 1.4800
 3.2010	 1.5460
 3.2030	 1.7650
 3.2050	 1.7980
 3.2070	 1.6050
 3.2090	 1.8690
 3.2110	 1.8820
 3.2130	 1.8320
 3.2150	 1.7360
 3.2170	 1.7700
 3.2190	 1.8530
 3.2210	 2.0590
 3.2230	 1.9650
 3.2250	 1.7870
 3.2270	 1.5360
 3.2290	 1.6520
 3.2310	 1.5870
 3.2330	 1.5090
 3.2350	 1.6890
 3.2370	 1.8990
 3.2390	 1.5780
 3.2410	 1.7130
 3.2430	 1.9390
 3.2450	 1.7500
 3.2470	 1.5580
 3.2490	 1.7770
 3.2510	 1.7450
 3.2530	 1.8900
 3.2550	 1.8700
 3.2570	 1.5530
 3.2590	 1.5620
 3.2610	 1.6630
 3.2630	 1.5160
 3.2650	 1.5430
 3.2670	 1.5220
 3.2690	 1.4600
 3.2720	 1.5700
 3.2740	 2.1300
 3.2760	 1.9660
 3.2780	 1.6380
 3.2800	 1.5870
 3.2820	 1.5920
 3.2840	 1.6910
 3.2860	 1.8650
 3.2880	 1.6900
 3.2900	 1.6900
 3.2920	 1.9540
 3.2940	 1.5620
 3.2960	 1.3980
 3.2990	 1.7360
 3.3010	 1.6610
 3.3030	 1.5430
 3.3050	 1.5360
 3.3070	 1.7240
 3.3090	 1.4150
 3.3110	 1.7680
 3.3130	 2.3490
 3.3150	 2.3650
 3.3180	 1.8440
 3.3200	 1.6090
 3.3220	 1.8110
 3.3240	 1.9790
 3.3260	 1.6940
 3.3280	 1.7900
 3.3300	 1.9190
 3.3330	 2.2130
 3.3350	 2.0220
 3.3370	 1.8260
 3.3390	 1.8590
 3.3410	 1.8460
 3.3430	 1.7200
 3.3450	 1.6020
 3.3480	 1.4930
 3.3500	 1.5830
 3.3520	 1.5720
 3.3540	 1.5810
 3.3560	 1.6660
 3.3580	 1.7920
 3.3610	 1.8480
 3.3630	 1.7270
 3.3650	 1.5180
 3.3670	 1.6900
 3.3690	 1.4200
 3.3720	 1.4560
 3.3740	 1.5300
 3.3760	 1.6160
 3.3780	 1.5400
 3.3800	 1.5320
 3.3830	 1.6660
 3.3850	 1.8170
 3.3870	 1.3900
 3.3890	 1.2450
 3.3910	 1.3250
 3.3940	 1.5870
 3.3960	 1.5990
 3.3980	 1.5650
 3.4000	 1.5040
 3.4020	 1.5710
 3.4050	 1.4440
 3.4070	 1.4520
 3.4090	 1.4690
 3.4110	 1.6140
 3.4140	 1.6250
 3.4160	 1.6440
 3.4180	 1.7740
 3.4200	 2.0890
 3.4230	 2.2460
 3.4250	 2.3930
 3.4270	 2.5090
 3.4290	 2.7950
 3.4320	 2.6260
 3.4340	 2.5530
 3.4360	 2.5000
 3.4390	 2.4430
 3.4410	 2.2940
 3.4430	 2.2630
 3.4450	 2.3040
 3.4480	 2.3120
 3.4500	 2.2160
 3.4520	 2.0660
 3.4550	 1.7610
 3.4570	 1.8970
 3.4590	 2.2730
 3.4620	 2.5650
 3.4640	 2.3380
 3.4660	 2.1470
 3.4680	 2.0050
 3.4710	 2.0690
 3.4730	 2.1370
 3.4750	 2.0940
 3.4780	 1.9000
 3.4800	 1.8830
 3.4820	 1.9170
 3.4850	 1.9750
 3.4870	 1.9390
 3.4890	 1.8900
 3.4920	 1.7060
 3.4940	 1.6600
 3.4970	 1.8230
 3.4990	 1.9600
 3.5010	 1.7920
 3.5040	 1.9150
 3.5060	 2.1600
 3.5080	 2.5570
 3.5110	 2.8960
 3.5130	 2.9260
 3.5160	 2.6700
 3.5180	 2.5330
 3.5200	 2.4730
 3.5230	 2.5370
 3.5250	 2.5320
 3.5270	 2.4630
 3.5300	 2.2000
 3.5320	 2.1620
 3.5350	 2.1500
 3.5370	 2.2470
 3.5400	 2.2070
 3.5420	 2.0520
 3.5440	 2.0040
 3.5470	 2.2580
 3.5490	 2.3080
 3.5520	 1.9690
 3.5540	 1.8270
 3.5570	 1.9990
 3.5590	 2.1290
 3.5610	 2.1620
 3.5640	 2.0870
 3.5660	 2.1840
 3.5690	 2.1520
 3.5710	 2.2300
 3.5740	 2.0880
 3.5760	 2.0830
 3.5790	 2.1700
 3.5810	 2.1820
 3.5840	 2.0900
 3.5860	 2.0800
 3.5890	 2.1500
 3.5910	 2.1940
 3.5930	 2.1280
 3.5960	 2.1130
 3.5980	 1.7620
 3.6010	 2.2680
 3.6030	 2.5520
 3.6060	 2.2510
 3.6080	 1.9110
 3.6110	 2.0360
 3.6140	 2.2270
 3.6160	 2.4110
 3.6190	 2.3120
 3.6210	 2.1150
 3.6240	 1.9150
 3.6260	 1.9760
 3.6290	 2.1200
 3.6310	 2.2500
 3.6340	 2.2550
 3.6360	 2.1570
 3.6390	 2.1350
 3.6410	 2.1900
 3.6440	 2.0360
 3.6470	 1.9910
 3.6490	 2.0580
 3.6520	 2.1530
 3.6540	 2.1410
 3.6570	 2.1790
 3.6590	 2.2070
 3.6620	 2.2140
 3.6650	 2.1050
 3.6670	 2.2010
 3.6700	 2.2340
 3.6720	 2.2480
 3.6750	 2.1200
 3.6780	 1.9700
 3.6800	 1.9710
 3.6830	 2.0460
 3.6850	 2.1190
 3.6880	 2.2380
 3.6910	 2.1660
 3.6930	 2.1600
 3.6960	 2.1000
 3.6990	 2.0950
 3.7010	 2.1290
 3.7040	 2.1830
 3.7060	 2.1080
 3.7090	 2.2050
 3.7120	 2.1910
 3.7140	 2.0360
 3.7170	 1.9600
 3.7200	 2.0840
 3.7220	 2.2080
 3.7250	 2.3140
 3.7280	 2.1840
 3.7300	 2.1940
 3.7330	 2.0540
 3.7360	 2.0800
 3.7390	 2.1330
 3.7410	 2.0260
 3.7440	 1.8920
 3.7470	 2.0300
 3.7490	 2.2640
 3.7520	 2.3740
 3.7550	 2.2940
 3.7580	 2.0930
 3.7600	 2.0630
 3.7630	 2.3530
 3.7660	 2.3810
 3.7680	 2.3710
 3.7710	 2.1170
 3.7740	 2.0740
 3.7770	 2.1150
 3.7790	 2.1430
 3.7820	 2.1420
 3.7850	 2.1570
 3.7880	 2.1340
 3.7900	 2.2340
 3.7930	 2.2190
 3.7960	 2.1990
 3.7990	 2.2690
 3.8020	 2.3140
 3.8040	 2.3470
 3.8070	 2.3430
 3.8100	 2.2490
 3.8130	 2.4670
 3.8160	 2.4690
 3.8180	 2.4750
 3.8210	 2.3240
 3.8240	 2.3070
 3.8270	 2.4670
 3.8300	 2.6030
 3.8330	 2.4440
 3.8350	 2.3610
 3.8380	 2.2520
 3.8410	 2.3580
 3.8440	 2.3760
 3.8470	 1.9760
 3.8500	 1.6790
 3.8520	 2.0430
 3.8550	 2.5580
 3.8580	 2.6340
 3.8610	 2.3740
 3.8640	 2.3790
 3.8670	 2.3460
 3.8700	 2.4390
 3.8730	 2.3860
 3.8750	 2.2710
 3.8780	 2.2260
 3.8810	 2.3560
 3.8840	 2.3570
 3.8870	 2.3400
 3.8900	 2.2630
 3.8930	 2.0970
 3.8960	 1.9640
 3.8990	 2.1540
 3.9020	 2.3070
 3.9050	 2.3240
 3.9080	 2.2340
 3.9110	 2.4220
 3.9140	 2.5590
 3.9160	 2.4720
 3.9190	 2.2740
 3.9220	 2.3480
 3.9250	 2.3390
 3.9280	 2.2400
 3.9310	 2.1580
 3.9340	 2.3530
 3.9370	 2.4000
 3.9400	 2.3170
 3.9430	 2.2950
 3.9460	 2.4070
 3.9490	 2.3680
 3.9520	 2.3830
 3.9550	 2.2860
 3.9580	 2.2890
 3.9610	 2.1950
 3.9640	 2.2200
 3.9670	 2.1870
 3.9700	 2.2330
 3.9730	 2.1880
 3.9770	 2.2730
 3.9800	 2.2740
 3.9830	 2.2910
 3.9860	 2.2350
 3.9890	 2.3790
 3.9920	 2.3850
 3.9950	 2.3730
 3.9980	 2.3990
 4.0010	 2.4810
 4.0040	 2.3740
 4.0070	 2.3630
 4.0100	 2.3160
 4.0130	 2.3410
 4.0170	 2.3000
 4.0200	 2.3420
 4.0230	 2.3260
 4.0260	 2.4400
 4.0290	 2.4650
 4.0320	 2.4380
 4.0350	 2.4290
 4.0380	 2.4950
 4.0420	 2.3600
 4.0450	 2.3490
 4.0480	 2.3360
 4.0510	 2.4080
 4.0540	 2.3770
 4.0570	 2.4050
 4.0610	 2.3800
 4.0640	 2.4420
 4.0670	 2.4540
 4.0700	 2.4540
 4.0730	 2.3540
 4.0770	 2.3250
 4.0800	 2.2220
 4.0830	 2.2360
 4.0860	 2.2610
 4.0890	 2.4090
 4.0930	 2.3310
 4.0960	 2.2800
 4.0990	 2.2870
 4.1020	 2.3970
 4.1060	 2.4110
 4.1090	 2.3460
 4.1120	 2.0740
 4.1150	 2.2050
 4.1190	 2.4100
 4.1220	 2.3740
 4.1250	 2.1480
 4.1280	 2.3360
 4.1320	 2.3770
 4.1350	 2.4080
 4.1380	 2.4690
 4.1420	 2.5340
 4.1450	 2.4250
 4.1480	 2.3700
 4.1520	 2.2820
 4.1550	 2.3020
 4.1580	 2.3400
 4.1620	 2.4570
 4.1650	 2.4330
 4.1680	 2.4130
 4.1720	 2.3420
 4.1750	 2.3300
 4.1780	 2.2370
 4.1820	 2.3300
 4.1850	 2.3720
 4.1890	 2.4400
 4.1920	 2.3340
 4.1950	 2.3340
 4.1990	 2.4790
 4.2020	 2.6750
 4.2060	 2.4110
 4.2090	 2.1660
 4.2120	 1.9410
 4.2160	 2.1550
 4.2190	 2.2290
 4.2230	 2.0860
 4.2260	 2.0450
 4.2300	 2.0550
 4.2330	 1.6580
 4.2360	 1.9960
 4.2400	 1.8010
 4.2430	 2.2100
 4.2470	 2.2620
 4.2500	 2.0320
 4.2540	 1.9240
 4.2570	 1.8740
 4.2610	 1.7300
 4.2640	 1.6960
 4.2680	 1.0980
 4.2710	 0.9370
 4.2750	 1.7560
 4.2780	 2.4690
 4.2820	 2.3480
 4.2850	 2.4470
 4.2890	 2.6270
 4.2930	 2.7220
 4.2960	 2.4160
 4.3000	 2.4330
 4.3030	 2.3070
 4.3070	 2.1370
 4.3100	 2.0710
 4.3140	 2.3250
 4.3180	 2.2210
 4.3210	 2.3270
 4.3250	 2.3080
 4.3280	 2.2630
 4.3320	 2.1670
 4.3360	 2.2720
 4.3390	 2.2690
 4.3430	 2.3690
 4.3470	 2.3530
 4.3500	 2.2970
 4.3540	 2.1910
 4.3570	 2.2240
 4.3610	 2.1260
 4.3650	 2.2160
 4.3680	 2.2970
 4.3720	 2.3110
 4.3760	 2.1650
 4.3800	 2.1600
 4.3830	 2.1100
 4.3870	 2.1880
 4.3910	 2.2270
 4.3940	 2.3300
 4.3980	 2.2500
 4.4020	 2.2970
 4.4060	 2.2490
 4.4090	 2.2730
 4.4130	 2.1750
 4.4170	 2.2310
 4.4210	 2.2600
 4.4240	 2.2760
 4.4280	 2.1900
 4.4320	 2.2140
 4.4360	 2.1290
 4.4400	 2.1050
 4.4430	 2.1790
 4.4470	 2.2460
 4.4510	 2.2030
 4.4550	 2.1550
 4.4590	 2.0060
 4.4620	 1.9980
 4.4660	 2.0350
 4.4700	 2.2370
 4.4740	 2.2160
 4.4780	 2.2120
 4.4820	 2.1850
 4.4860	 2.1850
 4.4900	 2.0370
 4.4930	 2.0870
 4.4970	 2.1270
 4.5010	 2.2130
 4.5050	 2.1800
 4.5090	 2.1820
 4.5130	 2.1270
 4.5170	 2.2030
 4.5210	 2.1180
 4.5250	 2.1000
 4.5290	 2.0350
 4.5330	 2.0940
 4.5370	 2.0670
 4.5410	 2.0270
 4.5450	 1.9940
 4.5490	 2.0880
 4.5530	 2.1210
 4.5570	 2.1980
 4.5610	 2.1470
 4.5650	 2.2410
 4.5690	 2.2260
 4.5730	 2.2190
 4.5770	 2.2080
 4.5810	 2.2160
 4.5850	 2.1650
 4.5890	 2.1250
 4.5930	 2.0080
 4.5970	 2.0530
 4.6010	 2.1040
 4.6050	 2.0630
 4.6090	 1.7850
 4.6130	 1.8230
 4.6170	 1.7530
 4.6220	 1.7990
 4.6260	 2.0340
 4.6300	 2.0340
 4.6340	 1.9820
 4.6380	 2.2000
 4.6420	 2.2450
 4.6460	 2.2460
 4.6510	 2.2290
 4.6550	 2.1640
 4.6590	 1.9110
 4.6630	 1.9120
 4.6670	 2.0370
 4.6720	 2.0770
 4.6760	 1.9100
 4.6800	 2.1020
 4.6840	 2.2020
 4.6880	 2.1210
 4.6930	 1.9540
 4.6970	 2.0210
 4.7010	 2.0840
 4.7050	 2.0500
 4.7100	 2.0340
 4.7140	 2.1650
 4.7180	 2.1380
 4.7230	 2.0960
 4.7270	 2.0490
 4.7310	 2.1220
 4.7360	 2.0650
 4.7400	 2.1630
 4.7440	 2.1960
 4.7490	 2.1020
 4.7530	 2.0050
 4.7570	 2.0580
 4.7620	 2.0790
 4.7660	 2.1860
 4.7700	 2.1400
 4.7750	 2.2030
 4.7790	 2.2060
 4.7840	 2.0710
 4.7880	 2.2210
 4.7920	 2.3720
 4.7970	 2.1180
 4.8010	 2.1960
 4.8060	 2.1680
 4.8100	 2.1980
 4.8150	 2.1080
 4.8190	 2.0360
 4.8240	 2.1070
 4.8280	 2.2340
 4.8330	 2.0550
 4.8370	 2.0450
 4.8420	 2.0930
 4.8460	 2.2260
 4.8510	 2.1360
 4.8550	 2.0750
 4.8600	 2.0250
 4.8640	 2.1110
 4.8690	 2.0000
 4.8730	 1.9970
 4.8780	 2.1090
 4.8830	 2.2200
 4.8870	 2.1540
 4.8920	 2.1510
 4.8960	 2.0300
 4.9010	 2.0040
 4.9060	 2.0840
 4.9100	 2.2250
 4.9150	 2.1460
 4.9200	 2.1250
 4.9240	 2.0820
 4.9290	 2.2420
 4.9340	 2.2130
 4.9380	 2.1730
 4.9430	 2.2030
 4.9480	 2.3090
 4.9530	 2.1880
 4.9570	 2.1190
 4.9620	 1.9940
 4.9670	 2.1160
 4.9720	 2.1380
 4.9760	 2.1740
 4.9810	 2.0780
 4.9860	 2.1100
 4.9910	 2.1810
 4.9960	 2.3340
 5.0000	 2.3120
 5.0050	 2.2930
 5.0100	 2.1690
 5.0150	 2.1960
 5.0200	 2.1470
 5.0250	 2.1360
 5.0290	 2.1110
 5.0340	 2.2700
 5.0390	 2.2770
 5.0440	 2.3470
 5.0490	 2.3110
 5.0540	 2.2800
 5.0590	 2.1650
 5.0640	 2.1840
 5.0690	 2.1450
 5.0740	 2.2200
 5.0790	 2.2020
 5.0840	 2.2820
 5.0890	 2.2860
 5.0940	 2.2570
 5.0990	 2.1960
 5.1040	 2.1280
 5.1090	 2.0530
 5.1140	 2.2740
 5.1190	 2.2320
 5.1240	 2.1950
 5.1290	 2.0830
 5.1340	 2.1430
 5.1390	 2.1630
 5.1440	 2.1300
 5.1490	 2.0710
 5.1540	 2.2540
 5.1600	 2.3220
 5.1650	 2.3060
 5.1700	 2.1990
 5.1750	 2.2950
 5.1800	 2.2360
 5.1850	 2.1600
 5.1910	 2.1090
 5.1960	 2.2490
 5.2010	 2.1460
 5.2060	 2.1630
 5.2110	 2.1920
 5.2170	 2.2460
 5.2220	 2.1650
 5.2270	 2.2660
 5.2320	 2.2780
 5.2380	 2.3320
 5.2430	 2.2990
 5.2480	 2.3390
 5.2540	 2.3290
 5.2590	 2.3060
 5.2640	 2.3090
 5.2700	 2.4110
 5.2750	 2.4210
 5.2800	 2.3810
 5.2860	 2.3460
 5.2910	 2.4310
 5.2970	 2.3330
 5.3020	 2.4170
 5.3070	 2.3130
 5.3130	 2.2380
 5.3180	 2.1800
 5.3240	 2.1940
 5.3290	 2.1200
 5.3350	 2.1720
 5.3400	 2.1710
 5.3460	 2.3710
 5.3510	 2.3150
 5.3570	 2.2100
 5.3620	 2.1550
 5.3680	 2.2390
 5.3730	 2.2040
 5.3790	 2.2620
 5.3850	 2.2090
 5.3900	 2.2840
 5.3960	 2.2220
 5.4010	 2.2390
 5.4070	 2.2620
 5.4130	 2.2730
 5.4180	 1.9840
 5.4240	 2.0500
 5.4300	 2.1350
 5.4350	 2.1780
 5.4410	 2.0990
 5.4470	 2.0790
 5.4530	 2.0570
 5.4580	 2.2170
