Name: Acacia visco
Type: vegetation
Class: Tree
Genus: Acacia
Species: visco
Sample No.: JPL159
Owner: JPL
Wavelength Range: VSWIR
Origin: 34.1258; -118.11388; WGS84
Collection Date: 9/14/2016
Description: Samples were collected at the Huntington Garden in San Marino California as part of a JPL Subcontract studying HyTES imagery. Samples were taken to JPL and processed within 48 hours of collection. The same leaves were processed in the Nicolet and then measured using the ASD.
Measurement: Bidirectional reflectance
First Column: X
Second Column: Y
X Units: Wavelength (micrometer)
Y Units: Reflectance (percentage)
First X Value: 0.35
Last X Value: 2.5
Number of X Values: 2151
Additional Information: vegetation.tree.acacia.visco.vswir.jpl159.jpl.asd.ancillary.txt

 0.3500	 3.5490
 0.3510	 3.6640
 0.3520	 3.6840
 0.3530	 3.7120
 0.3540	 3.7950
 0.3550	 3.5430
 0.3560	 3.4740
 0.3570	 3.5740
 0.3580	 3.5680
 0.3590	 3.5350
 0.3600	 3.4900
 0.3610	 3.4610
 0.3620	 3.5090
 0.3630	 3.5270
 0.3640	 3.4980
 0.3650	 3.4470
 0.3660	 3.4640
 0.3670	 3.4550
 0.3680	 3.4110
 0.3690	 3.3830
 0.3700	 3.3760
 0.3710	 3.4080
 0.3720	 3.4360
 0.3730	 3.2840
 0.3740	 3.3030
 0.3750	 3.3920
 0.3760	 3.3640
 0.3770	 3.3900
 0.3780	 3.3500
 0.3790	 3.2590
 0.3800	 3.2460
 0.3810	 3.2490
 0.3820	 3.2660
 0.3830	 3.2890
 0.3840	 3.2870
 0.3850	 3.2770
 0.3860	 3.2650
 0.3870	 3.2580
 0.3880	 3.2750
 0.3890	 3.2810
 0.3900	 3.2590
 0.3910	 3.2240
 0.3920	 3.2160
 0.3930	 3.2160
 0.3940	 3.2030
 0.3950	 3.1730
 0.3960	 3.1930
 0.3970	 3.2390
 0.3980	 3.2450
 0.3990	 3.2120
 0.4000	 3.1960
 0.4010	 3.2080
 0.4020	 3.1870
 0.4030	 3.1850
 0.4040	 3.1920
 0.4050	 3.1920
 0.4060	 3.1830
 0.4070	 3.2040
 0.4080	 3.2340
 0.4090	 3.2200
 0.4100	 3.2110
 0.4110	 3.2130
 0.4120	 3.2220
 0.4130	 3.2280
 0.4140	 3.2280
 0.4150	 3.2340
 0.4160	 3.2580
 0.4170	 3.2970
 0.4180	 3.3210
 0.4190	 3.3300
 0.4200	 3.3550
 0.4210	 3.3800
 0.4220	 3.4130
 0.4230	 3.4560
 0.4240	 3.4950
 0.4250	 3.5200
 0.4260	 3.5410
 0.4270	 3.5750
 0.4280	 3.6120
 0.4290	 3.6460
 0.4300	 3.6770
 0.4310	 3.7110
 0.4320	 3.7530
 0.4330	 3.7920
 0.4340	 3.8210
 0.4350	 3.8480
 0.4360	 3.8850
 0.4370	 3.9250
 0.4380	 3.9450
 0.4390	 3.9650
 0.4400	 3.9910
 0.4410	 4.0180
 0.4420	 4.0380
 0.4430	 4.0560
 0.4440	 4.0730
 0.4450	 4.0920
 0.4460	 4.1290
 0.4470	 4.1580
 0.4480	 4.1730
 0.4490	 4.1880
 0.4500	 4.2040
 0.4510	 4.2270
 0.4520	 4.2560
 0.4530	 4.2650
 0.4540	 4.2710
 0.4550	 4.2830
 0.4560	 4.2980
 0.4570	 4.3050
 0.4580	 4.3040
 0.4590	 4.3030
 0.4600	 4.3130
 0.4610	 4.3220
 0.4620	 4.3230
 0.4630	 4.3160
 0.4640	 4.3220
 0.4650	 4.3260
 0.4660	 4.3210
 0.4670	 4.3130
 0.4680	 4.3240
 0.4690	 4.3310
 0.4700	 4.3160
 0.4710	 4.3110
 0.4720	 4.3100
 0.4730	 4.3110
 0.4740	 4.3140
 0.4750	 4.3050
 0.4760	 4.2950
 0.4770	 4.2940
 0.4780	 4.3040
 0.4790	 4.3060
 0.4800	 4.3070
 0.4810	 4.3150
 0.4820	 4.3110
 0.4830	 4.3080
 0.4840	 4.3130
 0.4850	 4.3240
 0.4860	 4.3350
 0.4870	 4.3410
 0.4880	 4.3430
 0.4890	 4.3480
 0.4900	 4.3580
 0.4910	 4.3720
 0.4920	 4.3860
 0.4930	 4.3970
 0.4940	 4.4120
 0.4950	 4.4330
 0.4960	 4.4500
 0.4970	 4.4780
 0.4980	 4.5120
 0.4990	 4.5450
 0.5000	 4.5820
 0.5010	 4.6210
 0.5020	 4.6630
 0.5030	 4.7120
 0.5040	 4.7630
 0.5050	 4.8250
 0.5060	 4.8990
 0.5070	 4.9720
 0.5080	 5.0500
 0.5090	 5.1380
 0.5100	 5.2350
 0.5110	 5.3330
 0.5120	 5.4410
 0.5130	 5.5610
 0.5140	 5.6870
 0.5150	 5.8190
 0.5160	 5.9580
 0.5170	 6.1030
 0.5180	 6.2550
 0.5190	 6.4170
 0.5200	 6.5840
 0.5210	 6.7510
 0.5220	 6.9240
 0.5230	 7.0970
 0.5240	 7.2680
 0.5250	 7.4340
 0.5260	 7.5940
 0.5270	 7.7460
 0.5280	 7.8880
 0.5290	 8.0290
 0.5300	 8.1570
 0.5310	 8.2710
 0.5320	 8.3780
 0.5330	 8.4780
 0.5340	 8.5690
 0.5350	 8.6490
 0.5360	 8.7230
 0.5370	 8.7880
 0.5380	 8.8470
 0.5390	 8.9100
 0.5400	 8.9800
 0.5410	 9.0570
 0.5420	 9.1340
 0.5430	 9.1990
 0.5440	 9.2400
 0.5450	 9.2590
 0.5460	 9.2630
 0.5470	 9.2510
 0.5480	 9.2420
 0.5490	 9.2450
 0.5500	 9.2530
 0.5510	 9.2550
 0.5520	 9.2480
 0.5530	 9.2290
 0.5540	 9.2010
 0.5550	 9.1630
 0.5560	 9.1130
 0.5570	 9.0520
 0.5580	 8.9870
 0.5590	 8.9150
 0.5600	 8.8360
 0.5610	 8.7520
 0.5620	 8.6620
 0.5630	 8.5690
 0.5640	 8.4730
 0.5650	 8.3750
 0.5660	 8.2730
 0.5670	 8.1660
 0.5680	 8.0570
 0.5690	 7.9470
 0.5700	 7.8360
 0.5710	 7.7220
 0.5720	 7.6100
 0.5730	 7.5020
 0.5740	 7.4000
 0.5750	 7.3000
 0.5760	 7.2110
 0.5770	 7.1310
 0.5780	 7.0570
 0.5790	 6.9820
 0.5800	 6.9120
 0.5810	 6.8480
 0.5820	 6.7910
 0.5830	 6.7350
 0.5840	 6.6790
 0.5850	 6.6250
 0.5860	 6.5750
 0.5870	 6.5320
 0.5880	 6.4910
 0.5890	 6.4470
 0.5900	 6.4050
 0.5910	 6.3710
 0.5920	 6.3420
 0.5930	 6.3100
 0.5940	 6.2830
 0.5950	 6.2600
 0.5960	 6.2400
 0.5970	 6.2200
 0.5980	 6.2010
 0.5990	 6.1800
 0.6000	 6.1590
 0.6010	 6.1320
 0.6020	 6.1000
 0.6030	 6.0660
 0.6040	 6.0290
 0.6050	 5.9860
 0.6060	 5.9390
 0.6070	 5.8900
 0.6080	 5.8360
 0.6090	 5.7890
 0.6100	 5.7530
 0.6110	 5.7240
 0.6120	 5.6670
 0.6130	 5.5920
 0.6140	 5.5130
 0.6150	 5.4480
 0.6160	 5.3890
 0.6170	 5.3340
 0.6180	 5.2860
 0.6190	 5.2440
 0.6200	 5.2070
 0.6210	 5.1740
 0.6220	 5.1400
 0.6230	 5.1120
 0.6240	 5.0860
 0.6250	 5.0620
 0.6260	 5.0440
 0.6270	 5.0310
 0.6280	 5.0200
 0.6290	 5.0110
 0.6300	 5.0040
 0.6310	 4.9950
 0.6320	 4.9810
 0.6330	 4.9650
 0.6340	 4.9470
 0.6350	 4.9270
 0.6360	 4.9010
 0.6370	 4.8700
 0.6380	 4.8350
 0.6390	 4.7950
 0.6400	 4.7510
 0.6410	 4.7080
 0.6420	 4.6630
 0.6430	 4.6140
 0.6440	 4.5610
 0.6450	 4.5110
 0.6460	 4.4610
 0.6470	 4.4100
 0.6480	 4.3660
 0.6490	 4.3260
 0.6500	 4.2890
 0.6510	 4.2570
 0.6520	 4.2250
 0.6530	 4.1940
 0.6540	 4.1680
 0.6550	 4.1380
 0.6560	 4.1040
 0.6570	 4.0670
 0.6580	 4.0270
 0.6590	 3.9850
 0.6600	 3.9410
 0.6610	 3.8960
 0.6620	 3.8530
 0.6630	 3.8110
 0.6640	 3.7710
 0.6650	 3.7340
 0.6660	 3.7040
 0.6670	 3.6760
 0.6680	 3.6520
 0.6690	 3.6360
 0.6700	 3.6240
 0.6710	 3.6170
 0.6720	 3.6140
 0.6730	 3.6130
 0.6740	 3.6170
 0.6750	 3.6250
 0.6760	 3.6340
 0.6770	 3.6500
 0.6780	 3.6680
 0.6790	 3.6880
 0.6800	 3.7150
 0.6810	 3.7480
 0.6820	 3.7850
 0.6830	 3.8290
 0.6840	 3.8820
 0.6850	 3.9480
 0.6860	 4.0250
 0.6870	 4.1140
 0.6880	 4.2200
 0.6890	 4.3480
 0.6900	 4.5040
 0.6910	 4.6890
 0.6920	 4.9090
 0.6930	 5.1680
 0.6940	 5.4670
 0.6950	 5.8070
 0.6960	 6.1920
 0.6970	 6.6220
 0.6980	 7.0930
 0.6990	 7.6010
 0.7000	 8.1490
 0.7010	 8.7290
 0.7020	 9.3270
 0.7030	 9.9510
 0.7040	10.5950
 0.7050	11.2520
 0.7060	11.9230
 0.7070	12.6020
 0.7080	13.2860
 0.7090	13.9740
 0.7100	14.6720
 0.7110	15.3770
 0.7120	16.0850
 0.7130	16.7940
 0.7140	17.5010
 0.7150	18.2100
 0.7160	18.9200
 0.7170	19.6260
 0.7180	20.3310
 0.7190	21.0300
 0.7200	21.7160
 0.7210	22.3970
 0.7220	23.0650
 0.7230	23.7140
 0.7240	24.3470
 0.7250	24.9630
 0.7260	25.5580
 0.7270	26.1310
 0.7280	26.6830
 0.7290	27.2100
 0.7300	27.7140
 0.7310	28.1930
 0.7320	28.6470
 0.7330	29.0800
 0.7340	29.4890
 0.7350	29.8720
 0.7360	30.2330
 0.7370	30.5730
 0.7380	30.8910
 0.7390	31.1880
 0.7400	31.4650
 0.7410	31.7230
 0.7420	31.9630
 0.7430	32.1840
 0.7440	32.3880
 0.7450	32.5750
 0.7460	32.7460
 0.7470	32.9010
 0.7480	33.0450
 0.7490	33.1780
 0.7500	33.3000
 0.7510	33.4070
 0.7520	33.5030
 0.7530	33.5930
 0.7540	33.6770
 0.7550	33.7530
 0.7560	33.8200
 0.7570	33.8790
 0.7580	33.9360
 0.7590	33.9890
 0.7600	34.0350
 0.7610	34.0750
 0.7620	34.1120
 0.7630	34.1440
 0.7640	34.1720
 0.7650	34.2020
 0.7660	34.2250
 0.7670	34.2440
 0.7680	34.2680
 0.7690	34.2860
 0.7700	34.3030
 0.7710	34.3200
 0.7720	34.3320
 0.7730	34.3440
 0.7740	34.3540
 0.7750	34.3630
 0.7760	34.3710
 0.7770	34.3790
 0.7780	34.3880
 0.7790	34.3970
 0.7800	34.4070
 0.7810	34.4130
 0.7820	34.4170
 0.7830	34.4220
 0.7840	34.4260
 0.7850	34.4300
 0.7860	34.4330
 0.7870	34.4330
 0.7880	34.4350
 0.7890	34.4370
 0.7900	34.4390
 0.7910	34.4380
 0.7920	34.4360
 0.7930	34.4360
 0.7940	34.4330
 0.7950	34.4310
 0.7960	34.4280
 0.7970	34.4240
 0.7980	34.4170
 0.7990	34.4130
 0.8000	34.4090
 0.8010	34.4020
 0.8020	34.3960
 0.8030	34.3890
 0.8040	34.3810
 0.8050	34.3730
 0.8060	34.3630
 0.8070	34.3510
 0.8080	34.3430
 0.8090	34.3390
 0.8100	34.3290
 0.8110	34.3160
 0.8120	34.3040
 0.8130	34.2920
 0.8140	34.2810
 0.8150	34.2690
 0.8160	34.2560
 0.8170	34.2430
 0.8180	34.2320
 0.8190	34.2220
 0.8200	34.2110
 0.8210	34.1970
 0.8220	34.1860
 0.8230	34.1750
 0.8240	34.1600
 0.8250	34.1480
 0.8260	34.1370
 0.8270	34.1250
 0.8280	34.1140
 0.8290	34.1030
 0.8300	34.0890
 0.8310	34.0710
 0.8320	34.0600
 0.8330	34.0520
 0.8340	34.0450
 0.8350	34.0360
 0.8360	34.0250
 0.8370	34.0150
 0.8380	34.0070
 0.8390	33.9980
 0.8400	33.9910
 0.8410	33.9860
 0.8420	33.9810
 0.8430	33.9750
 0.8440	33.9680
 0.8450	33.9610
 0.8460	33.9550
 0.8470	33.9510
 0.8480	33.9460
 0.8490	33.9420
 0.8500	33.9410
 0.8510	33.9410
 0.8520	33.9390
 0.8530	33.9340
 0.8540	33.9270
 0.8550	33.9300
 0.8560	33.9330
 0.8570	33.9330
 0.8580	33.9320
 0.8590	33.9360
 0.8600	33.9380
 0.8610	33.9330
 0.8620	33.9350
 0.8630	33.9390
 0.8640	33.9440
 0.8650	33.9470
 0.8660	33.9500
 0.8670	33.9550
 0.8680	33.9610
 0.8690	33.9660
 0.8700	33.9680
 0.8710	33.9730
 0.8720	33.9800
 0.8730	33.9850
 0.8740	33.9950
 0.8750	34.0020
 0.8760	34.0050
 0.8770	34.0120
 0.8780	34.0180
 0.8790	34.0240
 0.8800	34.0310
 0.8810	34.0390
 0.8820	34.0480
 0.8830	34.0560
 0.8840	34.0660
 0.8850	34.0770
 0.8860	34.0830
 0.8870	34.0880
 0.8880	34.0990
 0.8890	34.1070
 0.8900	34.1110
 0.8910	34.1150
 0.8920	34.1260
 0.8930	34.1360
 0.8940	34.1410
 0.8950	34.1470
 0.8960	34.1590
 0.8970	34.1670
 0.8980	34.1730
 0.8990	34.1790
 0.9000	34.1820
 0.9010	34.1890
 0.9020	34.1950
 0.9030	34.1990
 0.9040	34.2070
 0.9050	34.2150
 0.9060	34.2210
 0.9070	34.2250
 0.9080	34.2310
 0.9090	34.2350
 0.9100	34.2380
 0.9110	34.2440
 0.9120	34.2480
 0.9130	34.2450
 0.9140	34.2450
 0.9150	34.2540
 0.9160	34.2580
 0.9170	34.2600
 0.9180	34.2600
 0.9190	34.2580
 0.9200	34.2600
 0.9210	34.2610
 0.9220	34.2610
 0.9230	34.2630
 0.9240	34.2560
 0.9250	34.2510
 0.9260	34.2510
 0.9270	34.2510
 0.9280	34.2450
 0.9290	34.2360
 0.9300	34.2290
 0.9310	34.2240
 0.9320	34.2160
 0.9330	34.2070
 0.9340	34.2000
 0.9350	34.1930
 0.9360	34.1840
 0.9370	34.1750
 0.9380	34.1650
 0.9390	34.1520
 0.9400	34.1440
 0.9410	34.1350
 0.9420	34.1220
 0.9430	34.0990
 0.9440	34.0890
 0.9450	34.0800
 0.9460	34.0610
 0.9470	34.0400
 0.9480	34.0220
 0.9490	34.0040
 0.9500	33.9780
 0.9510	33.9480
 0.9520	33.9220
 0.9530	33.9030
 0.9540	33.8870
 0.9550	33.8610
 0.9560	33.8300
 0.9570	33.8030
 0.9580	33.7850
 0.9590	33.7660
 0.9600	33.7380
 0.9610	33.7110
 0.9620	33.6970
 0.9630	33.6900
 0.9640	33.6660
 0.9650	33.6380
 0.9660	33.6280
 0.9670	33.6170
 0.9680	33.5970
 0.9690	33.5840
 0.9700	33.5910
 0.9710	33.5840
 0.9720	33.5580
 0.9730	33.5380
 0.9740	33.5440
 0.9750	33.5300
 0.9760	33.5190
 0.9770	33.5150
 0.9780	33.5140
 0.9790	33.5160
 0.9800	33.5100
 0.9810	33.5020
 0.9820	33.5040
 0.9830	33.5140
 0.9840	33.5050
 0.9850	33.4880
 0.9860	33.4890
 0.9870	33.4930
 0.9880	33.4870
 0.9890	33.4810
 0.9900	33.4890
 0.9910	33.4920
 0.9920	33.4890
 0.9930	33.4840
 0.9940	33.4820
 0.9950	33.4830
 0.9960	33.4780
 0.9970	33.4790
 0.9980	33.4910
 0.9990	33.4900
 1.0000	33.4770
 1.0010	34.6300
 1.0020	34.6290
 1.0030	34.6290
 1.0040	34.6350
 1.0050	34.6400
 1.0060	34.6450
 1.0070	34.6530
 1.0080	34.6570
 1.0090	34.6580
 1.0100	34.6590
 1.0110	34.6590
 1.0120	34.6580
 1.0130	34.6530
 1.0140	34.6540
 1.0150	34.6580
 1.0160	34.6610
 1.0170	34.6640
 1.0180	34.6720
 1.0190	34.6800
 1.0200	34.6850
 1.0210	34.6880
 1.0220	34.6920
 1.0230	34.6930
 1.0240	34.6890
 1.0250	34.6910
 1.0260	34.6980
 1.0270	34.7030
 1.0280	34.7110
 1.0290	34.7160
 1.0300	34.7180
 1.0310	34.7210
 1.0320	34.7230
 1.0330	34.7260
 1.0340	34.7320
 1.0350	34.7330
 1.0360	34.7350
 1.0370	34.7400
 1.0380	34.7460
 1.0390	34.7550
 1.0400	34.7610
 1.0410	34.7700
 1.0420	34.7750
 1.0430	34.7780
 1.0440	34.7830
 1.0450	34.7880
 1.0460	34.7920
 1.0470	34.7970
 1.0480	34.8010
 1.0490	34.8050
 1.0500	34.8080
 1.0510	34.8120
 1.0520	34.8160
 1.0530	34.8170
 1.0540	34.8140
 1.0550	34.8150
 1.0560	34.8130
 1.0570	34.8160
 1.0580	34.8230
 1.0590	34.8260
 1.0600	34.8300
 1.0610	34.8310
 1.0620	34.8290
 1.0630	34.8280
 1.0640	34.8260
 1.0650	34.8250
 1.0660	34.8240
 1.0670	34.8220
 1.0680	34.8210
 1.0690	34.8190
 1.0700	34.8170
 1.0710	34.8150
 1.0720	34.8130
 1.0730	34.8100
 1.0740	34.8080
 1.0750	34.8070
 1.0760	34.8050
 1.0770	34.8050
 1.0780	34.8040
 1.0790	34.8030
 1.0800	34.7990
 1.0810	34.7940
 1.0820	34.7890
 1.0830	34.7810
 1.0840	34.7760
 1.0850	34.7720
 1.0860	34.7700
 1.0870	34.7670
 1.0880	34.7640
 1.0890	34.7600
 1.0900	34.7540
 1.0910	34.7500
 1.0920	34.7470
 1.0930	34.7440
 1.0940	34.7440
 1.0950	34.7390
 1.0960	34.7310
 1.0970	34.7260
 1.0980	34.7210
 1.0990	34.7150
 1.1000	34.7080
 1.1010	34.7020
 1.1020	34.6970
 1.1030	34.6890
 1.1040	34.6820
 1.1050	34.6780
 1.1060	34.6730
 1.1070	34.6670
 1.1080	34.6620
 1.1090	34.6590
 1.1100	34.6530
 1.1110	34.6460
 1.1120	34.6400
 1.1130	34.6340
 1.1140	34.6260
 1.1150	34.6180
 1.1160	34.6100
 1.1170	34.6040
 1.1180	34.5940
 1.1190	34.5830
 1.1200	34.5720
 1.1210	34.5600
 1.1220	34.5480
 1.1230	34.5370
 1.1240	34.5230
 1.1250	34.5070
 1.1260	34.4900
 1.1270	34.4690
 1.1280	34.4440
 1.1290	34.4190
 1.1300	34.3930
 1.1310	34.3620
 1.1320	34.3310
 1.1330	34.2950
 1.1340	34.2530
 1.1350	34.2100
 1.1360	34.1660
 1.1370	34.1180
 1.1380	34.0680
 1.1390	34.0150
 1.1400	33.9580
 1.1410	33.9020
 1.1420	33.8470
 1.1430	33.7890
 1.1440	33.7300
 1.1450	33.6700
 1.1460	33.6120
 1.1470	33.5510
 1.1480	33.4950
 1.1490	33.4400
 1.1500	33.3880
 1.1510	33.3360
 1.1520	33.2870
 1.1530	33.2400
 1.1540	33.1960
 1.1550	33.1550
 1.1560	33.1170
 1.1570	33.0800
 1.1580	33.0450
 1.1590	33.0110
 1.1600	32.9780
 1.1610	32.9500
 1.1620	32.9240
 1.1630	32.9000
 1.1640	32.8780
 1.1650	32.8580
 1.1660	32.8390
 1.1670	32.8200
 1.1680	32.8010
 1.1690	32.7840
 1.1700	32.7680
 1.1710	32.7530
 1.1720	32.7420
 1.1730	32.7290
 1.1740	32.7150
 1.1750	32.7010
 1.1760	32.6860
 1.1770	32.6710
 1.1780	32.6570
 1.1790	32.6440
 1.1800	32.6300
 1.1810	32.6170
 1.1820	32.6020
 1.1830	32.5870
 1.1840	32.5710
 1.1850	32.5560
 1.1860	32.5440
 1.1870	32.5320
 1.1880	32.5200
 1.1890	32.5120
 1.1900	32.5010
 1.1910	32.4890
 1.1920	32.4790
 1.1930	32.4690
 1.1940	32.4600
 1.1950	32.4530
 1.1960	32.4450
 1.1970	32.4380
 1.1980	32.4310
 1.1990	32.4270
 1.2000	32.4240
 1.2010	32.4220
 1.2020	32.4210
 1.2030	32.4210
 1.2040	32.4240
 1.2050	32.4270
 1.2060	32.4290
 1.2070	32.4310
 1.2080	32.4340
 1.2090	32.4370
 1.2100	32.4430
 1.2110	32.4500
 1.2120	32.4570
 1.2130	32.4660
 1.2140	32.4770
 1.2150	32.4890
 1.2160	32.5020
 1.2170	32.5170
 1.2180	32.5320
 1.2190	32.5480
 1.2200	32.5660
 1.2210	32.5820
 1.2220	32.5970
 1.2230	32.6130
 1.2240	32.6280
 1.2250	32.6430
 1.2260	32.6610
 1.2270	32.6770
 1.2280	32.6910
 1.2290	32.7040
 1.2300	32.7160
 1.2310	32.7270
 1.2320	32.7400
 1.2330	32.7510
 1.2340	32.7610
 1.2350	32.7700
 1.2360	32.7780
 1.2370	32.7850
 1.2380	32.7930
 1.2390	32.8020
 1.2400	32.8090
 1.2410	32.8160
 1.2420	32.8230
 1.2430	32.8290
 1.2440	32.8350
 1.2450	32.8410
 1.2460	32.8460
 1.2470	32.8500
 1.2480	32.8540
 1.2490	32.8600
 1.2500	32.8650
 1.2510	32.8680
 1.2520	32.8700
 1.2530	32.8690
 1.2540	32.8700
 1.2550	32.8740
 1.2560	32.8760
 1.2570	32.8760
 1.2580	32.8760
 1.2590	32.8750
 1.2600	32.8700
 1.2610	32.8680
 1.2620	32.8670
 1.2630	32.8650
 1.2640	32.8630
 1.2650	32.8610
 1.2660	32.8600
 1.2670	32.8580
 1.2680	32.8560
 1.2690	32.8530
 1.2700	32.8490
 1.2710	32.8450
 1.2720	32.8410
 1.2730	32.8370
 1.2740	32.8340
 1.2750	32.8300
 1.2760	32.8240
 1.2770	32.8190
 1.2780	32.8140
 1.2790	32.8080
 1.2800	32.8000
 1.2810	32.7930
 1.2820	32.7830
 1.2830	32.7730
 1.2840	32.7630
 1.2850	32.7510
 1.2860	32.7390
 1.2870	32.7260
 1.2880	32.7120
 1.2890	32.6970
 1.2900	32.6810
 1.2910	32.6630
 1.2920	32.6410
 1.2930	32.6190
 1.2940	32.5950
 1.2950	32.5710
 1.2960	32.5470
 1.2970	32.5200
 1.2980	32.4950
 1.2990	32.4680
 1.3000	32.4390
 1.3010	32.4080
 1.3020	32.3740
 1.3030	32.3400
 1.3040	32.3050
 1.3050	32.2700
 1.3060	32.2360
 1.3070	32.2000
 1.3080	32.1630
 1.3090	32.1260
 1.3100	32.0880
 1.3110	32.0480
 1.3120	32.0070
 1.3130	31.9650
 1.3140	31.9220
 1.3150	31.8770
 1.3160	31.8320
 1.3170	31.7860
 1.3180	31.7390
 1.3190	31.6910
 1.3200	31.6410
 1.3210	31.5900
 1.3220	31.5400
 1.3230	31.4890
 1.3240	31.4390
 1.3250	31.3870
 1.3260	31.3320
 1.3270	31.2760
 1.3280	31.2190
 1.3290	31.1610
 1.3300	31.1020
 1.3310	31.0430
 1.3320	30.9830
 1.3330	30.9230
 1.3340	30.8620
 1.3350	30.8000
 1.3360	30.7390
 1.3370	30.6770
 1.3380	30.6160
 1.3390	30.5540
 1.3400	30.4910
 1.3410	30.4290
 1.3420	30.3670
 1.3430	30.3050
 1.3440	30.2450
 1.3450	30.1840
 1.3460	30.1230
 1.3470	30.0620
 1.3480	30.0010
 1.3490	29.9410
 1.3500	29.8820
 1.3510	29.8240
 1.3520	29.7660
 1.3530	29.7080
 1.3540	29.6470
 1.3550	29.5860
 1.3560	29.5240
 1.3570	29.4630
 1.3580	29.4010
 1.3590	29.3390
 1.3600	29.2760
 1.3610	29.2120
 1.3620	29.1440
 1.3630	29.0750
 1.3640	29.0030
 1.3650	28.9260
 1.3660	28.8470
 1.3670	28.7640
 1.3680	28.6760
 1.3690	28.5820
 1.3700	28.4800
 1.3710	28.3710
 1.3720	28.2530
 1.3730	28.1260
 1.3740	27.9910
 1.3750	27.8450
 1.3760	27.6870
 1.3770	27.5160
 1.3780	27.3320
 1.3790	27.1350
 1.3800	26.9240
 1.3810	26.6980
 1.3820	26.4590
 1.3830	26.2070
 1.3840	25.9400
 1.3850	25.6600
 1.3860	25.3670
 1.3870	25.0590
 1.3880	24.7440
 1.3890	24.4180
 1.3900	24.0820
 1.3910	23.7430
 1.3920	23.3950
 1.3930	23.0400
 1.3940	22.6820
 1.3950	22.3180
 1.3960	21.9550
 1.3970	21.5940
 1.3980	21.2350
 1.3990	20.8830
 1.4000	20.5380
 1.4010	20.1960
 1.4020	19.8660
 1.4030	19.5430
 1.4040	19.2310
 1.4050	18.9310
 1.4060	18.6410
 1.4070	18.3650
 1.4080	18.1020
 1.4090	17.8490
 1.4100	17.6100
 1.4110	17.3830
 1.4120	17.1680
 1.4130	16.9660
 1.4140	16.7770
 1.4150	16.6020
 1.4160	16.4390
 1.4170	16.2860
 1.4180	16.1430
 1.4190	16.0080
 1.4200	15.8830
 1.4210	15.7650
 1.4220	15.6560
 1.4230	15.5560
 1.4240	15.4640
 1.4250	15.3770
 1.4260	15.2990
 1.4270	15.2260
 1.4280	15.1590
 1.4290	15.0960
 1.4300	15.0390
 1.4310	14.9880
 1.4320	14.9410
 1.4330	14.8980
 1.4340	14.8610
 1.4350	14.8270
 1.4360	14.7970
 1.4370	14.7710
 1.4380	14.7470
 1.4390	14.7260
 1.4400	14.7090
 1.4410	14.6940
 1.4420	14.6830
 1.4430	14.6740
 1.4440	14.6680
 1.4450	14.6640
 1.4460	14.6610
 1.4470	14.6590
 1.4480	14.6590
 1.4490	14.6600
 1.4500	14.6640
 1.4510	14.6690
 1.4520	14.6750
 1.4530	14.6820
 1.4540	14.6910
 1.4550	14.7020
 1.4560	14.7140
 1.4570	14.7290
 1.4580	14.7470
 1.4590	14.7660
 1.4600	14.7890
 1.4610	14.8150
 1.4620	14.8440
 1.4630	14.8770
 1.4640	14.9120
 1.4650	14.9500
 1.4660	14.9930
 1.4670	15.0390
 1.4680	15.0900
 1.4690	15.1440
 1.4700	15.2020
 1.4710	15.2620
 1.4720	15.3250
 1.4730	15.3910
 1.4740	15.4600
 1.4750	15.5300
 1.4760	15.6030
 1.4770	15.6780
 1.4780	15.7540
