Name: Salvia leucophylla 3
Type: vegetation
Class: Shrub
Genus: Salvia
Species: leucophylla
Sample No.: VH095
Owner: UCSB
Wavelength Range: VSWIR
Origin: 34.698; -120.0477; WGS84
Collection Date: 4/21/2013
Description: Samples were collected as part of the HyspIRI Airborne Campaign. 48 individual plants were sampled in three times in 2013 - spring  summer  and fall. The name of the sample includes a 1  2  or 3 which references a different individual of the species. Samples were taken to JPL and processed within 48 hours of collection. The same leaves were processed in the Nicolet and then measured using the ASD.
Measurement: Bidirectional reflectance
First Column: X
Second Column: Y
X Units: Wavelength (micrometers)
Y Units: Reflectance (percentage)
First X Value: 0.35
Last X Value: 2.5
Number of X Values: 2151
Additional Information: vegetation.shrub.salvia.leucophylla.vswir.vh095.ucsb.asd.ancillary.txt

 0.3500	 3.6570
 0.3510	 3.4940
 0.3520	 3.5240
 0.3530	 3.5500
 0.3540	 3.4340
 0.3550	 3.7500
 0.3560	 3.6970
 0.3570	 3.4520
 0.3580	 3.6070
 0.3590	 3.6160
 0.3600	 3.5980
 0.3610	 3.6520
 0.3620	 3.7530
 0.3630	 3.8210
 0.3640	 3.8090
 0.3650	 3.7260
 0.3660	 3.7190
 0.3670	 3.7880
 0.3680	 3.8530
 0.3690	 3.8090
 0.3700	 3.9130
 0.3710	 4.1040
 0.3720	 4.2460
 0.3730	 4.1340
 0.3740	 4.1260
 0.3750	 4.2050
 0.3760	 4.2480
 0.3770	 4.2650
 0.3780	 4.3780
 0.3790	 4.5360
 0.3800	 4.5590
 0.3810	 4.6120
 0.3820	 4.7060
 0.3830	 4.8130
 0.3840	 4.8870
 0.3850	 4.8960
 0.3860	 4.9450
 0.3870	 5.1330
 0.3880	 5.2450
 0.3890	 5.2600
 0.3900	 5.2600
 0.3910	 5.4080
 0.3920	 5.4790
 0.3930	 5.5320
 0.3940	 5.6280
 0.3950	 5.6870
 0.3960	 5.7370
 0.3970	 5.8060
 0.3980	 5.9080
 0.3990	 5.9470
 0.4000	 5.9920
 0.4010	 6.0650
 0.4020	 6.1080
 0.4030	 6.1790
 0.4040	 6.2380
 0.4050	 6.2500
 0.4060	 6.2950
 0.4070	 6.3870
 0.4080	 6.4700
 0.4090	 6.4630
 0.4100	 6.5250
 0.4110	 6.5890
 0.4120	 6.6140
 0.4130	 6.6570
 0.4140	 6.7030
 0.4150	 6.7560
 0.4160	 6.8180
 0.4170	 6.8780
 0.4180	 6.9590
 0.4190	 7.0470
 0.4200	 7.0970
 0.4210	 7.1600
 0.4220	 7.2370
 0.4230	 7.3140
 0.4240	 7.3780
 0.4250	 7.4500
 0.4260	 7.5240
 0.4270	 7.5840
 0.4280	 7.6590
 0.4290	 7.7320
 0.4300	 7.7940
 0.4310	 7.8460
 0.4320	 7.9280
 0.4330	 8.0090
 0.4340	 8.0600
 0.4350	 8.1290
 0.4360	 8.2010
 0.4370	 8.2650
 0.4380	 8.3230
 0.4390	 8.3690
 0.4400	 8.4220
 0.4410	 8.4830
 0.4420	 8.4930
 0.4430	 8.5350
 0.4440	 8.6020
 0.4450	 8.6570
 0.4460	 8.6900
 0.4470	 8.7270
 0.4480	 8.7740
 0.4490	 8.8190
 0.4500	 8.8520
 0.4510	 8.8850
 0.4520	 8.9270
 0.4530	 8.9540
 0.4540	 8.9880
 0.4550	 9.0240
 0.4560	 9.0440
 0.4570	 9.0830
 0.4580	 9.1200
 0.4590	 9.1390
 0.4600	 9.1470
 0.4610	 9.1640
 0.4620	 9.1870
 0.4630	 9.2060
 0.4640	 9.2230
 0.4650	 9.2480
 0.4660	 9.2750
 0.4670	 9.2810
 0.4680	 9.3050
 0.4690	 9.3240
 0.4700	 9.3200
 0.4710	 9.3360
 0.4720	 9.3530
 0.4730	 9.3680
 0.4740	 9.3820
 0.4750	 9.3820
 0.4760	 9.3790
 0.4770	 9.3870
 0.4780	 9.4170
 0.4790	 9.4370
 0.4800	 9.4410
 0.4810	 9.4360
 0.4820	 9.4560
 0.4830	 9.4770
 0.4840	 9.4900
 0.4850	 9.5020
 0.4860	 9.5200
 0.4870	 9.5400
 0.4880	 9.5590
 0.4890	 9.5790
 0.4900	 9.5950
 0.4910	 9.6100
 0.4920	 9.6320
 0.4930	 9.6630
 0.4940	 9.6990
 0.4950	 9.7290
 0.4960	 9.7460
 0.4970	 9.7790
 0.4980	 9.8190
 0.4990	 9.8530
 0.5000	 9.9120
 0.5010	 9.9680
 0.5020	10.0160
 0.5030	10.0710
 0.5040	10.1390
 0.5050	10.2150
 0.5060	10.2950
 0.5070	10.3820
 0.5080	10.4680
 0.5090	10.5620
 0.5100	10.6760
 0.5110	10.8010
 0.5120	10.9330
 0.5130	11.0690
 0.5140	11.2150
 0.5150	11.3660
 0.5160	11.5340
 0.5170	11.7230
 0.5180	11.9030
 0.5190	12.0890
 0.5200	12.2860
 0.5210	12.4910
 0.5220	12.7000
 0.5230	12.9080
 0.5240	13.1150
 0.5250	13.3250
 0.5260	13.5290
 0.5270	13.7250
 0.5280	13.9160
 0.5290	14.0970
 0.5300	14.2730
 0.5310	14.4430
 0.5320	14.6020
 0.5330	14.7530
 0.5340	14.8990
 0.5350	15.0380
 0.5360	15.1630
 0.5370	15.2820
 0.5380	15.3970
 0.5390	15.5100
 0.5400	15.6230
 0.5410	15.7350
 0.5420	15.8450
 0.5430	15.9490
 0.5440	16.0450
 0.5450	16.1330
 0.5460	16.2090
 0.5470	16.2670
 0.5480	16.3180
 0.5490	16.3720
 0.5500	16.4290
 0.5510	16.4780
 0.5520	16.5190
 0.5530	16.5520
 0.5540	16.5700
 0.5550	16.5790
 0.5560	16.5770
 0.5570	16.5650
 0.5580	16.5380
 0.5590	16.5030
 0.5600	16.4650
 0.5610	16.4180
 0.5620	16.3660
 0.5630	16.3100
 0.5640	16.2480
 0.5650	16.1800
 0.5660	16.1090
 0.5670	16.0330
 0.5680	15.9500
 0.5690	15.8630
 0.5700	15.7710
 0.5710	15.6760
 0.5720	15.5780
 0.5730	15.4840
 0.5740	15.3960
 0.5750	15.3080
 0.5760	15.2240
 0.5770	15.1440
 0.5780	15.0680
 0.5790	15.0030
 0.5800	14.9390
 0.5810	14.8780
 0.5820	14.8240
 0.5830	14.7730
 0.5840	14.7260
 0.5850	14.6820
 0.5860	14.6480
 0.5870	14.6110
 0.5880	14.5730
 0.5890	14.5400
 0.5900	14.5150
 0.5910	14.4950
 0.5920	14.4800
 0.5930	14.4720
 0.5940	14.4610
 0.5950	14.4510
 0.5960	14.4470
 0.5970	14.4470
 0.5980	14.4450
 0.5990	14.4390
 0.6000	14.4270
 0.6010	14.4050
 0.6020	14.3770
 0.6030	14.3440
 0.6040	14.3080
 0.6050	14.2610
 0.6060	14.2090
 0.6070	14.1530
 0.6080	14.0870
 0.6090	14.0250
 0.6100	13.9710
 0.6110	13.9220
 0.6120	13.8500
 0.6130	13.7590
 0.6140	13.6630
 0.6150	13.5880
 0.6160	13.5160
 0.6170	13.4500
 0.6180	13.3920
 0.6190	13.3390
 0.6200	13.2940
 0.6210	13.2560
 0.6220	13.2220
 0.6230	13.1900
 0.6240	13.1640
 0.6250	13.1450
 0.6260	13.1360
 0.6270	13.1270
 0.6280	13.1170
 0.6290	13.1120
 0.6300	13.1140
 0.6310	13.1160
 0.6320	13.1110
 0.6330	13.0970
 0.6340	13.0850
 0.6350	13.0690
 0.6360	13.0450
 0.6370	13.0100
 0.6380	12.9690
 0.6390	12.9210
 0.6400	12.8650
 0.6410	12.8070
 0.6420	12.7420
 0.6430	12.6690
 0.6440	12.5950
 0.6450	12.5190
 0.6460	12.4430
 0.6470	12.3660
 0.6480	12.2860
 0.6490	12.2110
 0.6500	12.1420
 0.6510	12.0760
 0.6520	12.0100
 0.6530	11.9430
 0.6540	11.8750
 0.6550	11.7970
 0.6560	11.7170
 0.6570	11.6320
 0.6580	11.5390
 0.6590	11.4400
 0.6600	11.3380
 0.6610	11.2370
 0.6620	11.1390
 0.6630	11.0410
 0.6640	10.9500
 0.6650	10.8720
 0.6660	10.8000
 0.6670	10.7380
 0.6680	10.6870
 0.6690	10.6460
 0.6700	10.6130
 0.6710	10.5860
 0.6720	10.5690
 0.6730	10.5630
 0.6740	10.5590
 0.6750	10.5590
 0.6760	10.5630
 0.6770	10.5760
 0.6780	10.5940
 0.6790	10.6170
 0.6800	10.6510
 0.6810	10.6910
 0.6820	10.7450
 0.6830	10.8180
 0.6840	10.9120
 0.6850	11.0250
 0.6860	11.1700
 0.6870	11.3570
 0.6880	11.5830
 0.6890	11.8580
 0.6900	12.1880
 0.6910	12.5710
 0.6920	13.0160
 0.6930	13.5260
 0.6940	14.1000
 0.6950	14.7260
 0.6960	15.4100
 0.6970	16.1470
 0.6980	16.9260
 0.6990	17.7430
 0.7000	18.5910
 0.7010	19.4630
 0.7020	20.3540
 0.7030	21.2530
 0.7040	22.1560
 0.7050	23.0580
 0.7060	23.9510
 0.7070	24.8380
 0.7080	25.7140
 0.7090	26.5790
 0.7100	27.4340
 0.7110	28.2800
 0.7120	29.1160
 0.7130	29.9420
 0.7140	30.7490
 0.7150	31.5420
 0.7160	32.3250
 0.7170	33.0970
 0.7180	33.8450
 0.7190	34.5720
 0.7200	35.2850
 0.7210	35.9810
 0.7220	36.6590
 0.7230	37.3140
 0.7240	37.9420
 0.7250	38.5470
 0.7260	39.1330
 0.7270	39.6960
 0.7280	40.2300
 0.7290	40.7370
 0.7300	41.2170
 0.7310	41.6710
 0.7320	42.1050
 0.7330	42.5190
 0.7340	42.9150
 0.7350	43.2940
 0.7360	43.6480
 0.7370	43.9780
 0.7380	44.2920
 0.7390	44.5900
 0.7400	44.8680
 0.7410	45.1310
 0.7420	45.3840
 0.7430	45.6120
 0.7440	45.8320
 0.7450	46.0440
 0.7460	46.2350
 0.7470	46.4200
 0.7480	46.5960
 0.7490	46.7570
 0.7500	46.9070
 0.7510	47.0560
 0.7520	47.1950
 0.7530	47.3130
 0.7540	47.4280
 0.7550	47.5420
 0.7560	47.6510
 0.7570	47.7490
 0.7580	47.8460
 0.7590	47.9380
 0.7600	48.0230
 0.7610	48.1100
 0.7620	48.1920
 0.7630	48.2690
 0.7640	48.3450
 0.7650	48.4120
 0.7660	48.4870
 0.7670	48.5620
 0.7680	48.6150
 0.7690	48.6760
 0.7700	48.7420
 0.7710	48.8090
 0.7720	48.8660
 0.7730	48.9270
 0.7740	48.9840
 0.7750	49.0330
 0.7760	49.0940
 0.7770	49.1500
 0.7780	49.2020
 0.7790	49.2590
 0.7800	49.3150
 0.7810	49.3680
 0.7820	49.4180
 0.7830	49.4710
 0.7840	49.5330
 0.7850	49.5880
 0.7860	49.6300
 0.7870	49.6780
 0.7880	49.7310
 0.7890	49.7840
 0.7900	49.8280
 0.7910	49.8770
 0.7920	49.9280
 0.7930	49.9750
 0.7940	50.0140
 0.7950	50.0590
 0.7960	50.1020
 0.7970	50.1440
 0.7980	50.1920
 0.7990	50.2320
 0.8000	50.2650
 0.8010	50.2990
 0.8020	50.3390
 0.8030	50.3800
 0.8040	50.4180
 0.8050	50.4540
 0.8060	50.4850
 0.8070	50.5190
 0.8080	50.5540
 0.8090	50.5840
 0.8100	50.6070
 0.8110	50.6320
 0.8120	50.6610
 0.8130	50.6920
 0.8140	50.7120
 0.8150	50.7340
 0.8160	50.7650
 0.8170	50.7940
 0.8180	50.8200
 0.8190	50.8390
 0.8200	50.8510
 0.8210	50.8720
 0.8220	50.8950
 0.8230	50.9120
 0.8240	50.9230
 0.8250	50.9480
 0.8260	50.9650
 0.8270	50.9720
 0.8280	50.9940
 0.8290	51.0120
 0.8300	51.0230
 0.8310	51.0340
 0.8320	51.0420
 0.8330	51.0560
 0.8340	51.0740
 0.8350	51.0910
 0.8360	51.1100
 0.8370	51.1270
 0.8380	51.1440
 0.8390	51.1630
 0.8400	51.1760
 0.8410	51.1960
 0.8420	51.2220
 0.8430	51.2320
 0.8440	51.2490
 0.8450	51.2740
 0.8460	51.2980
 0.8470	51.3150
 0.8480	51.3400
 0.8490	51.3680
 0.8500	51.3870
 0.8510	51.3960
 0.8520	51.4180
 0.8530	51.4490
 0.8540	51.4700
 0.8550	51.4990
 0.8560	51.5250
 0.8570	51.5460
 0.8580	51.5680
 0.8590	51.5970
 0.8600	51.6250
 0.8610	51.6510
 0.8620	51.6860
 0.8630	51.7200
 0.8640	51.7530
 0.8650	51.7830
 0.8660	51.8040
 0.8670	51.8390
 0.8680	51.8780
 0.8690	51.9050
 0.8700	51.9320
 0.8710	51.9670
 0.8720	52.0060
 0.8730	52.0400
 0.8740	52.0840
 0.8750	52.1230
 0.8760	52.1550
 0.8770	52.1920
 0.8780	52.2370
 0.8790	52.2870
 0.8800	52.3330
 0.8810	52.3700
 0.8820	52.3980
 0.8830	52.4410
 0.8840	52.5040
 0.8850	52.5460
 0.8860	52.5880
 0.8870	52.6330
 0.8880	52.6750
 0.8890	52.7310
 0.8900	52.7730
 0.8910	52.8090
 0.8920	52.8560
 0.8930	52.8920
 0.8940	52.9360
 0.8950	52.9890
 0.8960	53.0380
 0.8970	53.0800
 0.8980	53.1220
 0.8990	53.1680
 0.9000	53.2220
 0.9010	53.2660
 0.9020	53.3010
 0.9030	53.3380
 0.9040	53.4010
 0.9050	53.4450
 0.9060	53.4820
 0.9070	53.5230
 0.9080	53.5590
 0.9090	53.6140
 0.9100	53.6590
 0.9110	53.6790
 0.9120	53.7260
 0.9130	53.7850
 0.9140	53.8340
 0.9150	53.8590
 0.9160	53.8960
 0.9170	53.9320
 0.9180	53.9700
 0.9190	54.0160
 0.9200	54.0570
 0.9210	54.0900
 0.9220	54.1180
 0.9230	54.1490
 0.9240	54.1790
 0.9250	54.2070
 0.9260	54.2260
 0.9270	54.2340
 0.9280	54.2640
 0.9290	54.2920
 0.9300	54.3060
 0.9310	54.3100
 0.9320	54.3050
 0.9330	54.3180
 0.9340	54.3410
 0.9350	54.3290
 0.9360	54.3260
 0.9370	54.3300
 0.9380	54.3340
 0.9390	54.3400
 0.9400	54.3420
 0.9410	54.3430
 0.9420	54.3360
 0.9430	54.3070
 0.9440	54.2830
 0.9450	54.2720
 0.9460	54.2620
 0.9470	54.2150
 0.9480	54.1770
 0.9490	54.1420
 0.9500	54.0940
 0.9510	54.0260
 0.9520	53.9810
 0.9530	53.9330
 0.9540	53.8600
 0.9550	53.8100
 0.9560	53.7640
 0.9570	53.7110
 0.9580	53.6490
 0.9590	53.5970
 0.9600	53.5630
 0.9610	53.5340
 0.9620	53.4970
 0.9630	53.4690
 0.9640	53.4550
 0.9650	53.4440
 0.9660	53.4250
 0.9670	53.4120
 0.9680	53.4150
 0.9690	53.4220
 0.9700	53.4140
 0.9710	53.4020
 0.9720	53.3940
 0.9730	53.3970
 0.9740	53.4100
 0.9750	53.4010
 0.9760	53.4090
 0.9770	53.4320
 0.9780	53.4490
 0.9790	53.4700
 0.9800	53.4770
 0.9810	53.4780
 0.9820	53.4890
 0.9830	53.5010
 0.9840	53.5260
 0.9850	53.5550
 0.9860	53.5760
 0.9870	53.6230
 0.9880	53.6330
 0.9890	53.6240
 0.9900	53.6470
 0.9910	53.7040
 0.9920	53.7850
 0.9930	53.8650
 0.9940	53.9460
 0.9950	54.0270
 0.9960	54.1070
 0.9970	54.1880
 0.9980	54.2680
 0.9990	54.3490
 1.0000	54.4290
 1.0010	54.5100
 1.0020	54.5910
 1.0030	54.6710
 1.0040	54.7520
 1.0050	54.8320
 1.0060	54.9130
 1.0070	54.9940
 1.0080	55.0740
 1.0090	55.1550
 1.0100	55.1550
 1.0110	55.1880
 1.0120	55.2220
 1.0130	55.2540
 1.0140	55.2860
 1.0150	55.3180
 1.0160	55.3500
 1.0170	55.3800
 1.0180	55.4130
 1.0190	55.4490
 1.0200	55.4820
 1.0210	55.5140
 1.0220	55.5460
 1.0230	55.5770
 1.0240	55.6050
 1.0250	55.6370
 1.0260	55.6690
 1.0270	55.7000
 1.0280	55.7320
 1.0290	55.7660
 1.0300	55.8030
 1.0310	55.8360
 1.0320	55.8680
 1.0330	55.8970
 1.0340	55.9280
 1.0350	55.9530
 1.0360	55.9740
 1.0370	55.9980
 1.0380	56.0210
 1.0390	56.0370
 1.0400	56.0590
 1.0410	56.0880
 1.0420	56.1110
 1.0430	56.1250
 1.0440	56.1490
 1.0450	56.1750
 1.0460	56.1990
 1.0470	56.2300
 1.0480	56.2540
 1.0490	56.2720
 1.0500	56.2910
 1.0510	56.3070
 1.0520	56.3280
 1.0530	56.3440
 1.0540	56.3570
 1.0550	56.3740
 1.0560	56.3910
 1.0570	56.4070
 1.0580	56.4280
 1.0590	56.4420
 1.0600	56.4500
 1.0610	56.4600
 1.0620	56.4690
 1.0630	56.4790
 1.0640	56.4910
 1.0650	56.5010
 1.0660	56.5090
 1.0670	56.5180
 1.0680	56.5250
 1.0690	56.5310
 1.0700	56.5370
 1.0710	56.5420
 1.0720	56.5480
 1.0730	56.5560
 1.0740	56.5610
 1.0750	56.5680
 1.0760	56.5730
 1.0770	56.5770
 1.0780	56.5790
 1.0790	56.5790
 1.0800	56.5800
 1.0810	56.5820
 1.0820	56.5810
 1.0830	56.5790
 1.0840	56.5770
 1.0850	56.5700
 1.0860	56.5650
 1.0870	56.5620
 1.0880	56.5630
 1.0890	56.5590
 1.0900	56.5540
 1.0910	56.5490
 1.0920	56.5430
 1.0930	56.5340
 1.0940	56.5250
 1.0950	56.5160
 1.0960	56.5050
 1.0970	56.4950
 1.0980	56.4900
 1.0990	56.4810
 1.1000	56.4710
 1.1010	56.4600
 1.1020	56.4460
 1.1030	56.4340
 1.1040	56.4220
 1.1050	56.4090
 1.1060	56.3960
 1.1070	56.3850
 1.1080	56.3720
 1.1090	56.3600
 1.1100	56.3450
 1.1110	56.3300
 1.1120	56.3110
 1.1130	56.2880
 1.1140	56.2670
 1.1150	56.2450
 1.1160	56.2210
 1.1170	56.1990
 1.1180	56.1720
 1.1190	56.1420
 1.1200	56.1090
 1.1210	56.0730
 1.1220	56.0330
 1.1230	55.9860
 1.1240	55.9340
 1.1250	55.8770
 1.1260	55.8150
 1.1270	55.7440
 1.1280	55.6680
 1.1290	55.5820
 1.1300	55.4910
 1.1310	55.3860
 1.1320	55.2740
 1.1330	55.1510
 1.1340	55.0170
 1.1350	54.8740
 1.1360	54.7230
 1.1370	54.5630
 1.1380	54.3940
 1.1390	54.2170
 1.1400	54.0350
 1.1410	53.8530
 1.1420	53.6660
 1.1430	53.4760
 1.1440	53.2900
 1.1450	53.0990
 1.1460	52.9180
 1.1470	52.7380
 1.1480	52.5690
 1.1490	52.4050
 1.1500	52.2540
 1.1510	52.1110
 1.1520	51.9780
 1.1530	51.8550
 1.1540	51.7420
 1.1550	51.6390
 1.1560	51.5420
 1.1570	51.4540
 1.1580	51.3770
 1.1590	51.3060
 1.1600	51.2450
 1.1610	51.1910
 1.1620	51.1410
 1.1630	51.0930
 1.1640	51.0490
 1.1650	51.0080
 1.1660	50.9690
 1.1670	50.9350
 1.1680	50.9050
 1.1690	50.8740
 1.1700	50.8490
 1.1710	50.8200
 1.1720	50.7890
 1.1730	50.7600
 1.1740	50.7320
 1.1750	50.7010
 1.1760	50.6690
 1.1770	50.6360
 1.1780	50.6010
 1.1790	50.5660
 1.1800	50.5320
 1.1810	50.4990
 1.1820	50.4660
 1.1830	50.4340
 1.1840	50.4020
 1.1850	50.3750
 1.1860	50.3510
 1.1870	50.3310
 1.1880	50.3160
 1.1890	50.3070
 1.1900	50.2990
 1.1910	50.2940
 1.1920	50.2930
 1.1930	50.2930
 1.1940	50.2990
 1.1950	50.3090
 1.1960	50.3240
 1.1970	50.3400
 1.1980	50.3580
 1.1990	50.3780
 1.2000	50.3970
 1.2010	50.4190
 1.2020	50.4450
 1.2030	50.4730
 1.2040	50.5040
 1.2050	50.5370
 1.2060	50.5700
 1.2070	50.6070
 1.2080	50.6420
 1.2090	50.6780
 1.2100	50.7190
 1.2110	50.7610
 1.2120	50.8060
 1.2130	50.8520
 1.2140	50.9010
 1.2150	50.9500
 1.2160	51.0000
 1.2170	51.0480
 1.2180	51.0950
 1.2190	51.1460
 1.2200	51.1930
 1.2210	51.2420
 1.2220	51.2950
 1.2230	51.3470
 1.2240	51.3990
 1.2250	51.4500
 1.2260	51.4990
 1.2270	51.5470
 1.2280	51.5930
 1.2290	51.6380
 1.2300	51.6800
 1.2310	51.7200
 1.2320	51.7600
 1.2330	51.7960
 1.2340	51.8330
 1.2350	51.8710
 1.2360	51.9060
 1.2370	51.9400
 1.2380	51.9750
 1.2390	52.0060
 1.2400	52.0380
 1.2410	52.0680
 1.2420	52.0950
 1.2430	52.1250
 1.2440	52.1530
 1.2450	52.1790
 1.2460	52.2080
 1.2470	52.2350
 1.2480	52.2610
 1.2490	52.2870
 1.2500	52.3100
 1.2510	52.3320
 1.2520	52.3520
 1.2530	52.3710
 1.2540	52.3880
 1.2550	52.4020
 1.2560	52.4160
 1.2570	52.4300
 1.2580	52.4410
 1.2590	52.4510
 1.2600	52.4610
 1.2610	52.4690
 1.2620	52.4750
 1.2630	52.4790
 1.2640	52.4840
 1.2650	52.4870
 1.2660	52.4860
 1.2670	52.4850
 1.2680	52.4840
 1.2690	52.4820
 1.2700	52.4790
 1.2710	52.4740
 1.2720	52.4660
 1.2730	52.4580
 1.2740	52.4470
 1.2750	52.4360
 1.2760	52.4260
 1.2770	52.4130
 1.2780	52.3990
 1.2790	52.3860
 1.2800	52.3680
 1.2810	52.3490
 1.2820	52.3270
 1.2830	52.3040
 1.2840	52.2780
 1.2850	52.2520
 1.2860	52.2240
 1.2870	52.1920
 1.2880	52.1550
 1.2890	52.1160
 1.2900	52.0760
 1.2910	52.0310
 1.2920	51.9860
 1.2930	51.9390
 1.2940	51.8890
 1.2950	51.8370
 1.2960	51.7810
 1.2970	51.7220
 1.2980	51.6590
 1.2990	51.5890
 1.3000	51.5150
 1.3010	51.4400
 1.3020	51.3620
 1.3030	51.2830
 1.3040	51.2010
 1.3050	51.1150
 1.3060	51.0240
 1.3070	50.9300
 1.3080	50.8330
 1.3090	50.7360
 1.3100	50.6340
 1.3110	50.5270
 1.3120	50.4190
 1.3130	50.3040
 1.3140	50.1850
 1.3150	50.0620
 1.3160	49.9360
 1.3170	49.8060
 1.3180	49.6730
 1.3190	49.5370
 1.3200	49.3950
 1.3210	49.2500
 1.3220	49.1030
 1.3230	48.9530
 1.3240	48.8000
 1.3250	48.6470
 1.3260	48.4870
 1.3270	48.3250
 1.3280	48.1640
 1.3290	47.9950
 1.3300	47.8260
 1.3310	47.6570
 1.3320	47.4850
 1.3330	47.3140
 1.3340	47.1430
 1.3350	46.9700
 1.3360	46.7960
 1.3370	46.6220
 1.3380	46.4490
 1.3390	46.2760
 1.3400	46.1020
 1.3410	45.9300
 1.3420	45.7580
 1.3430	45.5870
 1.3440	45.4180
 1.3450	45.2500
 1.3460	45.0830
 1.3470	44.9180
 1.3480	44.7540
 1.3490	44.5920
 1.3500	44.4300
 1.3510	44.2680
 1.3520	44.1070
 1.3530	43.9450
 1.3540	43.7820
 1.3550	43.6190
 1.3560	43.4550
 1.3570	43.2900
 1.3580	43.1250
 1.3590	42.9560
 1.3600	42.7850
 1.3610	42.6090
 1.3620	42.4290
 1.3630	42.2460
 1.3640	42.0540
 1.3650	41.8500
 1.3660	41.6390
 1.3670	41.4170
 1.3680	41.1850
 1.3690	40.9420
 1.3700	40.6810
 1.3710	40.4050
 1.3720	40.1090
 1.3730	39.7920
 1.3740	39.4610
 1.3750	39.1070
 1.3760	38.7300
 1.3770	38.3300
 1.3780	37.9030
 1.3790	37.4540
 1.3800	36.9810
 1.3810	36.4800
 1.3820	35.9630
 1.3830	35.4250
 1.3840	34.8700
 1.3850	34.2970
 1.3860	33.7110
 1.3870	33.1030
 1.3880	32.4960
 1.3890	31.8790
 1.3900	31.2540
 1.3910	30.6350
 1.3920	30.0150
 1.3930	29.3950
 1.3940	28.7850
 1.3950	28.1770
 1.3960	27.5820
 1.3970	27.0020
 1.3980	26.4370
 1.3990	25.8950
 1.4000	25.3720
 1.4010	24.8670
 1.4020	24.3870
 1.4030	23.9250
 1.4040	23.4880
 1.4050	23.0750
 1.4060	22.6830
 1.4070	22.3190
 1.4080	21.9770
 1.4090	21.6540
 1.4100	21.3550
 1.4110	21.0770
 1.4120	20.8180
 1.4130	20.5800
 1.4140	20.3600
 1.4150	20.1590
 1.4160	19.9740
 1.4170	19.8030
 1.4180	19.6470
 1.4190	19.5030
 1.4200	19.3710
 1.4210	19.2500
 1.4220	19.1390
 1.4230	19.0390
 1.4240	18.9490
 1.4250	18.8670
 1.4260	18.7940
 1.4270	18.7270
 1.4280	18.6670
 1.4290	18.6130
 1.4300	18.5660
 1.4310	18.5250
 1.4320	18.4910
 1.4330	18.4600
 1.4340	18.4350
 1.4350	18.4140
 1.4360	18.3980
 1.4370	18.3840
 1.4380	18.3750
 1.4390	18.3680
 1.4400	18.3640
 1.4410	18.3640
 1.4420	18.3670
 1.4430	18.3720
 1.4440	18.3790
 1.4450	18.3860
 1.4460	18.3960
 1.4470	18.4080
 1.4480	18.4220
 1.4490	18.4380
 1.4500	18.4550
 1.4510	18.4720
 1.4520	18.4920
 1.4530	18.5130
 1.4540	18.5360
 1.4550	18.5620
 1.4560	18.5900
 1.4570	18.6200
 1.4580	18.6530
 1.4590	18.6890
 1.4600	18.7280
 1.4610	18.7730
 1.4620	18.8210
 1.4630	18.8760
 1.4640	18.9360
 1.4650	19.0010
 1.4660	19.0700
 1.4670	19.1440
 1.4680	19.2220
 1.4690	19.3040
 1.4700	19.3900
