Name: Adenostoma fasciculatum 3
Type: vegetation
Class: Shrub
Genus: Adenostoma
Species: fasciculatum
Sample No.: VH221
Owner: UCSB
Wavelength Range: TIR
Origin: 34.5084; -119.7686; WGS84
Collection Date: 10/13/2013
Description: Samples were collected as part of the HyspIRI Airborne Campaign. 48 individual plants were sampled in three times in 2013 - spring  summer  and fall. The name of the sample includes a 1  2  or 3 which references a different individual of the species. Samples were taken to JPL and processed within 48 hours of collection. The same leaves were processed in the Nicolet and then measured using the ASD.
Measurement: Hemispherical reflectance
First Column: X
Second Column: Y
X Units: Wavelength (micrometers)
Y Units: Reflectance (percentage)
First X Value: 2.501
Last X Value: 15.387
Number of X Values: 1737
Additional Information: vegetation.shrub.adenostoma.fasciculatum.tir.vh221.ucsb.nicolet.ancillary.txt

 2.5010	 8.3270
 2.5030	 8.2600
 2.5040	 8.1860
 2.5050	 8.0570
 2.5060	 7.7840
 2.5070	 7.7230
 2.5090	 7.8610
 2.5100	 7.7400
 2.5110	 7.9200
 2.5120	 7.9040
 2.5140	 7.8280
 2.5150	 7.8280
 2.5160	 7.8720
 2.5170	 7.7820
 2.5180	 7.7780
 2.5200	 7.8460
 2.5210	 8.0200
 2.5220	 7.9580
 2.5230	 7.9990
 2.5250	 7.9020
 2.5260	 7.8540
 2.5270	 7.7670
 2.5280	 7.9490
 2.5290	 7.8230
 2.5310	 7.6610
 2.5320	 7.7660
 2.5330	 7.9690
 2.5340	 7.9590
 2.5360	 7.9030
 2.5370	 7.8450
 2.5380	 7.9050
 2.5390	 7.7550
 2.5410	 7.8580
 2.5420	 7.9570
 2.5430	 7.8230
 2.5440	 7.8420
 2.5460	 8.0490
 2.5470	 8.0200
 2.5480	 8.0070
 2.5490	 8.0710
 2.5510	 8.1630
 2.5520	 8.0660
 2.5530	 7.9650
 2.5540	 7.9730
 2.5560	 8.0650
 2.5570	 8.0470
 2.5580	 8.1370
 2.5590	 8.0210
 2.5610	 7.8390
 2.5620	 7.8790
 2.5630	 8.0850
 2.5640	 7.8910
 2.5660	 7.8870
 2.5670	 7.9830
 2.5680	 8.0560
 2.5700	 7.8940
 2.5710	 7.8290
 2.5720	 7.6990
 2.5730	 7.8360
 2.5750	 8.0210
 2.5760	 8.0810
 2.5770	 8.0040
 2.5790	 8.2100
 2.5800	 8.2080
 2.5810	 8.0710
 2.5820	 7.9760
 2.5840	 7.9050
 2.5850	 8.0370
 2.5860	 8.3170
 2.5880	 8.1720
 2.5890	 8.1250
 2.5900	 7.9820
 2.5910	 8.1030
 2.5930	 8.1420
 2.5940	 8.1090
 2.5950	 8.0030
 2.5970	 8.0340
 2.5980	 7.9420
 2.5990	 7.8910
 2.6000	 7.9700
 2.6020	 8.1450
 2.6030	 8.0510
 2.6040	 7.8800
 2.6060	 7.7130
 2.6070	 7.8180
 2.6080	 7.8540
 2.6100	 7.8410
 2.6110	 7.7930
 2.6120	 7.7570
 2.6140	 7.6390
 2.6150	 7.6670
 2.6160	 7.5380
 2.6180	 7.4960
 2.6190	 7.4420
 2.6200	 7.5450
 2.6220	 7.6990
 2.6230	 7.7590
 2.6240	 7.6880
 2.6260	 7.6280
 2.6270	 7.5100
 2.6280	 7.4980
 2.6300	 7.5480
 2.6310	 7.6270
 2.6320	 7.5410
 2.6340	 7.5070
 2.6350	 7.5330
 2.6360	 7.6190
 2.6380	 7.6280
 2.6390	 7.6410
 2.6400	 7.4160
 2.6420	 7.4070
 2.6430	 7.3090
 2.6440	 7.2730
 2.6460	 7.2660
 2.6470	 7.4630
 2.6480	 7.3750
 2.6500	 7.1850
 2.6510	 7.2570
 2.6520	 7.4730
 2.6540	 7.1840
 2.6550	 7.1680
 2.6560	 7.2910
 2.6580	 7.2400
 2.6590	 7.1170
 2.6610	 7.2540
 2.6620	 7.1500
 2.6630	 7.1100
 2.6650	 7.1160
 2.6660	 7.0740
 2.6670	 6.9470
 2.6690	 6.9990
 2.6700	 6.8850
 2.6720	 6.8700
 2.6730	 6.7890
 2.6740	 6.8990
 2.6760	 6.8570
 2.6770	 6.7820
 2.6780	 6.7450
 2.6800	 6.7040
 2.6810	 6.7510
 2.6830	 6.7390
 2.6840	 6.5700
 2.6850	 6.5480
 2.6870	 6.4670
 2.6880	 6.4630
 2.6900	 6.4880
 2.6910	 6.7180
 2.6920	 6.7610
 2.6940	 6.7950
 2.6950	 6.6310
 2.6970	 6.3180
 2.6980	 6.1860
 2.6990	 6.0270
 2.7010	 6.0340
 2.7020	 6.3540
 2.7040	 6.3790
 2.7050	 6.2470
 2.7060	 5.9090
 2.7080	 5.9760
 2.7090	 6.2850
 2.7110	 6.3530
 2.7120	 6.0830
 2.7130	 6.0230
 2.7150	 6.0460
 2.7160	 6.0940
 2.7180	 6.1410
 2.7190	 6.1210
 2.7210	 5.9470
 2.7220	 6.2070
 2.7230	 6.3690
 2.7250	 6.2740
 2.7260	 6.2340
 2.7280	 6.3340
 2.7290	 6.1400
 2.7310	 6.0810
 2.7320	 5.8920
 2.7330	 5.8400
 2.7350	 5.8950
 2.7360	 6.0480
 2.7380	 5.8610
 2.7390	 5.9660
 2.7410	 5.8640
 2.7420	 5.8650
 2.7440	 5.5890
 2.7450	 5.6650
 2.7470	 6.1480
 2.7480	 6.3460
 2.7490	 6.3730
 2.7510	 6.1570
 2.7520	 5.8180
 2.7540	 5.4530
 2.7550	 5.7270
 2.7570	 5.8670
 2.7580	 6.0380
 2.7600	 6.3260
 2.7610	 6.0770
 2.7630	 5.7930
 2.7640	 6.1730
 2.7660	 6.0890
 2.7670	 5.2930
 2.7680	 5.1080
 2.7700	 5.2350
 2.7710	 5.6320
 2.7730	 5.6940
 2.7740	 5.9570
 2.7760	 5.9230
 2.7770	 5.7690
 2.7790	 5.8420
 2.7800	 5.9540
 2.7820	 6.0090
 2.7830	 6.0110
 2.7850	 5.6280
 2.7860	 5.4070
 2.7880	 5.6160
 2.7890	 6.0290
 2.7910	 6.0110
 2.7920	 5.7310
 2.7940	 5.6540
 2.7950	 5.6540
 2.7970	 5.6400
 2.7980	 5.7770
 2.8000	 5.5880
 2.8010	 5.6670
 2.8030	 5.9060
 2.8040	 6.0880
 2.8060	 5.9430
 2.8070	 5.7520
 2.8090	 5.7030
 2.8110	 5.7090
 2.8120	 5.6860
 2.8140	 6.1570
 2.8150	 6.4760
 2.8170	 6.5080
 2.8180	 5.6540
 2.8200	 5.1570
 2.8210	 5.6200
 2.8230	 5.9510
 2.8240	 5.9320
 2.8260	 5.8980
 2.8270	 5.3900
 2.8290	 5.4090
 2.8300	 5.8790
 2.8320	 6.2490
 2.8340	 6.0900
 2.8350	 6.1170
 2.8370	 6.1390
 2.8380	 6.3340
 2.8400	 6.2990
 2.8410	 6.3010
 2.8430	 5.9470
 2.8440	 5.6910
 2.8460	 5.6960
 2.8480	 5.8080
 2.8490	 6.0160
 2.8510	 6.0420
 2.8520	 5.8890
 2.8540	 5.7870
 2.8550	 5.8240
 2.8570	 5.8400
 2.8590	 5.8020
 2.8600	 6.0570
 2.8620	 5.9820
 2.8630	 5.6400
 2.8650	 5.6320
 2.8660	 5.9430
 2.8680	 5.9650
 2.8700	 6.1400
 2.8710	 5.8220
 2.8730	 5.7880
 2.8740	 5.7880
 2.8760	 5.8710
 2.8780	 6.0680
 2.8790	 6.0750
 2.8810	 5.9880
 2.8820	 6.1090
 2.8840	 5.8550
 2.8860	 5.5940
 2.8870	 5.7960
 2.8890	 6.0180
 2.8900	 5.6100
 2.8920	 5.5560
 2.8940	 5.8580
 2.8950	 6.2240
 2.8970	 5.9340
 2.8980	 5.5900
 2.9000	 5.4920
 2.9020	 5.8040
 2.9030	 5.9690
 2.9050	 5.6280
 2.9070	 5.4790
 2.9080	 5.5580
 2.9100	 5.5660
 2.9120	 5.8530
 2.9130	 5.6850
 2.9150	 5.7290
 2.9160	 6.0100
 2.9180	 6.2450
 2.9200	 6.0440
 2.9210	 6.0040
 2.9230	 5.8910
 2.9250	 5.9510
 2.9260	 6.0540
 2.9280	 6.1350
 2.9300	 6.1710
 2.9310	 6.1250
 2.9330	 5.9010
 2.9350	 5.8740
 2.9360	 5.7910
 2.9380	 5.9310
 2.9400	 6.1530
 2.9410	 5.9800
 2.9430	 5.7070
 2.9450	 6.2920
 2.9460	 6.2900
 2.9480	 5.9510
 2.9500	 6.5560
 2.9510	 7.1920
 2.9530	 6.8870
 2.9550	 6.8470
 2.9560	 6.0170
 2.9580	 5.6290
 2.9600	 5.5580
 2.9610	 6.3670
 2.9630	 6.0820
 2.9650	 4.9640
 2.9660	 6.5130
 2.9680	 8.5380
 2.9700	 9.0730
 2.9720	 8.4070
 2.9730	 5.8740
 2.9750	 5.3190
 2.9770	 5.7360
 2.9780	 5.1190
 2.9800	 4.6110
 2.9820	 5.4480
 2.9840	 5.9570
 2.9850	 6.6640
 2.9870	 8.0640
 2.9890	 7.1220
 2.9900	 5.2340
 2.9920	 6.2500
 2.9940	 6.6700
 2.9960	 5.0680
 2.9970	 6.4490
 2.9990	 6.6170
 3.0010	 6.1420
 3.0030	 7.4200
 3.0040	 7.9440
 3.0060	 6.9850
 3.0080	 7.5390
 3.0100	 8.6340
 3.0110	 7.4550
 3.0130	 5.9290
 3.0150	 5.5970
 3.0170	 6.3930
 3.0180	 7.5470
 3.0200	 7.0020
 3.0220	 6.4640
 3.0240	 5.9030
 3.0250	 5.3030
 3.0270	 6.0010
 3.0290	 6.6360
 3.0310	 5.9890
 3.0320	 5.5450
 3.0340	 3.9910
 3.0360	 3.6400
 3.0380	 4.8060
 3.0400	 4.6360
 3.0410	 3.4230
 3.0430	 4.6390
 3.0450	 7.7090
 3.0470	 5.9230
 3.0480	 5.5520
 3.0500	 8.1010
 3.0520	 7.9010
 3.0540	 8.1310
 3.0560	 8.5100
 3.0570	 7.3850
 3.0590	 6.2430
 3.0610	 5.5960
 3.0630	 6.3220
 3.0650	 6.5060
 3.0660	 6.8650
 3.0680	 7.5280
 3.0700	 6.9120
 3.0720	 5.9460
 3.0740	 6.0290
 3.0760	 6.4710
 3.0770	 6.5940
 3.0790	 6.1560
 3.0810	 6.0230
 3.0830	 6.1160
 3.0850	 6.4430
 3.0870	 6.2790
 3.0880	 6.3300
 3.0900	 6.0170
 3.0920	 5.7110
 3.0940	 5.4530
 3.0960	 5.7110
 3.0980	 6.1600
 3.0990	 6.6460
 3.1010	 6.4610
 3.1030	 6.2580
 3.1050	 5.9060
 3.1070	 5.7730
 3.1090	 5.6280
 3.1110	 5.7680
 3.1120	 5.8690
 3.1140	 5.9740
 3.1160	 6.2110
 3.1180	 6.2180
 3.1200	 6.0720
 3.1220	 6.3200
 3.1240	 6.3960
 3.1260	 5.9650
 3.1270	 5.7420
 3.1290	 5.9330
 3.1310	 5.9090
 3.1330	 5.6190
 3.1350	 6.1110
 3.1370	 6.6730
 3.1390	 5.7080
 3.1410	 4.8520
 3.1430	 5.3040
 3.1450	 6.4180
 3.1460	 5.7540
 3.1480	 6.3720
 3.1500	 6.1970
 3.1520	 6.7410
 3.1540	 8.6490
 3.1560	 7.2390
 3.1580	 5.0110
 3.1600	 5.2460
 3.1620	 4.7240
 3.1640	 5.6040
 3.1660	 6.9010
 3.1680	 6.1440
 3.1700	 1.3350
 3.1710	 -0.323
 3.1730	 1.3370
 3.1750	 4.1480
 3.1770	 5.0980
 3.1790	 4.9360
 3.1810	 7.0480
 3.1830	 8.1030
 3.1850	 6.6510
 3.1870	 5.6610
 3.1890	 6.0410
 3.1910	 6.1200
 3.1930	 6.0300
 3.1950	 6.2040
 3.1970	 6.5850
 3.1990	 6.3530
 3.2010	 5.8880
 3.2030	 6.1440
 3.2050	 6.3050
 3.2070	 6.0310
 3.2090	 5.7870
 3.2110	 5.9180
 3.2130	 6.0570
 3.2150	 5.7190
 3.2170	 5.7020
 3.2190	 5.9000
 3.2210	 6.0410
 3.2230	 6.0510
 3.2250	 5.8320
 3.2270	 5.6470
 3.2290	 5.8320
 3.2310	 6.0570
 3.2330	 6.1460
 3.2350	 6.1400
 3.2370	 6.0210
 3.2390	 5.8100
 3.2410	 5.5410
 3.2430	 5.4910
 3.2450	 6.1090
 3.2470	 6.7240
 3.2490	 6.1410
 3.2510	 5.6720
 3.2530	 5.7960
 3.2550	 5.9410
 3.2570	 5.7980
 3.2590	 6.2050
 3.2610	 6.7560
 3.2630	 6.3570
 3.2650	 5.7120
 3.2670	 5.4210
 3.2690	 5.5530
 3.2720	 5.6530
 3.2740	 5.7800
 3.2760	 6.0540
 3.2780	 6.0350
 3.2800	 5.9850
 3.2820	 6.1620
 3.2840	 6.3430
 3.2860	 6.5970
 3.2880	 6.5380
 3.2900	 6.0540
 3.2920	 5.3740
 3.2940	 5.2750
 3.2960	 5.3750
 3.2990	 5.6210
 3.3010	 6.1520
 3.3030	 6.1500
 3.3050	 6.0280
 3.3070	 5.9360
 3.3090	 5.9920
 3.3110	 5.6780
 3.3130	 5.5150
 3.3150	 5.9370
 3.3180	 6.3400
 3.3200	 6.0980
 3.3220	 5.9870
 3.3240	 5.9320
 3.3260	 5.8310
 3.3280	 5.8530
 3.3300	 5.7470
 3.3330	 5.8130
 3.3350	 5.7670
 3.3370	 5.7690
 3.3390	 6.0200
 3.3410	 5.9040
 3.3430	 5.6560
 3.3450	 5.6710
 3.3480	 5.6950
 3.3500	 5.7680
 3.3520	 5.8920
 3.3540	 5.8360
 3.3560	 5.6930
 3.3580	 5.5800
 3.3610	 5.7860
 3.3630	 5.7830
 3.3650	 5.5300
 3.3670	 5.6090
 3.3690	 5.7950
 3.3720	 5.6610
 3.3740	 5.6930
 3.3760	 5.8350
 3.3780	 5.8760
 3.3800	 5.9020
 3.3830	 5.8160
 3.3850	 5.6730
 3.3870	 5.5090
 3.3890	 5.5300
 3.3910	 5.6710
 3.3940	 5.6290
 3.3960	 5.5890
 3.3980	 5.6540
 3.4000	 5.7270
 3.4020	 5.6580
 3.4050	 5.6730
 3.4070	 5.7480
 3.4090	 5.9190
 3.4110	 5.9920
 3.4140	 5.9750
 3.4160	 6.0020
 3.4180	 6.1850
 3.4200	 6.1820
 3.4230	 6.2280
 3.4250	 6.5820
 3.4270	 7.0070
 3.4290	 7.2200
 3.4320	 7.3040
 3.4340	 6.9140
 3.4360	 6.5180
 3.4390	 6.1750
 3.4410	 6.1440
 3.4430	 5.8820
 3.4450	 5.6800
 3.4480	 5.6410
 3.4500	 5.5330
 3.4520	 5.6460
 3.4550	 5.8150
 3.4570	 5.7070
 3.4590	 6.0610
 3.4620	 6.2770
 3.4640	 6.3230
 3.4660	 6.3530
 3.4680	 6.3970
 3.4710	 6.3480
 3.4730	 6.2950
 3.4750	 6.0590
 3.4780	 5.9240
 3.4800	 6.0300
 3.4820	 6.0410
 3.4850	 5.8310
 3.4870	 5.8500
 3.4890	 6.0040
 3.4920	 6.0040
 3.4940	 5.8760
 3.4970	 5.9710
 3.4990	 6.1310
 3.5010	 6.2020
 3.5040	 6.0960
 3.5060	 6.1610
 3.5080	 6.5140
 3.5110	 6.7130
 3.5130	 6.6670
 3.5160	 6.6620
 3.5180	 6.5470
 3.5200	 6.3910
 3.5230	 6.1980
 3.5250	 6.1520
 3.5270	 6.1760
 3.5300	 6.1740
 3.5320	 6.1190
 3.5350	 6.0890
 3.5370	 6.0340
 3.5400	 6.0490
 3.5420	 5.9760
 3.5440	 5.9780
 3.5470	 6.1750
 3.5490	 6.2140
 3.5520	 6.1380
 3.5540	 6.1210
 3.5570	 5.9460
 3.5590	 6.0030
 3.5610	 6.1310
 3.5640	 6.0540
 3.5660	 6.0250
 3.5690	 5.9880
 3.5710	 5.9980
 3.5740	 6.2900
 3.5760	 6.3010
 3.5790	 6.1460
 3.5810	 6.0230
 3.5840	 6.0530
 3.5860	 6.0730
 3.5890	 6.2650
 3.5910	 6.0770
 3.5930	 6.2350
 3.5960	 6.6960
 3.5980	 6.2130
 3.6010	 5.7700
 3.6030	 5.9730
 3.6060	 6.1800
 3.6080	 6.1790
 3.6110	 6.1960
 3.6140	 6.2150
 3.6160	 6.1720
 3.6190	 6.2280
 3.6210	 6.1540
 3.6240	 6.1410
 3.6260	 6.2420
 3.6290	 6.2840
 3.6310	 6.1310
 3.6340	 6.1690
 3.6360	 6.1780
 3.6390	 6.1440
 3.6410	 6.1120
 3.6440	 6.0670
 3.6470	 6.1100
 3.6490	 6.1530
 3.6520	 6.2090
 3.6540	 6.2300
 3.6570	 6.2300
 3.6590	 6.2310
 3.6620	 6.3220
 3.6650	 6.3290
 3.6670	 6.1130
 3.6700	 5.9350
 3.6720	 6.0990
 3.6750	 6.2600
 3.6780	 6.2880
 3.6800	 6.2640
 3.6830	 6.1650
 3.6850	 6.1670
 3.6880	 6.2010
 3.6910	 6.2230
 3.6930	 6.2250
 3.6960	 6.2730
 3.6990	 6.2970
 3.7010	 6.3050
 3.7040	 6.2450
 3.7060	 6.1870
 3.7090	 6.1140
 3.7120	 6.2400
 3.7140	 6.3470
 3.7170	 6.3250
 3.7200	 6.2550
 3.7220	 6.3310
 3.7250	 6.3930
 3.7280	 6.2810
 3.7300	 6.1970
 3.7330	 6.1790
 3.7360	 6.1310
 3.7390	 6.1060
 3.7410	 6.0870
 3.7440	 6.2080
 3.7470	 6.2330
 3.7490	 6.2820
 3.7520	 6.3340
 3.7550	 6.2480
 3.7580	 6.3050
 3.7600	 6.4050
 3.7630	 6.2380
 3.7660	 6.2000
 3.7680	 6.0690
 3.7710	 6.0590
 3.7740	 6.1310
 3.7770	 6.2420
 3.7790	 6.3460
 3.7820	 6.2840
 3.7850	 6.1630
 3.7880	 6.1740
 3.7900	 6.3340
 3.7930	 6.4240
 3.7960	 6.3590
 3.7990	 6.2900
 3.8020	 6.2740
 3.8040	 6.3850
 3.8070	 6.5470
 3.8100	 6.4710
 3.8130	 6.2680
 3.8160	 6.2330
 3.8180	 6.2710
 3.8210	 6.2000
 3.8240	 6.2150
 3.8270	 6.2670
 3.8300	 6.1790
 3.8330	 6.2470
 3.8350	 6.4240
 3.8380	 6.5670
 3.8410	 6.2830
 3.8440	 6.1350
 3.8470	 6.1530
 3.8500	 6.1450
 3.8520	 6.1870
 3.8550	 6.2920
 3.8580	 6.3260
 3.8610	 6.3470
 3.8640	 6.2890
 3.8670	 6.2150
 3.8700	 6.2300
 3.8730	 6.4020
 3.8750	 6.5230
 3.8780	 6.4320
 3.8810	 6.3630
 3.8840	 6.4420
 3.8870	 6.4260
 3.8900	 6.3390
 3.8930	 6.2830
 3.8960	 6.3750
 3.8990	 6.4710
 3.9020	 6.4420
 3.9050	 6.3570
 3.9080	 6.4860
 3.9110	 6.5390
 3.9140	 6.4430
 3.9160	 6.4890
 3.9190	 6.5250
 3.9220	 6.5110
 3.9250	 6.6160
 3.9280	 6.5700
 3.9310	 6.4470
 3.9340	 6.4420
 3.9370	 6.4780
 3.9400	 6.3950
 3.9430	 6.3920
 3.9460	 6.4450
 3.9490	 6.5170
 3.9520	 6.4830
 3.9550	 6.4800
 3.9580	 6.4280
 3.9610	 6.4360
 3.9640	 6.5440
 3.9670	 6.6350
 3.9700	 6.5880
 3.9730	 6.5880
 3.9770	 6.5870
 3.9800	 6.5710
 3.9830	 6.4730
 3.9860	 6.4240
 3.9890	 6.4430
 3.9920	 6.5740
 3.9950	 6.6150
 3.9980	 6.5430
 4.0010	 6.4750
 4.0040	 6.5280
 4.0070	 6.5460
 4.0100	 6.5250
 4.0130	 6.5880
 4.0170	 6.6390
 4.0200	 6.6040
 4.0230	 6.5210
 4.0260	 6.5160
 4.0290	 6.5690
 4.0320	 6.5570
 4.0350	 6.5560
 4.0380	 6.5340
 4.0420	 6.6260
 4.0450	 6.5880
 4.0480	 6.5110
 4.0510	 6.4990
 4.0540	 6.6450
 4.0570	 6.6570
 4.0610	 6.7210
 4.0640	 6.7420
 4.0670	 6.6050
 4.0700	 6.5360
 4.0730	 6.5570
 4.0770	 6.6090
 4.0800	 6.6200
 4.0830	 6.7160
 4.0860	 6.8360
 4.0890	 6.6730
 4.0930	 6.6100
 4.0960	 6.6980
 4.0990	 6.7090
 4.1020	 6.6540
 4.1060	 6.4670
 4.1090	 6.3980
 4.1120	 6.6400
 4.1150	 6.7520
 4.1190	 6.7110
 4.1220	 6.7170
 4.1250	 6.6790
 4.1280	 6.6360
 4.1320	 6.6640
 4.1350	 6.6230
 4.1380	 6.6500
 4.1420	 6.7190
 4.1450	 6.6980
 4.1480	 6.6460
 4.1520	 6.6700
 4.1550	 6.6780
 4.1580	 6.7000
 4.1620	 6.7200
 4.1650	 6.7050
 4.1680	 6.7130
 4.1720	 6.6750
 4.1750	 6.6060
 4.1780	 6.5660
 4.1820	 6.6160
 4.1850	 6.7440
 4.1890	 6.7530
 4.1920	 6.5510
 4.1950	 6.5450
 4.1990	 6.6170
 4.2020	 6.5830
 4.2060	 6.4570
 4.2090	 6.2850
 4.2120	 6.3040
 4.2160	 6.3500
 4.2190	 6.2930
 4.2230	 6.2520
 4.2260	 5.9300
 4.2300	 5.8810
 4.2330	 5.8110
 4.2360	 5.4040
 4.2400	 5.9400
 4.2430	 6.1080
 4.2470	 6.2790
 4.2500	 6.4520
 4.2540	 6.4430
 4.2570	 6.5290
 4.2610	 6.3680
 4.2640	 6.0440
 4.2680	 6.0860
 4.2710	 6.2370
 4.2750	 6.1680
 4.2780	 6.1940
 4.2820	 6.3120
 4.2850	 6.4050
 4.2890	 6.6300
 4.2930	 6.6480
 4.2960	 6.3760
 4.3000	 6.1350
 4.3030	 6.3190
 4.3070	 6.5000
 4.3100	 6.3800
 4.3140	 6.2720
 4.3180	 6.3240
 4.3210	 6.4900
 4.3250	 6.4890
 4.3280	 6.4280
 4.3320	 6.3820
 4.3360	 6.4860
 4.3390	 6.5160
 4.3430	 6.4530
 4.3470	 6.4890
 4.3500	 6.5980
 4.3540	 6.6760
 4.3570	 6.7370
 4.3610	 6.7230
 4.3650	 6.7010
 4.3680	 6.6840
 4.3720	 6.6770
 4.3760	 6.6960
 4.3800	 6.6820
 4.3830	 6.7420
 4.3870	 6.7500
 4.3910	 6.7280
 4.3940	 6.6490
 4.3980	 6.6240
 4.4020	 6.6290
 4.4060	 6.6400
 4.4090	 6.6740
 4.4130	 6.6980
 4.4170	 6.7570
 4.4210	 6.7950
 4.4240	 6.7810
 4.4280	 6.8120
 4.4320	 6.7830
 4.4360	 6.6760
 4.4400	 6.5600
 4.4430	 6.5580
 4.4470	 6.6480
 4.4510	 6.6650
 4.4550	 6.6190
 4.4590	 6.5350
 4.4620	 6.5290
 4.4660	 6.5360
 4.4700	 6.5450
 4.4740	 6.5600
 4.4780	 6.5740
 4.4820	 6.6110
 4.4860	 6.6090
 4.4900	 6.5980
 4.4930	 6.6090
 4.4970	 6.5700
 4.5010	 6.5370
 4.5050	 6.5670
 4.5090	 6.5940
 4.5130	 6.5880
 4.5170	 6.5930
 4.5210	 6.5220
 4.5250	 6.5090
 4.5290	 6.5390
 4.5330	 6.4950
 4.5370	 6.5410
 4.5410	 6.5670
 4.5450	 6.5130
 4.5490	 6.4810
 4.5530	 6.5090
 4.5570	 6.5170
 4.5610	 6.4070
 4.5650	 6.4780
 4.5690	 6.5200
 4.5730	 6.4940
 4.5770	 6.5500
 4.5810	 6.5660
 4.5850	 6.5640
 4.5890	 6.6300
 4.5930	 6.5670
 4.5970	 6.4770
 4.6010	 6.5360
 4.6050	 6.7260
 4.6090	 6.7040
 4.6130	 6.5850
 4.6170	 6.5770
 4.6220	 6.5430
 4.6260	 6.4260
 4.6300	 6.5010
 4.6340	 6.6240
 4.6380	 6.6860
 4.6420	 6.6530
 4.6460	 6.4730
 4.6510	 6.4060
 4.6550	 6.3910
 4.6590	 6.3680
 4.6630	 6.4340
 4.6670	 6.5130
 4.6720	 6.6000
 4.6760	 6.5480
 4.6800	 6.5380
 4.6840	 6.5130
 4.6880	 6.4760
 4.6930	 6.4170
 4.6970	 6.4200
 4.7010	 6.3820
 4.7050	 6.3460
 4.7100	 6.4080
 4.7140	 6.5130
 4.7180	 6.5070
 4.7230	 6.5390
 4.7270	 6.6290
 4.7310	 6.6950
 4.7360	 6.6490
 4.7400	 6.6610
 4.7440	 6.6180
 4.7490	 6.6350
 4.7530	 6.6040
 4.7570	 6.5430
 4.7620	 6.5160
 4.7660	 6.6140
 4.7700	 6.6300
 4.7750	 6.6750
 4.7790	 6.3690
 4.7840	 6.1690
 4.7880	 6.4250
 4.7920	 6.9260
 4.7970	 7.2480
 4.8010	 6.9270
 4.8060	 6.4160
 4.8100	 6.2760
 4.8150	 6.4410
 4.8190	 6.5490
 4.8240	 6.5730
 4.8280	 6.6270
 4.8330	 6.6910
 4.8370	 6.6250
 4.8420	 6.6750
 4.8460	 6.6430
 4.8510	 6.5610
 4.8550	 6.5600
 4.8600	 6.4620
 4.8640	 6.4650
 4.8690	 6.5860
 4.8730	 6.6200
 4.8780	 6.5110
 4.8830	 6.5440
 4.8870	 6.5920
 4.8920	 6.4380
 4.8960	 6.3830
 4.9010	 6.5380
 4.9060	 6.5810
 4.9100	 6.5950
 4.9150	 6.6440
 4.9200	 6.6430
 4.9240	 6.5910
 4.9290	 6.6380
 4.9340	 6.7330
 4.9380	 6.7300
 4.9430	 6.6170
 4.9480	 6.6320
 4.9530	 6.7300
 4.9570	 6.7220
 4.9620	 6.5790
 4.9670	 6.6450
 4.9720	 6.7430
 4.9760	 6.7650
 4.9810	 6.7580
 4.9860	 6.7440
 4.9910	 6.7050
 4.9960	 6.6770
 5.0000	 6.7060
 5.0050	 6.7890
 5.0100	 6.7210
 5.0150	 6.7080
 5.0200	 6.6860
 5.0250	 6.6640
 5.0290	 6.6740
 5.0340	 6.7310
 5.0390	 6.7220
 5.0440	 6.7600
 5.0490	 6.8210
 5.0540	 6.7610
 5.0590	 6.7680
 5.0640	 6.8080
 5.0690	 6.7830
 5.0740	 6.7970
 5.0790	 6.8290
 5.0840	 6.8480
 5.0890	 6.7940
 5.0940	 6.7820
 5.0990	 6.7600
 5.1040	 6.8280
 5.1090	 6.8290
 5.1140	 6.7990
 5.1190	 6.7870
 5.1240	 6.8290
 5.1290	 6.8020
 5.1340	 6.7840
 5.1390	 6.9150
 5.1440	 6.9980
 5.1490	 6.8860
 5.1540	 6.8280
 5.1600	 6.7740
 5.1650	 6.7520
 5.1700	 6.7390
 5.1750	 6.7330
 5.1800	 6.7330
 5.1850	 6.8260
 5.1910	 6.8280
 5.1960	 6.8350
 5.2010	 6.8260
 5.2060	 6.8750
 5.2110	 6.7950
 5.2170	 6.8480
 5.2220	 6.8070
 5.2270	 6.7260
 5.2320	 6.7620
 5.2380	 6.8730
 5.2430	 6.8710
 5.2480	 6.8550
 5.2540	 6.7990
 5.2590	 6.9010
 5.2640	 6.8990
 5.2700	 6.7720
 5.2750	 6.7520
 5.2800	 6.8480
 5.2860	 6.7740
 5.2910	 6.7510
 5.2970	 6.7520
 5.3020	 6.7630
 5.3070	 6.7720
 5.3130	 6.7890
 5.3180	 6.7570
 5.3240	 6.7530
 5.3290	 6.7350
 5.3350	 6.7630
 5.3400	 6.7900
 5.3460	 6.7550
 5.3510	 6.7170
 5.3570	 6.6940
 5.3620	 6.6730
 5.3680	 6.7380
 5.3730	 6.7870
 5.3790	 6.7690
 5.3850	 6.7140
 5.3900	 6.7550
 5.3960	 6.7310
 5.4010	 6.7860
 5.4070	 6.7860
 5.4130	 6.7090
 5.4180	 6.6980
 5.4240	 6.7160
 5.4300	 6.7590
