Name: Betula lenta
Type: Vegetation
Class: Tree
Genus: Betula
Species: lenta
Sample No.: BELE-1-55
Owner: UCSB
Wavelength Range: TIR
Origin: USA; Massachusetts; Harvard Forest
Collection Date: 7/8/2013
Description: Samples were collected as part of NSF Macrosystem Biology proposal titled: Collaborative Research: Thermal controls on ecosystem metabolism and function: scaling from leaves to canopies to regions. Samples were collected and overnighted to JPL facilities for processing. The same leaves were processed in the Nicolet and then measured using the ASD.
Measurement: Hemispherical reflectance
First Column: X
Second Column: Y
X Units: Wavelength (micrometers)
Y Units: Reflectance (percentage)
First X Value: 2.501
Last X Value: 15.387
Number of X Values: 1737
Additional Information: vegetation.tree.betula.lenta.tir.bele-1-55.ucsb.nicolet.ancillary.txt

 2.5010	11.9950
 2.5030	11.8580
 2.5040	12.1720
 2.5050	12.1760
 2.5060	11.8970
 2.5070	11.7530
 2.5090	11.9270
 2.5100	11.8660
 2.5110	11.7390
 2.5120	11.8040
 2.5140	11.9870
 2.5150	11.6970
 2.5160	11.4730
 2.5170	11.5200
 2.5180	11.5100
 2.5200	11.4410
 2.5210	11.4600
 2.5220	11.2390
 2.5230	11.1320
 2.5250	11.2100
 2.5260	11.4560
 2.5270	11.4780
 2.5280	11.5450
 2.5290	11.4920
 2.5310	11.4870
 2.5320	11.4380
 2.5330	11.6090
 2.5340	11.8270
 2.5360	11.5630
 2.5370	11.2870
 2.5380	11.4570
 2.5390	11.4380
 2.5410	11.3540
 2.5420	11.5590
 2.5430	11.5690
 2.5440	11.3790
 2.5460	11.3600
 2.5470	11.3660
 2.5480	11.3850
 2.5490	11.4190
 2.5510	11.4760
 2.5520	11.4700
 2.5530	11.4120
 2.5540	11.2800
 2.5560	11.2910
 2.5570	11.4440
 2.5580	11.5590
 2.5590	11.3550
 2.5610	11.3140
 2.5620	11.4750
 2.5630	11.7420
 2.5640	11.7530
 2.5660	11.7690
 2.5670	11.7120
 2.5680	11.5770
 2.5700	11.3540
 2.5710	11.4910
 2.5720	11.6140
 2.5730	11.7420
 2.5750	11.6330
 2.5760	11.4090
 2.5770	11.3160
 2.5790	11.1640
 2.5800	11.1080
 2.5810	11.0450
 2.5820	11.0200
 2.5840	11.1900
 2.5850	11.1750
 2.5860	10.9270
 2.5880	11.0210
 2.5890	11.3500
 2.5900	11.1690
 2.5910	11.1400
 2.5930	11.1480
 2.5940	10.9040
 2.5950	10.6310
 2.5970	10.4980
 2.5980	10.5250
 2.5990	10.7240
 2.6000	10.5380
 2.6020	10.4390
 2.6030	10.3010
 2.6040	10.3180
 2.6060	10.3060
 2.6070	10.1690
 2.6080	10.1240
 2.6100	10.3390
 2.6110	10.1410
 2.6120	10.0550
 2.6140	10.1160
 2.6150	10.1170
 2.6160	 9.8150
 2.6180	 9.6020
 2.6190	 9.5100
 2.6200	 9.4040
 2.6220	 9.3790
 2.6230	 9.3440
 2.6240	 9.0630
 2.6260	 8.9020
 2.6270	 8.9470
 2.6280	 8.8980
 2.6300	 8.6050
 2.6310	 8.6360
 2.6320	 8.6680
 2.6340	 8.8340
 2.6350	 8.6320
 2.6360	 8.3110
 2.6380	 8.0870
 2.6390	 8.2110
 2.6400	 8.1320
 2.6420	 7.8870
 2.6430	 7.8640
 2.6440	 7.8590
 2.6460	 7.6220
 2.6470	 7.5670
 2.6480	 7.6130
 2.6500	 7.5620
 2.6510	 7.3600
 2.6520	 7.2610
 2.6540	 7.1810
 2.6550	 7.2250
 2.6560	 7.0360
 2.6580	 6.7190
 2.6590	 6.6580
 2.6610	 6.4910
 2.6620	 6.4370
 2.6630	 6.5720
 2.6650	 6.3230
 2.6660	 5.8360
 2.6670	 5.8090
 2.6690	 6.1980
 2.6700	 6.4130
 2.6720	 6.2310
 2.6730	 5.9720
 2.6740	 5.7190
 2.6760	 5.2880
 2.6770	 5.1210
 2.6780	 5.1750
 2.6800	 5.4240
 2.6810	 5.6660
 2.6830	 5.8730
 2.6840	 5.7080
 2.6850	 5.4490
 2.6870	 5.1640
 2.6880	 5.0000
 2.6900	 4.9290
 2.6910	 4.9880
 2.6920	 4.8360
 2.6940	 4.7270
 2.6950	 4.7080
 2.6970	 4.8070
 2.6980	 4.6810
 2.6990	 4.6300
 2.7010	 4.8090
 2.7020	 5.1020
 2.7040	 5.0810
 2.7050	 4.7470
 2.7060	 4.5280
 2.7080	 4.5130
 2.7090	 4.4300
 2.7110	 4.4910
 2.7120	 4.5940
 2.7130	 4.7710
 2.7150	 4.6650
 2.7160	 4.5030
 2.7180	 4.4860
 2.7190	 4.6600
 2.7210	 4.4780
 2.7220	 4.1180
 2.7230	 4.1850
 2.7250	 4.5590
 2.7260	 4.5230
 2.7280	 4.5890
 2.7290	 4.3370
 2.7310	 4.1370
 2.7320	 4.1180
 2.7330	 4.2410
 2.7350	 4.2880
 2.7360	 4.2580
 2.7380	 4.1850
 2.7390	 4.3080
 2.7410	 4.3010
 2.7420	 4.4000
 2.7440	 4.3020
 2.7450	 4.3030
 2.7470	 4.4390
 2.7480	 4.5150
 2.7490	 4.2380
 2.7510	 4.5600
 2.7520	 4.4220
 2.7540	 3.7150
 2.7550	 3.5420
 2.7570	 4.0230
 2.7580	 4.2670
 2.7600	 4.1250
 2.7610	 4.1960
 2.7630	 4.3700
 2.7640	 4.5240
 2.7660	 4.5280
 2.7670	 4.0700
 2.7680	 4.2360
 2.7700	 4.4440
 2.7710	 4.5740
 2.7730	 4.5100
 2.7740	 4.4420
 2.7760	 4.1730
 2.7770	 4.0730
 2.7790	 4.4170
 2.7800	 4.7750
 2.7820	 4.2650
 2.7830	 4.0640
 2.7850	 4.3020
 2.7860	 4.3640
 2.7880	 4.2180
 2.7890	 4.1780
 2.7910	 4.0240
 2.7920	 4.0820
 2.7940	 4.0520
 2.7950	 4.0130
 2.7970	 4.1070
 2.7980	 4.0400
 2.8000	 4.0150
 2.8010	 4.2140
 2.8030	 3.9920
 2.8040	 3.8720
 2.8060	 4.1140
 2.8070	 4.2820
 2.8090	 4.2920
 2.8110	 4.3020
 2.8120	 4.0430
 2.8140	 3.7630
 2.8150	 3.6030
 2.8170	 3.7350
 2.8180	 3.7460
 2.8200	 3.7850
 2.8210	 3.7380
 2.8230	 3.4790
 2.8240	 3.4330
 2.8260	 3.7280
 2.8270	 3.7610
 2.8290	 3.9120
 2.8300	 3.9080
 2.8320	 3.9070
 2.8340	 3.9240
 2.8350	 3.8130
 2.8370	 3.5850
 2.8380	 3.5960
 2.8400	 3.7150
 2.8410	 3.8370
 2.8430	 3.8400
 2.8440	 3.8440
 2.8460	 3.7150
 2.8480	 3.7490
 2.8490	 3.7770
 2.8510	 3.7710
 2.8520	 3.6540
 2.8540	 3.5540
 2.8550	 3.6360
 2.8570	 3.8250
 2.8590	 3.8640
 2.8600	 4.0630
 2.8620	 4.1230
 2.8630	 3.9630
 2.8650	 3.5860
 2.8660	 3.3680
 2.8680	 3.3260
 2.8700	 3.8330
 2.8710	 4.0540
 2.8730	 3.6360
 2.8740	 3.4120
 2.8760	 3.5310
 2.8780	 3.3980
 2.8790	 3.1880
 2.8810	 2.8170
 2.8820	 3.2480
 2.8840	 3.6190
 2.8860	 3.3650
 2.8870	 3.1850
 2.8890	 3.0930
 2.8900	 2.7930
 2.8920	 3.3270
 2.8940	 3.9710
 2.8950	 3.8570
 2.8970	 3.4400
 2.8980	 3.1680
 2.9000	 3.2970
 2.9020	 3.4530
 2.9030	 3.3320
 2.9050	 3.2990
 2.9070	 3.3200
 2.9080	 3.3660
 2.9100	 3.2640
 2.9120	 3.4240
 2.9130	 3.6320
 2.9150	 3.8550
 2.9160	 3.7790
 2.9180	 3.6360
 2.9200	 3.5830
 2.9210	 3.6970
 2.9230	 3.7990
 2.9250	 3.8960
 2.9260	 3.7100
 2.9280	 3.7760
 2.9300	 3.6330
 2.9310	 3.2690
 2.9330	 3.2800
 2.9350	 3.4910
 2.9360	 3.4420
 2.9380	 3.3080
 2.9400	 3.3640
 2.9410	 3.4310
 2.9430	 3.4610
 2.9450	 3.2790
 2.9460	 3.5670
 2.9480	 3.9800
 2.9500	 4.0730
 2.9510	 3.9960
 2.9530	 4.0750
 2.9550	 3.8340
 2.9560	 3.3040
 2.9580	 3.1370
 2.9600	 3.3080
 2.9610	 3.6910
 2.9630	 4.4690
 2.9650	 4.1450
 2.9660	 3.3560
 2.9680	 4.1020
 2.9700	 6.0620
 2.9720	 5.1160
 2.9730	 3.3960
 2.9750	 2.1480
 2.9770	 3.5970
 2.9780	 6.3540
 2.9800	 5.7380
 2.9820	 3.5170
 2.9840	 2.1140
 2.9850	 2.7250
 2.9870	 3.5800
 2.9890	 3.5710
 2.9900	 2.8440
 2.9920	 2.3590
 2.9940	 1.3640
 2.9960	 1.9740
 2.9970	 2.7650
 2.9990	 3.2000
 3.0010	 3.5360
 3.0030	 4.2190
 3.0040	 3.6200
 3.0060	 3.8640
 3.0080	 4.2930
 3.0100	 4.5230
 3.0110	 4.5350
 3.0130	 3.5060
 3.0150	 2.8490
 3.0170	 2.7890
 3.0180	 3.6730
 3.0200	 4.9620
 3.0220	 4.3350
 3.0240	 3.6320
 3.0250	 3.3230
 3.0270	 3.6310
 3.0290	 3.4990
 3.0310	 4.2040
 3.0320	 4.7640
 3.0340	 4.6240
 3.0360	 4.3360
 3.0380	 4.0520
 3.0400	 4.3800
 3.0410	 5.7580
 3.0430	 5.8920
 3.0450	 4.9980
 3.0470	 3.9630
 3.0480	 2.1460
 3.0500	 0.4470
 3.0520	 -0.981
 3.0540	 0.1300
 3.0560	 1.1200
 3.0570	 1.2900
 3.0590	 3.0920
 3.0610	 4.3500
 3.0630	 3.8870
 3.0650	 4.1480
 3.0660	 5.8360
 3.0680	 5.1790
 3.0700	 5.7970
 3.0720	 5.6090
 3.0740	 4.7170
 3.0760	 4.4470
 3.0770	 3.7360
 3.0790	 3.7790
 3.0810	 4.0910
 3.0830	 4.0390
 3.0850	 4.0270
 3.0870	 4.1990
 3.0880	 4.2710
 3.0900	 4.1920
 3.0920	 4.4720
 3.0940	 4.7120
 3.0960	 4.4150
 3.0980	 3.7710
 3.0990	 3.6270
 3.1010	 3.8180
 3.1030	 3.9710
 3.1050	 3.7750
 3.1070	 3.7350
 3.1090	 4.0580
 3.1110	 4.1310
 3.1120	 3.7840
 3.1140	 4.0860
 3.1160	 4.9950
 3.1180	 4.7510
 3.1200	 4.1220
 3.1220	 3.9820
 3.1240	 4.0070
 3.1260	 4.1780
 3.1270	 4.8130
 3.1290	 5.1380
 3.1310	 4.9800
 3.1330	 5.1580
 3.1350	 4.9710
 3.1370	 3.7330
 3.1390	 3.3890
 3.1410	 4.2040
 3.1430	 5.3740
 3.1450	 6.0100
 3.1460	 5.6310
 3.1480	 4.6580
 3.1500	 3.4560
 3.1520	 2.1110
 3.1540	 3.5720
 3.1560	 4.8860
 3.1580	 3.1960
 3.1600	 2.6270
 3.1620	 4.3570
 3.1640	 3.8330
 3.1660	 3.9110
 3.1680	 5.2780
 3.1700	 6.5260
 3.1710	 5.5560
 3.1730	 4.5250
 3.1750	 5.1270
 3.1770	 3.2480
 3.1790	 5.5090
 3.1810	 6.0510
 3.1830	 6.1090
 3.1850	 4.6570
 3.1870	 3.5570
 3.1890	 3.9560
 3.1910	 4.6440
 3.1930	 5.0050
 3.1950	 4.6820
 3.1970	 4.4670
 3.1990	 4.1980
 3.2010	 4.0690
 3.2030	 4.3320
 3.2050	 4.3710
 3.2070	 4.3280
 3.2090	 4.3480
 3.2110	 4.0720
 3.2130	 4.0150
 3.2150	 4.1400
 3.2170	 4.0610
 3.2190	 4.2180
 3.2210	 4.2670
 3.2230	 4.1160
 3.2250	 4.0090
 3.2270	 4.3580
 3.2290	 4.3800
 3.2310	 4.2590
 3.2330	 4.2180
 3.2350	 3.9920
 3.2370	 3.8200
 3.2390	 4.0990
 3.2410	 3.8860
 3.2430	 3.8590
 3.2450	 3.9530
 3.2470	 4.0600
 3.2490	 4.2230
 3.2510	 4.0030
 3.2530	 3.8610
 3.2550	 4.1080
 3.2570	 4.1920
 3.2590	 4.3960
 3.2610	 4.2130
 3.2630	 4.1760
 3.2650	 3.9240
 3.2670	 3.6620
 3.2690	 3.7450
 3.2720	 3.9160
 3.2740	 4.1130
 3.2760	 4.1510
 3.2780	 3.9720
 3.2800	 3.9750
 3.2820	 3.9450
 3.2840	 4.1180
 3.2860	 4.2530
 3.2880	 4.3620
 3.2900	 4.3080
 3.2920	 3.9510
 3.2940	 3.9590
 3.2960	 4.2640
 3.2990	 4.1360
 3.3010	 3.9300
 3.3030	 3.6370
 3.3050	 3.4240
 3.3070	 3.5480
 3.3090	 4.1050
 3.3110	 4.4970
 3.3130	 4.3270
 3.3150	 3.7760
 3.3180	 3.7590
 3.3200	 4.1210
 3.3220	 4.1090
 3.3240	 3.9490
 3.3260	 3.8360
 3.3280	 3.6880
 3.3300	 3.9140
 3.3330	 3.9060
 3.3350	 3.9080
 3.3370	 3.9740
 3.3390	 3.7700
 3.3410	 3.5850
 3.3430	 3.6150
 3.3450	 3.4030
 3.3480	 3.3400
 3.3500	 3.4730
 3.3520	 3.9170
 3.3540	 3.9280
 3.3560	 3.6360
 3.3580	 3.6240
 3.3610	 3.5260
 3.3630	 3.4630
 3.3650	 3.6080
 3.3670	 3.6170
 3.3690	 3.7120
 3.3720	 3.4830
 3.3740	 3.2800
 3.3760	 3.2220
 3.3780	 3.3390
 3.3800	 3.4750
 3.3830	 3.5040
 3.3850	 3.5370
 3.3870	 3.3520
 3.3890	 2.9220
 3.3910	 3.0600
 3.3940	 3.1670
 3.3960	 2.9000
 3.3980	 2.6510
 3.4000	 2.6070
 3.4020	 2.6490
 3.4050	 2.6410
 3.4070	 2.5330
 3.4090	 2.5100
 3.4110	 2.5610
 3.4140	 2.7630
 3.4160	 2.8920
 3.4180	 3.2740
 3.4200	 4.0120
 3.4230	 5.1610
 3.4250	 6.4730
 3.4270	 8.0630
 3.4290	 9.2610
 3.4320	 9.4420
 3.4340	 8.6510
 3.4360	 7.7600
 3.4390	 6.9900
 3.4410	 6.4180
 3.4430	 6.0640
 3.4450	 5.7470
 3.4480	 5.5340
 3.4500	 5.3260
 3.4520	 5.2800
 3.4550	 5.1470
 3.4570	 4.9200
 3.4590	 5.0340
 3.4620	 4.8950
 3.4640	 4.9480
 3.4660	 5.0430
 3.4680	 5.0510
 3.4710	 4.8910
 3.4730	 4.9050
 3.4750	 4.9920
 3.4780	 4.9620
 3.4800	 4.9000
 3.4820	 4.8010
 3.4850	 4.3480
 3.4870	 4.1750
 3.4890	 4.2030
 3.4920	 3.9490
 3.4940	 3.5710
 3.4970	 3.5180
 3.4990	 3.4730
 3.5010	 3.5980
 3.5040	 3.8820
 3.5060	 4.6490
 3.5080	 6.2830
 3.5110	 8.2110
 3.5130	 8.8870
 3.5160	 8.1500
 3.5180	 7.1950
 3.5200	 6.6550
 3.5230	 6.2400
 3.5250	 5.9240
 3.5270	 5.5860
 3.5300	 5.4110
 3.5320	 5.4190
 3.5350	 5.3880
 3.5370	 5.2230
 3.5400	 5.1910
 3.5420	 5.1740
 3.5440	 5.1850
 3.5470	 4.9760
 3.5490	 4.9380
 3.5520	 5.1430
 3.5540	 5.1010
 3.5570	 4.9080
 3.5590	 4.9210
 3.5610	 4.9470
 3.5640	 4.9220
 3.5660	 4.8650
 3.5690	 4.7440
 3.5710	 4.7930
 3.5740	 4.8900
 3.5760	 4.7860
 3.5790	 4.8450
 3.5810	 4.9290
 3.5840	 4.8420
 3.5860	 4.6900
 3.5890	 4.6070
 3.5910	 4.6310
 3.5930	 4.9280
 3.5960	 4.8670
 3.5980	 4.8720
 3.6010	 4.7460
 3.6030	 4.8810
 3.6060	 5.0130
 3.6080	 4.7470
 3.6110	 4.5630
 3.6140	 4.9600
 3.6160	 5.1120
 3.6190	 4.9340
 3.6210	 4.6930
 3.6240	 4.7460
 3.6260	 4.7840
 3.6290	 4.7300
 3.6310	 4.6930
 3.6340	 4.7110
 3.6360	 4.6980
 3.6390	 4.6910
 3.6410	 4.7100
 3.6440	 4.7710
 3.6470	 4.6970
 3.6490	 4.7350
 3.6520	 4.7810
 3.6540	 4.8750
 3.6570	 4.8620
 3.6590	 4.8320
 3.6620	 4.7640
 3.6650	 4.7170
 3.6670	 4.6250
 3.6700	 4.6790
 3.6720	 4.7350
 3.6750	 4.7890
 3.6780	 4.7590
 3.6800	 4.8200
 3.6830	 4.9040
 3.6850	 4.8900
 3.6880	 4.7880
 3.6910	 4.7880
 3.6930	 4.7980
 3.6960	 4.8110
 3.6990	 4.8040
 3.7010	 4.8050
 3.7040	 4.6770
 3.7060	 4.7080
 3.7090	 4.8160
 3.7120	 4.8450
 3.7140	 4.7230
 3.7170	 4.8220
 3.7200	 4.8970
 3.7220	 4.8600
 3.7250	 4.8160
 3.7280	 4.9560
 3.7300	 4.9590
 3.7330	 4.8160
 3.7360	 4.9230
 3.7390	 5.1670
 3.7410	 5.1450
 3.7440	 5.2110
 3.7470	 5.1190
 3.7490	 5.0450
 3.7520	 5.2460
 3.7550	 5.4690
 3.7580	 5.4050
 3.7600	 5.1910
 3.7630	 5.0880
 3.7660	 5.1000
 3.7680	 5.0830
 3.7710	 5.2950
 3.7740	 5.3140
 3.7770	 5.0610
 3.7790	 5.0330
 3.7820	 5.2070
 3.7850	 5.3290
 3.7880	 5.4040
 3.7900	 5.4490
 3.7930	 5.4240
 3.7960	 5.5130
 3.7990	 5.7530
 3.8020	 5.7610
 3.8040	 5.6110
 3.8070	 5.4690
 3.8100	 5.6260
 3.8130	 5.6370
 3.8160	 5.4740
 3.8180	 5.4730
 3.8210	 5.7430
 3.8240	 5.7200
 3.8270	 5.5920
 3.8300	 5.4940
 3.8330	 5.4380
 3.8350	 5.3850
 3.8380	 5.5440
 3.8410	 5.8060
 3.8440	 6.0810
 3.8470	 6.1680
 3.8500	 6.0570
 3.8520	 5.9560
 3.8550	 5.7020
 3.8580	 5.6000
 3.8610	 5.7270
 3.8640	 5.7800
 3.8670	 5.7720
 3.8700	 5.7410
 3.8730	 5.8750
 3.8750	 5.9380
 3.8780	 5.8600
 3.8810	 5.7830
 3.8840	 5.6850
 3.8870	 5.6730
 3.8900	 5.7620
 3.8930	 5.8370
 3.8960	 5.8090
 3.8990	 5.7670
 3.9020	 5.8300
 3.9050	 5.7950
 3.9080	 5.8120
 3.9110	 5.9100
 3.9140	 5.8770
 3.9160	 5.7760
 3.9190	 5.8580
 3.9220	 5.8410
 3.9250	 5.7950
 3.9280	 5.7910
 3.9310	 5.8560
 3.9340	 5.8170
 3.9370	 5.7760
 3.9400	 5.7330
 3.9430	 5.8060
 3.9460	 5.8060
 3.9490	 5.7860
 3.9520	 5.7770
 3.9550	 5.8280
 3.9580	 5.8640
 3.9610	 5.9100
 3.9640	 5.8360
 3.9670	 5.8820
 3.9700	 5.9080
 3.9730	 5.9310
 3.9770	 5.8550
 3.9800	 5.7400
 3.9830	 5.7430
 3.9860	 5.7940
 3.9890	 5.7510
 3.9920	 5.7460
 3.9950	 5.7370
 3.9980	 5.7010
 4.0010	 5.6760
 4.0040	 5.7100
 4.0070	 5.7060
 4.0100	 5.7740
 4.0130	 5.8210
 4.0170	 5.7310
 4.0200	 5.6330
 4.0230	 5.6810
 4.0260	 5.7450
 4.0290	 5.7390
 4.0320	 5.7300
 4.0350	 5.7050
 4.0380	 5.6730
 4.0420	 5.7310
 4.0450	 5.7620
 4.0480	 5.6970
 4.0510	 5.6560
 4.0540	 5.5700
 4.0570	 5.5450
 4.0610	 5.7820
 4.0640	 5.8300
 4.0670	 5.6380
 4.0700	 5.5600
 4.0730	 5.7050
 4.0770	 5.7480
 4.0800	 5.6220
 4.0830	 5.5850
 4.0860	 5.6130
 4.0890	 5.4890
 4.0930	 5.5370
 4.0960	 5.6590
 4.0990	 5.6440
 4.1020	 5.5200
 4.1060	 5.4790
 4.1090	 5.6000
 4.1120	 5.6760
 4.1150	 5.6280
 4.1190	 5.5140
 4.1220	 5.4310
 4.1250	 5.4560
 4.1280	 5.5180
 4.1320	 5.4340
 4.1350	 5.3420
 4.1380	 5.3730
 4.1420	 5.3670
 4.1450	 5.4400
 4.1480	 5.4730
 4.1520	 5.4730
 4.1550	 5.4390
 4.1580	 5.3630
 4.1620	 5.3350
 4.1650	 5.4330
 4.1680	 5.4760
 4.1720	 5.4440
 4.1750	 5.3510
 4.1780	 5.2140
 4.1820	 5.2220
 4.1850	 5.2450
 4.1890	 5.2430
 4.1920	 5.2540
 4.1950	 5.2110
 4.1990	 5.2460
 4.2020	 5.1810
 4.2060	 5.1200
 4.2090	 5.1550
 4.2120	 5.4200
 4.2160	 5.3750
 4.2190	 5.2200
 4.2230	 5.2780
 4.2260	 5.6080
 4.2300	 5.6490
 4.2330	 5.6010
 4.2360	 5.4890
 4.2400	 5.4530
 4.2430	 5.8290
 4.2470	 5.6420
 4.2500	 5.2820
 4.2540	 5.2050
 4.2570	 5.2350
 4.2610	 5.6610
 4.2640	 6.0090
 4.2680	 5.6650
 4.2710	 5.3350
 4.2750	 5.2030
 4.2780	 5.0840
 4.2820	 5.1610
 4.2850	 5.1220
 4.2890	 5.0670
 4.2930	 5.0960
 4.2960	 5.1920
 4.3000	 5.1440
 4.3030	 5.1610
 4.3070	 5.0110
 4.3100	 4.9600
 4.3140	 5.0560
 4.3180	 5.0790
 4.3210	 4.9410
 4.3250	 4.8430
 4.3280	 4.8450
 4.3320	 4.9860
 4.3360	 5.0950
 4.3390	 4.9850
 4.3430	 4.9420
 4.3470	 4.9480
 4.3500	 4.7700
 4.3540	 4.6990
 4.3570	 4.7570
 4.3610	 4.6790
 4.3650	 4.6490
 4.3680	 4.7720
 4.3720	 4.7440
 4.3760	 4.6880
 4.3800	 4.6350
 4.3830	 4.7270
 4.3870	 4.8900
 4.3910	 4.9310
 4.3940	 4.8190
 4.3980	 4.7680
 4.4020	 4.7270
 4.4060	 4.6370
 4.4090	 4.6190
 4.4130	 4.5930
 4.4170	 4.5410
 4.4210	 4.5050
 4.4240	 4.4860
 4.4280	 4.5250
 4.4320	 4.5550
 4.4360	 4.5520
 4.4400	 4.6020
 4.4430	 4.6170
 4.4470	 4.5920
 4.4510	 4.6660
 4.4550	 4.6510
 4.4590	 4.5610
 4.4620	 4.5600
 4.4660	 4.5180
 4.4700	 4.5490
 4.4740	 4.6030
 4.4780	 4.5910
 4.4820	 4.5300
 4.4860	 4.5290
 4.4900	 4.6920
 4.4930	 4.7410
 4.4970	 4.6010
 4.5010	 4.5000
 4.5050	 4.5540
 4.5090	 4.5330
 4.5130	 4.4510
 4.5170	 4.4640
 4.5210	 4.5720
 4.5250	 4.5570
 4.5290	 4.5480
 4.5330	 4.5990
 4.5370	 4.6560
 4.5410	 4.6350
 4.5450	 4.4940
 4.5490	 4.5250
 4.5530	 4.6030
 4.5570	 4.5630
 4.5610	 4.4770
 4.5650	 4.4570
 4.5690	 4.4880
 4.5730	 4.5250
 4.5770	 4.6020
 4.5810	 4.6140
 4.5850	 4.4730
 4.5890	 4.4020
 4.5930	 4.4480
 4.5970	 4.5090
 4.6010	 4.5770
 4.6050	 4.6580
 4.6090	 4.9200
 4.6130	 5.0270
 4.6170	 4.6740
 4.6220	 4.3460
 4.6260	 4.3960
 4.6300	 4.7260
 4.6340	 4.7010
 4.6380	 4.5130
 4.6420	 4.4120
 4.6460	 4.4870
 4.6510	 4.6270
 4.6550	 4.5890
 4.6590	 4.5040
 4.6630	 4.4970
 4.6670	 4.5430
 4.6720	 4.6230
 4.6760	 4.5720
 4.6800	 4.4190
 4.6840	 4.4370
 4.6880	 4.6220
 4.6930	 4.7140
 4.6970	 4.5730
 4.7010	 4.4460
 4.7050	 4.5600
 4.7100	 4.6820
 4.7140	 4.6510
 4.7180	 4.5350
 4.7230	 4.4740
 4.7270	 4.5510
 4.7310	 4.4930
 4.7360	 4.4370
 4.7400	 4.4540
 4.7440	 4.4900
 4.7490	 4.5050
 4.7530	 4.4900
 4.7570	 4.5020
 4.7620	 4.4480
 4.7660	 4.3490
 4.7700	 4.4140
 4.7750	 4.6660
 4.7790	 4.8470
 4.7840	 4.8690
 4.7880	 4.8500
 4.7920	 4.7700
 4.7970	 4.8450
 4.8010	 4.7590
 4.8060	 4.6140
 4.8100	 4.5610
 4.8150	 4.5380
 4.8190	 4.5430
 4.8240	 4.5320
 4.8280	 4.5920
 4.8330	 4.6980
 4.8370	 4.6480
 4.8420	 4.5300
 4.8460	 4.5700
 4.8510	 4.6730
 4.8550	 4.6810
 4.8600	 4.5740
 4.8640	 4.5340
 4.8690	 4.5110
 4.8730	 4.5550
 4.8780	 4.5780
 4.8830	 4.4710
 4.8870	 4.4150
 4.8920	 4.4990
 4.8960	 4.6590
 4.9010	 4.8270
 4.9060	 4.8150
 4.9100	 4.6890
 4.9150	 4.6130
 4.9200	 4.6670
 4.9240	 4.7400
 4.9290	 4.7740
 4.9340	 4.8100
 4.9380	 4.8430
 4.9430	 4.8460
 4.9480	 4.8460
 4.9530	 4.7150
 4.9570	 4.6690
 4.9620	 4.7840
 4.9670	 4.8350
 4.9720	 4.8230
 4.9760	 4.7760
 4.9810	 4.7720
 4.9860	 4.8520
 4.9910	 4.9320
 4.9960	 4.8230
 5.0000	 4.7440
 5.0050	 4.7590
 5.0100	 4.7160
 5.0150	 4.8920
 5.0200	 5.0230
 5.0250	 4.9820
 5.0290	 4.9760
 5.0340	 4.9830
 5.0390	 4.9530
 5.0440	 4.9250
 5.0490	 4.8800
 5.0540	 4.9560
 5.0590	 5.0350
 5.0640	 5.1250
 5.0690	 5.1890
 5.0740	 5.1910
 5.0790	 5.0760
 5.0840	 5.0910
 5.0890	 5.0910
 5.0940	 5.0510
 5.0990	 5.0850
 5.1040	 5.1340
 5.1090	 5.1240
 5.1140	 5.2260
 5.1190	 5.2930
 5.1240	 5.2910
 5.1290	 5.3250
 5.1340	 5.3600
 5.1390	 5.2570
 5.1440	 5.1680
 5.1490	 5.2480
 5.1540	 5.3190
 5.1600	 5.2160
 5.1650	 5.1450
 5.1700	 5.2100
 5.1750	 5.2320
 5.1800	 5.2310
 5.1850	 5.2480
 5.1910	 5.2630
 5.1960	 5.3180
 5.2010	 5.3050
 5.2060	 5.3890
 5.2110	 5.3970
 5.2170	 5.3930
 5.2220	 5.3800
 5.2270	 5.4460
 5.2320	 5.4630
 5.2380	 5.4370
 5.2430	 5.4940
 5.2480	 5.4640
 5.2540	 5.4710
 5.2590	 5.5840
 5.2640	 5.4640
 5.2700	 5.3420
 5.2750	 5.2900
 5.2800	 5.3260
 5.2860	 5.3030
 5.2910	 5.3910
 5.2970	 5.4070
 5.3020	 5.3930
 5.3070	 5.4080
 5.3130	 5.5030
 5.3180	 5.5430
 5.3240	 5.5100
 5.3290	 5.4800
 5.3350	 5.4440
 5.3400	 5.3810
 5.3460	 5.4170
 5.3510	 5.4480
 5.3570	 5.5440
 5.3620	 5.5210
 5.3680	 5.5270
 5.3730	 5.4980
 5.3790	 5.5390
 5.3850	 5.5770
 5.3900	 5.5620
 5.3960	 5.5020
 5.4010	 5.4320
 5.4070	 5.4290
 5.4130	 5.4450
 5.4180	 5.4170
 5.4240	 5.4270
 5.4300	 5.3740
 5.4350	 5.4050
 5.4410	 5.3870
 5.4470	 5.4060
 5.4530	 5.3610
 5.4580	 5.3250
