Name: Quercus lobata 3
Type: vegetation
Class: Tree
Genus: Quercus
Species: lobata
Sample No.: VH185
Owner: UCSB
Wavelength Range: VSWIR
Origin: 34.7151; -120.0588; WGS84
Collection Date: 6/9/2013
Description: Samples were collected as part of the HyspIRI Airborne Campaign. 48 individual plants were sampled in three times in 2013 - spring  summer  and fall. The name of the sample includes a 1  2  or 3 which references a different individual of the species. Samples were taken to JPL and processed within 48 hours of collection. The same leaves were processed in the Nicolet and then measured using the ASD.
Measurement: Bidirectional reflectance
First Column: X
Second Column: Y
X Units: Wavelength (micrometers)
Y Units: Reflectance (percentage)
First X Value: 0.35
Last X Value: 2.5
Number of X Values: 2151
Additional Information: vegetation.tree.quercus.lobata.vswir.vh185.ucsb.asd.ancillary.txt

 0.3500	 4.7770
 0.3510	 4.7810
 0.3520	 4.8160
 0.3530	 4.8340
 0.3540	 4.7610
 0.3550	 4.6250
 0.3560	 4.4850
 0.3570	 4.4750
 0.3580	 4.6920
 0.3590	 4.7040
 0.3600	 4.5530
 0.3610	 4.4060
 0.3620	 4.5130
 0.3630	 4.5480
 0.3640	 4.5820
 0.3650	 4.6890
 0.3660	 4.5480
 0.3670	 4.5200
 0.3680	 4.6440
 0.3690	 4.7250
 0.3700	 4.7160
 0.3710	 4.6530
 0.3720	 4.5960
 0.3730	 4.6370
 0.3740	 4.6300
 0.3750	 4.5650
 0.3760	 4.4930
 0.3770	 4.5980
 0.3780	 4.6650
 0.3790	 4.6620
 0.3800	 4.7200
 0.3810	 4.6890
 0.3820	 4.6730
 0.3830	 4.7300
 0.3840	 4.7320
 0.3850	 4.7410
 0.3860	 4.8100
 0.3870	 4.9390
 0.3880	 4.9030
 0.3890	 4.8590
 0.3900	 4.8740
 0.3910	 4.9090
 0.3920	 4.9580
 0.3930	 5.0230
 0.3940	 5.0830
 0.3950	 5.1100
 0.3960	 5.1280
 0.3970	 5.1380
 0.3980	 5.1370
 0.3990	 5.2100
 0.4000	 5.2800
 0.4010	 5.3210
 0.4020	 5.3810
 0.4030	 5.4190
 0.4040	 5.4400
 0.4050	 5.4700
 0.4060	 5.5270
 0.4070	 5.5770
 0.4080	 5.6210
 0.4090	 5.6840
 0.4100	 5.7670
 0.4110	 5.8160
 0.4120	 5.8230
 0.4130	 5.8710
 0.4140	 5.9370
 0.4150	 6.0090
 0.4160	 6.0790
 0.4170	 6.1320
 0.4180	 6.1730
 0.4190	 6.2180
 0.4200	 6.2760
 0.4210	 6.3300
 0.4220	 6.3790
 0.4230	 6.4210
 0.4240	 6.4490
 0.4250	 6.4800
 0.4260	 6.5190
 0.4270	 6.5590
 0.4280	 6.6050
 0.4290	 6.6370
 0.4300	 6.6540
 0.4310	 6.6900
 0.4320	 6.7160
 0.4330	 6.7470
 0.4340	 6.7880
 0.4350	 6.8100
 0.4360	 6.8290
 0.4370	 6.8520
 0.4380	 6.8620
 0.4390	 6.8680
 0.4400	 6.8810
 0.4410	 6.9050
 0.4420	 6.9210
 0.4430	 6.9260
 0.4440	 6.9310
 0.4450	 6.9660
 0.4460	 6.9790
 0.4470	 6.9760
 0.4480	 6.9760
 0.4490	 7.0000
 0.4500	 7.0240
 0.4510	 7.0420
 0.4520	 7.0590
 0.4530	 7.0520
 0.4540	 7.0510
 0.4550	 7.0640
 0.4560	 7.0740
 0.4570	 7.0880
 0.4580	 7.0980
 0.4590	 7.1020
 0.4600	 7.1140
 0.4610	 7.1140
 0.4620	 7.1080
 0.4630	 7.1120
 0.4640	 7.1250
 0.4650	 7.1340
 0.4660	 7.1380
 0.4670	 7.1360
 0.4680	 7.1370
 0.4690	 7.1380
 0.4700	 7.1310
 0.4710	 7.1300
 0.4720	 7.1370
 0.4730	 7.1480
 0.4740	 7.1490
 0.4750	 7.1510
 0.4760	 7.1510
 0.4770	 7.1560
 0.4780	 7.1570
 0.4790	 7.1570
 0.4800	 7.1610
 0.4810	 7.1680
 0.4820	 7.1730
 0.4830	 7.1790
 0.4840	 7.1900
 0.4850	 7.1970
 0.4860	 7.1980
 0.4870	 7.2000
 0.4880	 7.2070
 0.4890	 7.2060
 0.4900	 7.2200
 0.4910	 7.2370
 0.4920	 7.2440
 0.4930	 7.2500
 0.4940	 7.2590
 0.4950	 7.2730
 0.4960	 7.2940
 0.4970	 7.3140
 0.4980	 7.3340
 0.4990	 7.3560
 0.5000	 7.3690
 0.5010	 7.3880
 0.5020	 7.4140
 0.5030	 7.4400
 0.5040	 7.4790
 0.5050	 7.5200
 0.5060	 7.5590
 0.5070	 7.6090
 0.5080	 7.6650
 0.5090	 7.7260
 0.5100	 7.7950
 0.5110	 7.8740
 0.5120	 7.9640
 0.5130	 8.0640
 0.5140	 8.1690
 0.5150	 8.2910
 0.5160	 8.4240
 0.5170	 8.5680
 0.5180	 8.7200
 0.5190	 8.8820
 0.5200	 9.0560
 0.5210	 9.2320
 0.5220	 9.4140
 0.5230	 9.5960
 0.5240	 9.7790
 0.5250	 9.9600
 0.5260	10.1360
 0.5270	10.3060
 0.5280	10.4680
 0.5290	10.6180
 0.5300	10.7560
 0.5310	10.8840
 0.5320	11.0060
 0.5330	11.1170
 0.5340	11.2190
 0.5350	11.3110
 0.5360	11.3890
 0.5370	11.4610
 0.5380	11.5280
 0.5390	11.5870
 0.5400	11.6450
 0.5410	11.7050
 0.5420	11.7680
 0.5430	11.8290
 0.5440	11.8790
 0.5450	11.9230
 0.5460	11.9650
 0.5470	11.9910
 0.5480	12.0150
 0.5490	12.0410
 0.5500	12.0630
 0.5510	12.0770
 0.5520	12.0810
 0.5530	12.0750
 0.5540	12.0520
 0.5550	12.0150
 0.5560	11.9650
 0.5570	11.9020
 0.5580	11.8270
 0.5590	11.7440
 0.5600	11.6570
 0.5610	11.5640
 0.5620	11.4690
 0.5630	11.3700
 0.5640	11.2670
 0.5650	11.1600
 0.5660	11.0450
 0.5670	10.9230
 0.5680	10.8000
 0.5690	10.6710
 0.5700	10.5410
 0.5710	10.4170
 0.5720	10.2970
 0.5730	10.1860
 0.5740	10.0850
 0.5750	 9.9990
 0.5760	 9.9220
 0.5770	 9.8500
 0.5780	 9.7810
 0.5790	 9.7150
 0.5800	 9.6540
 0.5810	 9.5970
 0.5820	 9.5420
 0.5830	 9.4880
 0.5840	 9.4320
 0.5850	 9.3730
 0.5860	 9.3220
 0.5870	 9.2700
 0.5880	 9.2210
 0.5890	 9.1820
 0.5900	 9.1570
 0.5910	 9.1430
 0.5920	 9.1350
 0.5930	 9.1230
 0.5940	 9.1140
 0.5950	 9.1050
 0.5960	 9.0930
 0.5970	 9.0750
 0.5980	 9.0560
 0.5990	 9.0330
 0.6000	 9.0120
 0.6010	 8.9920
 0.6020	 8.9650
 0.6030	 8.9350
 0.6040	 8.9070
 0.6050	 8.8730
 0.6060	 8.8320
 0.6070	 8.7880
 0.6080	 8.7480
 0.6090	 8.7040
 0.6100	 8.6600
 0.6110	 8.6240
 0.6120	 8.5730
 0.6130	 8.5220
 0.6140	 8.4730
 0.6150	 8.4260
 0.6160	 8.3810
 0.6170	 8.3410
 0.6180	 8.3060
 0.6190	 8.2770
 0.6200	 8.2540
 0.6210	 8.2320
 0.6220	 8.2080
 0.6230	 8.1930
 0.6240	 8.1810
 0.6250	 8.1690
 0.6260	 8.1550
 0.6270	 8.1470
 0.6280	 8.1400
 0.6290	 8.1370
 0.6300	 8.1390
 0.6310	 8.1360
 0.6320	 8.1290
 0.6330	 8.1210
 0.6340	 8.1130
 0.6350	 8.1010
 0.6360	 8.0890
 0.6370	 8.0720
 0.6380	 8.0510
 0.6390	 8.0260
 0.6400	 8.0070
 0.6410	 7.9810
 0.6420	 7.9520
 0.6430	 7.9250
 0.6440	 7.8980
 0.6450	 7.8710
 0.6460	 7.8420
 0.6470	 7.8180
 0.6480	 7.7950
 0.6490	 7.7730
 0.6500	 7.7570
 0.6510	 7.7400
 0.6520	 7.7270
 0.6530	 7.7110
 0.6540	 7.6990
 0.6550	 7.6840
 0.6560	 7.6690
 0.6570	 7.6540
 0.6580	 7.6370
 0.6590	 7.6170
 0.6600	 7.6040
 0.6610	 7.5900
 0.6620	 7.5760
 0.6630	 7.5640
 0.6640	 7.5570
 0.6650	 7.5540
 0.6660	 7.5480
 0.6670	 7.5500
 0.6680	 7.5560
 0.6690	 7.5660
 0.6700	 7.5740
 0.6710	 7.5870
 0.6720	 7.5970
 0.6730	 7.6150
 0.6740	 7.6370
 0.6750	 7.6610
 0.6760	 7.6870
 0.6770	 7.7130
 0.6780	 7.7370
 0.6790	 7.7670
 0.6800	 7.8020
 0.6810	 7.8390
 0.6820	 7.8780
 0.6830	 7.9180
 0.6840	 7.9550
 0.6850	 8.0000
 0.6860	 8.0490
 0.6870	 8.0990
 0.6880	 8.1590
 0.6890	 8.2370
 0.6900	 8.3380
 0.6910	 8.4620
 0.6920	 8.6200
 0.6930	 8.8280
 0.6940	 9.0850
 0.6950	 9.4040
 0.6960	 9.7870
 0.6970	10.2390
 0.6980	10.7570
 0.6990	11.3350
 0.7000	11.9730
 0.7010	12.6650
 0.7020	13.4010
 0.7030	14.1790
 0.7040	14.9880
 0.7050	15.8200
 0.7060	16.6770
 0.7070	17.5480
 0.7080	18.4320
 0.7090	19.3320
 0.7100	20.2350
 0.7110	21.1510
 0.7120	22.0760
 0.7130	22.9980
 0.7140	23.9260
 0.7150	24.8570
 0.7160	25.7860
 0.7170	26.7140
 0.7180	27.6360
 0.7190	28.5490
 0.7200	29.4540
 0.7210	30.3460
 0.7220	31.2240
 0.7230	32.0850
 0.7240	32.9230
 0.7250	33.7390
 0.7260	34.5330
 0.7270	35.3020
 0.7280	36.0360
 0.7290	36.7440
 0.7300	37.4240
 0.7310	38.0730
 0.7320	38.6900
 0.7330	39.2760
 0.7340	39.8340
 0.7350	40.3670
 0.7360	40.8640
 0.7370	41.3310
 0.7380	41.7750
 0.7390	42.1850
 0.7400	42.5740
 0.7410	42.9370
 0.7420	43.2720
 0.7430	43.5870
 0.7440	43.8790
 0.7450	44.1440
 0.7460	44.3860
 0.7470	44.6060
 0.7480	44.8070
 0.7490	44.9910
 0.7500	45.1620
 0.7510	45.3170
 0.7520	45.4570
 0.7530	45.5840
 0.7540	45.6960
 0.7550	45.7980
 0.7560	45.8900
 0.7570	45.9720
 0.7580	46.0480
 0.7590	46.1170
 0.7600	46.1770
 0.7610	46.2320
 0.7620	46.2820
 0.7630	46.3270
 0.7640	46.3660
 0.7650	46.4010
 0.7660	46.4310
 0.7670	46.4560
 0.7680	46.4800
 0.7690	46.5040
 0.7700	46.5240
 0.7710	46.5410
 0.7720	46.5600
 0.7730	46.5730
 0.7740	46.5860
 0.7750	46.6060
 0.7760	46.6180
 0.7770	46.6280
 0.7780	46.6400
 0.7790	46.6540
 0.7800	46.6640
 0.7810	46.6760
 0.7820	46.6890
 0.7830	46.7030
 0.7840	46.7120
 0.7850	46.7200
 0.7860	46.7300
 0.7870	46.7430
 0.7880	46.7500
 0.7890	46.7570
 0.7900	46.7710
 0.7910	46.7790
 0.7920	46.7850
 0.7930	46.7930
 0.7940	46.8030
 0.7950	46.8100
 0.7960	46.8120
 0.7970	46.8120
 0.7980	46.8190
 0.7990	46.8250
 0.8000	46.8300
 0.8010	46.8320
 0.8020	46.8370
 0.8030	46.8390
 0.8040	46.8390
 0.8050	46.8390
 0.8060	46.8420
 0.8070	46.8410
 0.8080	46.8370
 0.8090	46.8370
 0.8100	46.8380
 0.8110	46.8380
 0.8120	46.8350
 0.8130	46.8280
 0.8140	46.8230
 0.8150	46.8200
 0.8160	46.8160
 0.8170	46.8190
 0.8180	46.8150
 0.8190	46.8070
 0.8200	46.8000
 0.8210	46.7970
 0.8220	46.7930
 0.8230	46.7870
 0.8240	46.7780
 0.8250	46.7720
 0.8260	46.7640
 0.8270	46.7510
 0.8280	46.7470
 0.8290	46.7400
 0.8300	46.7310
 0.8310	46.7240
 0.8320	46.7200
 0.8330	46.7110
 0.8340	46.7010
 0.8350	46.6970
 0.8360	46.6930
 0.8370	46.6850
 0.8380	46.6760
 0.8390	46.6750
 0.8400	46.6710
 0.8410	46.6650
 0.8420	46.6610
 0.8430	46.6600
 0.8440	46.6560
 0.8450	46.6530
 0.8460	46.6520
 0.8470	46.6460
 0.8480	46.6460
 0.8490	46.6490
 0.8500	46.6490
 0.8510	46.6440
 0.8520	46.6400
 0.8530	46.6390
 0.8540	46.6420
 0.8550	46.6420
 0.8560	46.6390
 0.8570	46.6380
 0.8580	46.6420
 0.8590	46.6400
 0.8600	46.6400
 0.8610	46.6450
 0.8620	46.6470
 0.8630	46.6440
 0.8640	46.6410
 0.8650	46.6420
 0.8660	46.6540
 0.8670	46.6580
 0.8680	46.6540
 0.8690	46.6510
 0.8700	46.6610
 0.8710	46.6660
 0.8720	46.6660
 0.8730	46.6730
 0.8740	46.6790
 0.8750	46.6820
 0.8760	46.6840
 0.8770	46.6900
 0.8780	46.6940
 0.8790	46.6950
 0.8800	46.6940
 0.8810	46.7000
 0.8820	46.7070
 0.8830	46.7140
 0.8840	46.7170
 0.8850	46.7170
 0.8860	46.7180
 0.8870	46.7190
 0.8880	46.7180
 0.8890	46.7280
 0.8900	46.7370
 0.8910	46.7400
 0.8920	46.7420
 0.8930	46.7450
 0.8940	46.7470
 0.8950	46.7480
 0.8960	46.7500
 0.8970	46.7530
 0.8980	46.7570
 0.8990	46.7580
 0.9000	46.7550
 0.9010	46.7660
 0.9020	46.7710
 0.9030	46.7670
 0.9040	46.7710
 0.9050	46.7800
 0.9060	46.7870
 0.9070	46.7890
 0.9080	46.7870
 0.9090	46.7870
 0.9100	46.7890
 0.9110	46.7950
 0.9120	46.7990
 0.9130	46.7990
 0.9140	46.8020
 0.9150	46.8110
 0.9160	46.8140
 0.9170	46.8100
 0.9180	46.8070
 0.9190	46.8110
 0.9200	46.8140
 0.9210	46.8120
 0.9220	46.8050
 0.9230	46.7960
 0.9240	46.7810
 0.9250	46.7830
 0.9260	46.7920
 0.9270	46.7810
 0.9280	46.7630
 0.9290	46.7500
 0.9300	46.7430
 0.9310	46.7370
 0.9320	46.7250
 0.9330	46.7080
 0.9340	46.6910
 0.9350	46.6790
 0.9360	46.6680
 0.9370	46.6520
 0.9380	46.6290
 0.9390	46.6180
 0.9400	46.6010
 0.9410	46.5830
 0.9420	46.5650
 0.9430	46.5390
 0.9440	46.5110
 0.9450	46.4800
 0.9460	46.4500
 0.9470	46.4340
 0.9480	46.3950
 0.9490	46.3480
 0.9500	46.3090
 0.9510	46.2690
 0.9520	46.2300
 0.9530	46.1850
 0.9540	46.1280
 0.9550	46.0770
 0.9560	46.0250
 0.9570	45.9810
 0.9580	45.9480
 0.9590	45.9030
 0.9600	45.8540
 0.9610	45.8160
 0.9620	45.7970
 0.9630	45.7620
 0.9640	45.7260
 0.9650	45.7010
 0.9660	45.6930
 0.9670	45.6710
 0.9680	45.6530
 0.9690	45.6400
 0.9700	45.6250
 0.9710	45.6160
 0.9720	45.6020
 0.9730	45.5840
 0.9740	45.5710
 0.9750	45.5750
 0.9760	45.5820
 0.9770	45.5770
 0.9780	45.5570
 0.9790	45.5470
 0.9800	45.5500
 0.9810	45.5550
 0.9820	45.5480
 0.9830	45.5590
 0.9840	45.5680
 0.9850	45.5680
 0.9860	45.5640
 0.9870	45.5650
 0.9880	45.5730
 0.9890	45.5880
 0.9900	45.6080
 0.9910	45.6020
 0.9920	45.6110
 0.9930	45.6250
 0.9940	45.6210
 0.9950	45.6370
 0.9960	45.6600
 0.9970	45.6840
 0.9980	45.7060
 0.9990	45.7120
 1.0000	45.8150
 1.0010	46.0120
 1.0020	46.1250
 1.0030	46.1380
 1.0040	46.1570
 1.0050	46.1670
 1.0060	46.1750
 1.0070	46.1940
 1.0080	46.2100
 1.0090	46.2220
 1.0100	46.2390
 1.0110	46.2620
 1.0120	46.2780
 1.0130	46.2910
 1.0140	46.3070
 1.0150	46.3240
 1.0160	46.3350
 1.0170	46.3490
 1.0180	46.3650
 1.0190	46.3760
 1.0200	46.3900
 1.0210	46.4040
 1.0220	46.4160
 1.0230	46.4310
 1.0240	46.4490
 1.0250	46.4650
 1.0260	46.4850
 1.0270	46.4980
 1.0280	46.5030
 1.0290	46.5150
 1.0300	46.5280
 1.0310	46.5400
 1.0320	46.5550
 1.0330	46.5700
 1.0340	46.5830
 1.0350	46.5930
 1.0360	46.6000
 1.0370	46.6100
 1.0380	46.6230
 1.0390	46.6350
 1.0400	46.6450
 1.0410	46.6610
 1.0420	46.6720
 1.0430	46.6790
 1.0440	46.6870
 1.0450	46.6940
 1.0460	46.7020
 1.0470	46.7090
 1.0480	46.7170
 1.0490	46.7300
 1.0500	46.7390
 1.0510	46.7460
 1.0520	46.7550
 1.0530	46.7640
 1.0540	46.7710
 1.0550	46.7790
 1.0560	46.7910
 1.0570	46.7980
 1.0580	46.8030
 1.0590	46.8070
 1.0600	46.8080
 1.0610	46.8110
 1.0620	46.8150
 1.0630	46.8180
 1.0640	46.8220
 1.0650	46.8250
 1.0660	46.8250
 1.0670	46.8270
 1.0680	46.8290
 1.0690	46.8320
 1.0700	46.8340
 1.0710	46.8380
 1.0720	46.8390
 1.0730	46.8360
 1.0740	46.8360
 1.0750	46.8380
 1.0760	46.8380
 1.0770	46.8370
 1.0780	46.8380
 1.0790	46.8380
 1.0800	46.8360
 1.0810	46.8360
 1.0820	46.8340
 1.0830	46.8260
 1.0840	46.8220
 1.0850	46.8200
 1.0860	46.8180
 1.0870	46.8140
 1.0880	46.8120
 1.0890	46.8070
 1.0900	46.8000
 1.0910	46.7930
 1.0920	46.7850
 1.0930	46.7790
 1.0940	46.7740
 1.0950	46.7670
 1.0960	46.7600
 1.0970	46.7540
 1.0980	46.7460
 1.0990	46.7380
 1.1000	46.7310
 1.1010	46.7220
 1.1020	46.7130
 1.1030	46.7020
 1.1040	46.6900
 1.1050	46.6800
 1.1060	46.6710
 1.1070	46.6630
 1.1080	46.6520
 1.1090	46.6420
 1.1100	46.6300
 1.1110	46.6150
 1.1120	46.6010
 1.1130	46.5860
 1.1140	46.5720
 1.1150	46.5620
 1.1160	46.5460
 1.1170	46.5300
 1.1180	46.5120
 1.1190	46.4910
 1.1200	46.4670
 1.1210	46.4470
 1.1220	46.4230
 1.1230	46.3950
 1.1240	46.3650
 1.1250	46.3310
 1.1260	46.2940
 1.1270	46.2520
 1.1280	46.2090
 1.1290	46.1580
 1.1300	46.1010
 1.1310	46.0410
 1.1320	45.9750
 1.1330	45.9060
 1.1340	45.8370
 1.1350	45.7590
 1.1360	45.6740
 1.1370	45.5850
 1.1380	45.4860
 1.1390	45.3840
 1.1400	45.2790
 1.1410	45.1710
 1.1420	45.0630
 1.1430	44.9520
 1.1440	44.8400
 1.1450	44.7210
 1.1460	44.6110
 1.1470	44.5010
 1.1480	44.3940
 1.1490	44.2900
 1.1500	44.1900
 1.1510	44.0920
 1.1520	44.0010
 1.1530	43.9140
 1.1540	43.8350
 1.1550	43.7600
 1.1560	43.6930
 1.1570	43.6330
 1.1580	43.5810
 1.1590	43.5340
 1.1600	43.4900
 1.1610	43.4510
 1.1620	43.4170
 1.1630	43.3850
 1.1640	43.3590
 1.1650	43.3340
 1.1660	43.3130
 1.1670	43.2940
 1.1680	43.2800
 1.1690	43.2650
 1.1700	43.2530
 1.1710	43.2400
 1.1720	43.2270
 1.1730	43.2140
 1.1740	43.2020
 1.1750	43.1880
 1.1760	43.1750
 1.1770	43.1620
 1.1780	43.1460
 1.1790	43.1330
 1.1800	43.1200
 1.1810	43.1050
 1.1820	43.0930
 1.1830	43.0810
 1.1840	43.0670
 1.1850	43.0540
 1.1860	43.0410
 1.1870	43.0260
 1.1880	43.0150
 1.1890	43.0050
 1.1900	42.9970
 1.1910	42.9920
 1.1920	42.9850
 1.1930	42.9790
 1.1940	42.9760
 1.1950	42.9740
 1.1960	42.9720
 1.1970	42.9730
 1.1980	42.9750
 1.1990	42.9750
 1.2000	42.9770
 1.2010	42.9820
 1.2020	42.9880
 1.2030	42.9960
 1.2040	43.0050
 1.2050	43.0140
 1.2060	43.0240
 1.2070	43.0360
 1.2080	43.0490
 1.2090	43.0620
 1.2100	43.0760
 1.2110	43.0920
 1.2120	43.1100
 1.2130	43.1270
 1.2140	43.1450
 1.2150	43.1630
 1.2160	43.1810
 1.2170	43.2020
 1.2180	43.2250
 1.2190	43.2470
 1.2200	43.2710
 1.2210	43.2920
 1.2220	43.3120
 1.2230	43.3340
 1.2240	43.3580
 1.2250	43.3820
 1.2260	43.4050
 1.2270	43.4280
 1.2280	43.4460
 1.2290	43.4620
 1.2300	43.4800
 1.2310	43.4970
 1.2320	43.5150
 1.2330	43.5340
 1.2340	43.5520
 1.2350	43.5690
 1.2360	43.5850
 1.2370	43.6010
 1.2380	43.6160
 1.2390	43.6300
 1.2400	43.6450
 1.2410	43.6580
 1.2420	43.6710
 1.2430	43.6820
 1.2440	43.6920
 1.2450	43.7040
 1.2460	43.7170
 1.2470	43.7300
 1.2480	43.7420
 1.2490	43.7530
 1.2500	43.7630
 1.2510	43.7710
 1.2520	43.7820
 1.2530	43.7910
 1.2540	43.7980
 1.2550	43.8050
 1.2560	43.8110
 1.2570	43.8140
 1.2580	43.8180
 1.2590	43.8220
 1.2600	43.8270
 1.2610	43.8290
 1.2620	43.8320
 1.2630	43.8330
 1.2640	43.8320
 1.2650	43.8310
 1.2660	43.8290
 1.2670	43.8240
 1.2680	43.8200
 1.2690	43.8170
 1.2700	43.8130
 1.2710	43.8100
 1.2720	43.8070
 1.2730	43.8000
 1.2740	43.7920
 1.2750	43.7820
 1.2760	43.7710
 1.2770	43.7590
 1.2780	43.7470
 1.2790	43.7330
 1.2800	43.7200
 1.2810	43.7060
 1.2820	43.6940
 1.2830	43.6820
 1.2840	43.6680
 1.2850	43.6520
 1.2860	43.6320
 1.2870	43.6100
 1.2880	43.5850
 1.2890	43.5610
 1.2900	43.5360
 1.2910	43.5120
 1.2920	43.4870
 1.2930	43.4590
 1.2940	43.4290
 1.2950	43.3950
 1.2960	43.3640
 1.2970	43.3320
 1.2980	43.2930
 1.2990	43.2550
 1.3000	43.2130
 1.3010	43.1680
 1.3020	43.1240
 1.3030	43.0780
 1.3040	43.0300
 1.3050	42.9780
 1.3060	42.9230
 1.3070	42.8660
 1.3080	42.8080
 1.3090	42.7470
 1.3100	42.6820
 1.3110	42.6160
 1.3120	42.5480
 1.3130	42.4770
 1.3140	42.4030
 1.3150	42.3300
 1.3160	42.2510
 1.3170	42.1670
 1.3180	42.0810
 1.3190	41.9930
 1.3200	41.9020
 1.3210	41.8090
 1.3220	41.7140
 1.3230	41.6150
 1.3240	41.5130
 1.3250	41.4100
 1.3260	41.3040
 1.3270	41.1970
 1.3280	41.0890
 1.3290	40.9760
 1.3300	40.8620
 1.3310	40.7450
 1.3320	40.6260
 1.3330	40.5070
 1.3340	40.3870
 1.3350	40.2680
 1.3360	40.1470
 1.3370	40.0250
 1.3380	39.9010
 1.3390	39.7740
 1.3400	39.6490
 1.3410	39.5270
 1.3420	39.4060
 1.3430	39.2870
 1.3440	39.1690
 1.3450	39.0510
 1.3460	38.9320
 1.3470	38.8150
 1.3480	38.6980
 1.3490	38.5830
 1.3500	38.4690
 1.3510	38.3560
 1.3520	38.2410
 1.3530	38.1290
 1.3540	38.0160
 1.3550	37.9030
 1.3560	37.7900
 1.3570	37.6740
 1.3580	37.5570
 1.3590	37.4400
 1.3600	37.3210
 1.3610	37.2000
 1.3620	37.0730
 1.3630	36.9420
 1.3640	36.8030
 1.3650	36.6590
 1.3660	36.5100
 1.3670	36.3540
 1.3680	36.1890
 1.3690	36.0140
 1.3700	35.8250
 1.3710	35.6250
 1.3720	35.4130
 1.3730	35.1840
 1.3740	34.9430
 1.3750	34.6850
 1.3760	34.4050
 1.3770	34.1060
 1.3780	33.7840
 1.3790	33.4400
 1.3800	33.0760
 1.3810	32.6880
 1.3820	32.2810
 1.3830	31.8560
 1.3840	31.4110
 1.3850	30.9440
 1.3860	30.4640
 1.3870	29.9610
 1.3880	29.4530
 1.3890	28.9310
 1.3900	28.3990
 1.3910	27.8650
 1.3920	27.3230
 1.3930	26.7760
 1.3940	26.2300
 1.3950	25.6800
 1.3960	25.1360
 1.3970	24.6000
 1.3980	24.0730
 1.3990	23.5650
 1.4000	23.0700
 1.4010	22.5860
 1.4020	22.1220
 1.4030	21.6720
 1.4040	21.2410
 1.4050	20.8330
 1.4060	20.4430
 1.4070	20.0770
 1.4080	19.7330
 1.4090	19.4060
 1.4100	19.1010
 1.4110	18.8140
 1.4120	18.5470
 1.4130	18.2990
 1.4140	18.0690
 1.4150	17.8580
 1.4160	17.6630
 1.4170	17.4840
 1.4180	17.3190
 1.4190	17.1650
 1.4200	17.0260
 1.4210	16.8970
 1.4220	16.7800
 1.4230	16.6740
 1.4240	16.5770
 1.4250	16.4880
 1.4260	16.4100
 1.4270	16.3370
 1.4280	16.2730
 1.4290	16.2160
 1.4300	16.1660
 1.4310	16.1200
 1.4320	16.0830
 1.4330	16.0490
 1.4340	16.0190
 1.4350	15.9930
 1.4360	15.9730
 1.4370	15.9550
 1.4380	15.9420
 1.4390	15.9330
 1.4400	15.9260
 1.4410	15.9220
 1.4420	15.9200
 1.4430	15.9210
 1.4440	15.9240
 1.4450	15.9280
 1.4460	15.9330
 1.4470	15.9410
 1.4480	15.9510
 1.4490	15.9620
 1.4500	15.9750
 1.4510	15.9890
 1.4520	16.0030
 1.4530	16.0200
 1.4540	16.0380
 1.4550	16.0570
 1.4560	16.0800
 1.4570	16.1030
 1.4580	16.1290
 1.4590	16.1580
 1.4600	16.1910
 1.4610	16.2270
 1.4620	16.2670
 1.4630	16.3120
 1.4640	16.3590
 1.4650	16.4110
 1.4660	16.4690
 1.4670	16.5300
 1.4680	16.5970
 1.4690	16.6680
 1.4700	16.7420
 1.4710	16.8200
