Name: Arctostaphylos glandulosa 2
Type: vegetation
Class: Shrub
Genus: Arctostaphylos
Species: glandulosa
Sample No.: VH056
Owner: UCSB
Wavelength Range: TIR
Origin: 37.0441; -119.3033; WGS84
Collection Date: 4/20/2013
Description: Samples were collected as part of the HyspIRI Airborne Campaign. 48 individual plants were sampled in three times in 2013 - spring  summer  and fall. The name of the sample includes a 1  2  or 3 which references a different individual of the species. Samples were taken to JPL and processed within 48 hours of collection. The same leaves were processed in the Nicolet and then measured using the ASD.
Measurement: Hemispherical reflectance
First Column: X
Second Column: Y
X Units: Wavelength (micrometers)
Y Units: Reflectance (percentage)
First X Value: 2.501
Last X Value: 15.387
Number of X Values: 1737
Additional Information: vegetation.shrub.arctostaphylos.glandulosa.tir.vh056.ucsb.nicolet.ancillary.txt

 2.5010	 7.2230
 2.5030	 7.1590
 2.5040	 7.2230
 2.5050	 7.2600
 2.5060	 7.2280
 2.5070	 7.2470
 2.5090	 7.2930
 2.5100	 7.2300
 2.5110	 7.1170
 2.5120	 7.1050
 2.5140	 7.1400
 2.5150	 7.1030
 2.5160	 7.1050
 2.5170	 7.1170
 2.5180	 7.1490
 2.5200	 7.1570
 2.5210	 7.2290
 2.5220	 7.1720
 2.5230	 7.0980
 2.5250	 7.0550
 2.5260	 7.0500
 2.5270	 7.0400
 2.5280	 7.0400
 2.5290	 7.0970
 2.5310	 7.1250
 2.5320	 7.0790
 2.5330	 7.0410
 2.5340	 6.9600
 2.5360	 7.0120
 2.5370	 7.1450
 2.5380	 7.2250
 2.5390	 7.2430
 2.5410	 7.2880
 2.5420	 7.2050
 2.5430	 7.1170
 2.5440	 7.1760
 2.5460	 7.2760
 2.5470	 7.3300
 2.5480	 7.3250
 2.5490	 7.2380
 2.5510	 7.2830
 2.5520	 7.3560
 2.5530	 7.3260
 2.5540	 7.2350
 2.5560	 7.2680
 2.5570	 7.2740
 2.5580	 7.4060
 2.5590	 7.4010
 2.5610	 7.2530
 2.5620	 7.2930
 2.5630	 7.3830
 2.5640	 7.3330
 2.5660	 7.3650
 2.5670	 7.4260
 2.5680	 7.4210
 2.5700	 7.3390
 2.5710	 7.3160
 2.5720	 7.3400
 2.5730	 7.4930
 2.5750	 7.4910
 2.5760	 7.4170
 2.5770	 7.3600
 2.5790	 7.2980
 2.5800	 7.2510
 2.5810	 7.3930
 2.5820	 7.4730
 2.5840	 7.3960
 2.5850	 7.2620
 2.5860	 7.2380
 2.5880	 7.3010
 2.5890	 7.4410
 2.5900	 7.4040
 2.5910	 7.2960
 2.5930	 7.3040
 2.5940	 7.4110
 2.5950	 7.4030
 2.5970	 7.2470
 2.5980	 7.1930
 2.5990	 7.1840
 2.6000	 7.1040
 2.6020	 7.0470
 2.6030	 6.9850
 2.6040	 7.0970
 2.6060	 7.0880
 2.6070	 6.9600
 2.6080	 6.9280
 2.6100	 6.8550
 2.6110	 6.7920
 2.6120	 6.7740
 2.6140	 6.7380
 2.6150	 6.8000
 2.6160	 6.8340
 2.6180	 6.7980
 2.6190	 6.7020
 2.6200	 6.6710
 2.6220	 6.5820
 2.6230	 6.4630
 2.6240	 6.5150
 2.6260	 6.5320
 2.6270	 6.4660
 2.6280	 6.4770
 2.6300	 6.5250
 2.6310	 6.5040
 2.6320	 6.3250
 2.6340	 6.2310
 2.6350	 6.2120
 2.6360	 6.1950
 2.6380	 6.1950
 2.6390	 6.1570
 2.6400	 6.0380
 2.6420	 6.0050
 2.6430	 6.0750
 2.6440	 6.0200
 2.6460	 5.8160
 2.6470	 5.6720
 2.6480	 5.6390
 2.6500	 5.7170
 2.6510	 5.7860
 2.6520	 5.7330
 2.6540	 5.5710
 2.6550	 5.4910
 2.6560	 5.4920
 2.6580	 5.4470
 2.6590	 5.3550
 2.6610	 5.2720
 2.6620	 5.2620
 2.6630	 5.3440
 2.6650	 5.3000
 2.6660	 5.1660
 2.6670	 5.1130
 2.6690	 5.1140
 2.6700	 5.0870
 2.6720	 5.0390
 2.6730	 4.9780
 2.6740	 4.9860
 2.6760	 4.9570
 2.6770	 4.8890
 2.6780	 4.8170
 2.6800	 4.7540
 2.6810	 4.6290
 2.6830	 4.7190
 2.6840	 4.8200
 2.6850	 4.7210
 2.6870	 4.5830
 2.6880	 4.4990
 2.6900	 4.3290
 2.6910	 4.2820
 2.6920	 4.2230
 2.6940	 4.2300
 2.6950	 4.2050
 2.6970	 4.2410
 2.6980	 4.2630
 2.6990	 4.3360
 2.7010	 4.1520
 2.7020	 3.9970
 2.7040	 4.0330
 2.7050	 4.1400
 2.7060	 4.0960
 2.7080	 4.0250
 2.7090	 3.8720
 2.7110	 3.8980
 2.7120	 3.9620
 2.7130	 3.9110
 2.7150	 3.7690
 2.7160	 3.7420
 2.7180	 3.8130
 2.7190	 3.8450
 2.7210	 3.8110
 2.7220	 3.7410
 2.7230	 3.7020
 2.7250	 3.7230
 2.7260	 3.7350
 2.7280	 3.7210
 2.7290	 3.7410
 2.7310	 3.7580
 2.7320	 3.7200
 2.7330	 3.7610
 2.7350	 3.7510
 2.7360	 3.7330
 2.7380	 3.7010
 2.7390	 3.7570
 2.7410	 3.6340
 2.7420	 3.4340
 2.7440	 3.4990
 2.7450	 3.6930
 2.7470	 3.7130
 2.7480	 3.6270
 2.7490	 3.5620
 2.7510	 3.5930
 2.7520	 3.5830
 2.7540	 3.6010
 2.7550	 3.7750
 2.7570	 3.8020
 2.7580	 3.6520
 2.7600	 3.6880
 2.7610	 3.7380
 2.7630	 3.7220
 2.7640	 3.6040
 2.7660	 3.5230
 2.7670	 3.4700
 2.7680	 3.5460
 2.7700	 3.6040
 2.7710	 3.6700
 2.7730	 3.5790
 2.7740	 3.6030
 2.7760	 3.6050
 2.7770	 3.6330
 2.7790	 3.5940
 2.7800	 3.5430
 2.7820	 3.5290
 2.7830	 3.5980
 2.7850	 3.5720
 2.7860	 3.5590
 2.7880	 3.5760
 2.7890	 3.5250
 2.7910	 3.5150
 2.7920	 3.5870
 2.7940	 3.5740
 2.7950	 3.5440
 2.7970	 3.5030
 2.7980	 3.6440
 2.8000	 3.6640
 2.8010	 3.6060
 2.8030	 3.5890
 2.8040	 3.6120
 2.8060	 3.6500
 2.8070	 3.6840
 2.8090	 3.5910
 2.8110	 3.5720
 2.8120	 3.5450
 2.8140	 3.6280
 2.8150	 3.6630
 2.8170	 3.6740
 2.8180	 3.5610
 2.8200	 3.4830
 2.8210	 3.5020
 2.8230	 3.4860
 2.8240	 3.4920
 2.8260	 3.5970
 2.8270	 3.5650
 2.8290	 3.5410
 2.8300	 3.5050
 2.8320	 3.6250
 2.8340	 3.7890
 2.8350	 3.7200
 2.8370	 3.6210
 2.8380	 3.6450
 2.8400	 3.6590
 2.8410	 3.6010
 2.8430	 3.5730
 2.8440	 3.5630
 2.8460	 3.5420
 2.8480	 3.4770
 2.8490	 3.3320
 2.8510	 3.4470
 2.8520	 3.5870
 2.8540	 3.6970
 2.8550	 3.6090
 2.8570	 3.5370
 2.8590	 3.4830
 2.8600	 3.5260
 2.8620	 3.5980
 2.8630	 3.7250
 2.8650	 3.7380
 2.8660	 3.6980
 2.8680	 3.5860
 2.8700	 3.5640
 2.8710	 3.5700
 2.8730	 3.6370
 2.8740	 3.5390
 2.8760	 3.4660
 2.8780	 3.4320
 2.8790	 3.5190
 2.8810	 3.6730
 2.8820	 3.9080
 2.8840	 3.9410
 2.8860	 3.6070
 2.8870	 3.5330
 2.8890	 3.6360
 2.8900	 3.5870
 2.8920	 3.5750
 2.8940	 3.5410
 2.8950	 3.5700
 2.8970	 3.5020
 2.8980	 3.5750
 2.9000	 3.5730
 2.9020	 3.5150
 2.9030	 3.6470
 2.9050	 3.6840
 2.9070	 3.6570
 2.9080	 3.7270
 2.9100	 3.7200
 2.9120	 3.6470
 2.9130	 3.6690
 2.9150	 3.7120
 2.9160	 3.6720
 2.9180	 3.6140
 2.9200	 3.6040
 2.9210	 3.6930
 2.9230	 3.6880
 2.9250	 3.5930
 2.9260	 3.5880
 2.9280	 3.6950
 2.9300	 3.6730
 2.9310	 3.6560
 2.9330	 3.6600
 2.9350	 3.6510
 2.9360	 3.5840
 2.9380	 3.5670
 2.9400	 3.7660
 2.9410	 3.7490
 2.9430	 3.5600
 2.9450	 3.5650
 2.9460	 3.5900
 2.9480	 3.6710
 2.9500	 3.8190
 2.9510	 3.7140
 2.9530	 3.4990
 2.9550	 3.4880
 2.9560	 3.4450
 2.9580	 3.4220
 2.9600	 3.5550
 2.9610	 3.7370
 2.9630	 3.7740
 2.9650	 3.6190
 2.9660	 3.4160
 2.9680	 3.4070
 2.9700	 3.6890
 2.9720	 3.6620
 2.9730	 3.5470
 2.9750	 3.5610
 2.9770	 3.5180
 2.9780	 3.7150
 2.9800	 3.8960
 2.9820	 3.8070
 2.9840	 3.4810
 2.9850	 3.6430
 2.9870	 3.7510
 2.9890	 3.9780
 2.9900	 3.8210
 2.9920	 3.5540
 2.9940	 3.8060
 2.9960	 4.1380
 2.9970	 3.6730
 2.9990	 3.3900
 3.0010	 3.6240
 3.0030	 3.5330
 3.0040	 3.6470
 3.0060	 3.4890
 3.0080	 3.3560
 3.0100	 3.7940
 3.0110	 3.9420
 3.0130	 3.3510
 3.0150	 3.3030
 3.0170	 3.7250
 3.0180	 3.7500
 3.0200	 3.6410
 3.0220	 3.4570
 3.0240	 3.5130
 3.0250	 3.5590
 3.0270	 3.6230
 3.0290	 3.5420
 3.0310	 3.6300
 3.0320	 3.6620
 3.0340	 3.3310
 3.0360	 3.1400
 3.0380	 3.3620
 3.0400	 3.6230
 3.0410	 4.2770
 3.0430	 4.5840
 3.0450	 3.9600
 3.0470	 3.2310
 3.0480	 3.6160
 3.0500	 3.9400
 3.0520	 3.5520
 3.0540	 3.4370
 3.0560	 3.7450
 3.0570	 3.7420
 3.0590	 3.6550
 3.0610	 3.5100
 3.0630	 3.0270
 3.0650	 2.8800
 3.0660	 3.1200
 3.0680	 3.5410
 3.0700	 3.6620
 3.0720	 3.5440
 3.0740	 3.5220
 3.0760	 3.5970
 3.0770	 3.6310
 3.0790	 3.5300
 3.0810	 3.5520
 3.0830	 3.6580
 3.0850	 3.7520
 3.0870	 3.9130
 3.0880	 3.7880
 3.0900	 3.5380
 3.0920	 3.4950
 3.0940	 3.6190
 3.0960	 3.6530
 3.0980	 3.6010
 3.0990	 3.6880
 3.1010	 3.7910
 3.1030	 3.8220
 3.1050	 3.8190
 3.1070	 3.6900
 3.1090	 3.4930
 3.1110	 3.5690
 3.1120	 3.6590
 3.1140	 3.6440
 3.1160	 3.6100
 3.1180	 3.5250
 3.1200	 3.5370
 3.1220	 3.6120
 3.1240	 3.6880
 3.1260	 3.6330
 3.1270	 3.5950
 3.1290	 3.6050
 3.1310	 3.5710
 3.1330	 3.5400
 3.1350	 3.5800
 3.1370	 3.6210
 3.1390	 3.7780
 3.1410	 3.7480
 3.1430	 3.5540
 3.1450	 3.3960
 3.1460	 3.3180
 3.1480	 3.6260
 3.1500	 3.7310
 3.1520	 3.5140
 3.1540	 3.4300
 3.1560	 3.3210
 3.1580	 3.2400
 3.1600	 3.3910
 3.1620	 3.4840
 3.1640	 3.4830
 3.1660	 2.9930
 3.1680	 2.7670
 3.1700	 3.0980
 3.1710	 3.6710
 3.1730	 4.1500
 3.1750	 4.1050
 3.1770	 3.7970
 3.1790	 4.0220
 3.1810	 3.8160
 3.1830	 3.5520
 3.1850	 3.7380
 3.1870	 3.6140
 3.1890	 3.3850
 3.1910	 3.5200
 3.1930	 3.5350
 3.1950	 3.5660
 3.1970	 3.4920
 3.1990	 3.3330
 3.2010	 3.3610
 3.2030	 3.4350
 3.2050	 3.4660
 3.2070	 3.5400
 3.2090	 3.4990
 3.2110	 3.4530
 3.2130	 3.4370
 3.2150	 3.5670
 3.2170	 3.6160
 3.2190	 3.5230
 3.2210	 3.5070
 3.2230	 3.5010
 3.2250	 3.4460
 3.2270	 3.4880
 3.2290	 3.5700
 3.2310	 3.5980
 3.2330	 3.5780
 3.2350	 3.5500
 3.2370	 3.4420
 3.2390	 3.3850
 3.2410	 3.4200
 3.2430	 3.5140
 3.2450	 3.4810
 3.2470	 3.5130
 3.2490	 3.4920
 3.2510	 3.3900
 3.2530	 3.3940
 3.2550	 3.4600
 3.2570	 3.3630
 3.2590	 3.3210
 3.2610	 3.3510
 3.2630	 3.3800
 3.2650	 3.3890
 3.2670	 3.5140
 3.2690	 3.5080
 3.2720	 3.3250
 3.2740	 3.3040
 3.2760	 3.4870
 3.2780	 3.4940
 3.2800	 3.3940
 3.2820	 3.4060
 3.2840	 3.4830
 3.2860	 3.4090
 3.2880	 3.3680
 3.2900	 3.5290
 3.2920	 3.5640
 3.2940	 3.4040
 3.2960	 3.2730
 3.2990	 3.3600
 3.3010	 3.5000
 3.3030	 3.4370
 3.3050	 3.3590
 3.3070	 3.3960
 3.3090	 3.4040
 3.3110	 3.4630
 3.3130	 3.4490
 3.3150	 3.4080
 3.3180	 3.3210
 3.3200	 3.2250
 3.3220	 3.2630
 3.3240	 3.3190
 3.3260	 3.3450
 3.3280	 3.4010
 3.3300	 3.3940
 3.3330	 3.2670
 3.3350	 3.2250
 3.3370	 3.2300
 3.3390	 3.2110
 3.3410	 3.1690
 3.3430	 3.1630
 3.3450	 3.1630
 3.3480	 3.2130
 3.3500	 3.2060
 3.3520	 3.1570
 3.3540	 3.1570
 3.3560	 3.1520
 3.3580	 3.0180
 3.3610	 2.9520
 3.3630	 2.9720
 3.3650	 3.0500
 3.3670	 3.0580
 3.3690	 3.0190
 3.3720	 2.9750
 3.3740	 2.9760
 3.3760	 2.9270
 3.3780	 2.8180
 3.3800	 2.7260
 3.3830	 2.7150
 3.3850	 2.7510
 3.3870	 2.7930
 3.3890	 2.6220
 3.3910	 2.5610
 3.3940	 2.5790
 3.3960	 2.6270
 3.3980	 2.7380
 3.4000	 2.7860
 3.4020	 2.7500
 3.4050	 2.7250
 3.4070	 2.7910
 3.4090	 2.9610
 3.4110	 3.0720
 3.4140	 3.2230
 3.4160	 3.5760
 3.4180	 3.9300
 3.4200	 4.2710
 3.4230	 4.7530
 3.4250	 5.4130
 3.4270	 6.0950
 3.4290	 6.4960
 3.4320	 6.3730
 3.4340	 5.8890
 3.4360	 5.4530
 3.4390	 5.2340
 3.4410	 5.0860
 3.4430	 4.9480
 3.4450	 4.8460
 3.4480	 4.6690
 3.4500	 4.6080
 3.4520	 4.6890
 3.4550	 4.5750
 3.4570	 4.4300
 3.4590	 4.4660
 3.4620	 4.4550
 3.4640	 4.3810
 3.4660	 4.3350
 3.4680	 4.2960
 3.4710	 4.2560
 3.4730	 4.1940
 3.4750	 4.1140
 3.4780	 4.0450
 3.4800	 3.9320
 3.4820	 3.8670
 3.4850	 3.8560
 3.4870	 3.6860
 3.4890	 3.5870
 3.4920	 3.6150
 3.4940	 3.5940
 3.4970	 3.5660
 3.4990	 3.5470
 3.5010	 3.6730
 3.5040	 3.9120
 3.5060	 4.4990
 3.5080	 5.5470
 3.5110	 6.4150
 3.5130	 6.4200
 3.5160	 5.9540
 3.5180	 5.5610
 3.5200	 5.2790
 3.5230	 5.0340
 3.5250	 4.9400
 3.5270	 4.8400
 3.5300	 4.7420
 3.5320	 4.6820
 3.5350	 4.6320
 3.5370	 4.6000
 3.5400	 4.5430
 3.5420	 4.4820
 3.5440	 4.4320
 3.5470	 4.3710
 3.5490	 4.4050
 3.5520	 4.3870
 3.5540	 4.3600
 3.5570	 4.3770
 3.5590	 4.3830
 3.5610	 4.3650
 3.5640	 4.3950
 3.5660	 4.3980
 3.5690	 4.3670
 3.5710	 4.2460
 3.5740	 4.2170
 3.5760	 4.2700
 3.5790	 4.2210
 3.5810	 4.2350
 3.5840	 4.2810
 3.5860	 4.2410
 3.5890	 4.1720
 3.5910	 4.1490
 3.5930	 4.2220
 3.5960	 4.2610
 3.5980	 4.2320
 3.6010	 4.1710
 3.6030	 4.1560
 3.6060	 4.1910
 3.6080	 4.2540
 3.6110	 4.2210
 3.6140	 4.1870
 3.6160	 4.2040
 3.6190	 4.2360
 3.6210	 4.2270
 3.6240	 4.1840
 3.6260	 4.1390
 3.6290	 4.1020
 3.6310	 4.0630
 3.6340	 4.1020
 3.6360	 4.1320
 3.6390	 4.1280
 3.6410	 4.1650
 3.6440	 4.1450
 3.6470	 4.1170
 3.6490	 4.1540
 3.6520	 4.1690
 3.6540	 4.1480
 3.6570	 4.0970
 3.6590	 4.1130
 3.6620	 4.1600
 3.6650	 4.1450
 3.6670	 4.1110
 3.6700	 4.0890
 3.6720	 4.0850
 3.6750	 4.0940
 3.6780	 4.1360
 3.6800	 4.1640
 3.6830	 4.1570
 3.6850	 4.1850
 3.6880	 4.2250
 3.6910	 4.2270
 3.6930	 4.2020
 3.6960	 4.1480
 3.6990	 4.1190
 3.7010	 4.1640
 3.7040	 4.1660
 3.7060	 4.1140
 3.7090	 4.1600
 3.7120	 4.2180
 3.7140	 4.2700
 3.7170	 4.1910
 3.7200	 4.1620
 3.7220	 4.1820
 3.7250	 4.1670
 3.7280	 4.1660
 3.7300	 4.1680
 3.7330	 4.1790
 3.7360	 4.2080
 3.7390	 4.2600
 3.7410	 4.2390
 3.7440	 4.2440
 3.7470	 4.2660
 3.7490	 4.2400
 3.7520	 4.2030
 3.7550	 4.1470
 3.7580	 4.2230
 3.7600	 4.2550
 3.7630	 4.1840
 3.7660	 4.2070
 3.7680	 4.2800
 3.7710	 4.3170
 3.7740	 4.3020
 3.7770	 4.2910
 3.7790	 4.3680
 3.7820	 4.3950
 3.7850	 4.3460
 3.7880	 4.2980
 3.7900	 4.3590
 3.7930	 4.3790
 3.7960	 4.3380
 3.7990	 4.2960
 3.8020	 4.3250
 3.8040	 4.4200
 3.8070	 4.4780
 3.8100	 4.4150
 3.8130	 4.3860
 3.8160	 4.4460
 3.8180	 4.4440
 3.8210	 4.4650
 3.8240	 4.5080
 3.8270	 4.4620
 3.8300	 4.4680
 3.8330	 4.4570
 3.8350	 4.4380
 3.8380	 4.4400
 3.8410	 4.4530
 3.8440	 4.4410
 3.8470	 4.3790
 3.8500	 4.3570
 3.8520	 4.4330
 3.8550	 4.4670
 3.8580	 4.5200
 3.8610	 4.5560
 3.8640	 4.5990
 3.8670	 4.5470
 3.8700	 4.5300
 3.8730	 4.6100
 3.8750	 4.6560
 3.8780	 4.6010
 3.8810	 4.5960
 3.8840	 4.6200
 3.8870	 4.6000
 3.8900	 4.5720
 3.8930	 4.5840
 3.8960	 4.5410
 3.8990	 4.5560
 3.9020	 4.6040
 3.9050	 4.5940
 3.9080	 4.5330
 3.9110	 4.5580
 3.9140	 4.5910
 3.9160	 4.6030
 3.9190	 4.6010
 3.9220	 4.5420
 3.9250	 4.5080
 3.9280	 4.5660
 3.9310	 4.5760
 3.9340	 4.5730
 3.9370	 4.6060
 3.9400	 4.6510
 3.9430	 4.6680
 3.9460	 4.6810
 3.9490	 4.6360
 3.9520	 4.6420
 3.9550	 4.7120
 3.9580	 4.6700
 3.9610	 4.5750
 3.9640	 4.6440
 3.9670	 4.7520
 3.9700	 4.7090
 3.9730	 4.6620
 3.9770	 4.6590
 3.9800	 4.6450
 3.9830	 4.6300
 3.9860	 4.6160
 3.9890	 4.6600
 3.9920	 4.6930
 3.9950	 4.7280
 3.9980	 4.7290
 4.0010	 4.7250
 4.0040	 4.7000
 4.0070	 4.7140
 4.0100	 4.6970
 4.0130	 4.6460
 4.0170	 4.6370
 4.0200	 4.6470
 4.0230	 4.6140
 4.0260	 4.6590
 4.0290	 4.7120
 4.0320	 4.7110
 4.0350	 4.6610
 4.0380	 4.6620
 4.0420	 4.6960
 4.0450	 4.7450
 4.0480	 4.6850
 4.0510	 4.6450
 4.0540	 4.6760
 4.0570	 4.6830
 4.0610	 4.6690
 4.0640	 4.6740
 4.0670	 4.6580
 4.0700	 4.6330
 4.0730	 4.6690
 4.0770	 4.7350
 4.0800	 4.7280
 4.0830	 4.6860
 4.0860	 4.6870
 4.0890	 4.7210
 4.0930	 4.6700
 4.0960	 4.6270
 4.0990	 4.5900
 4.1020	 4.6250
 4.1060	 4.6750
 4.1090	 4.7090
 4.1120	 4.7210
 4.1150	 4.7950
 4.1190	 4.7630
 4.1220	 4.6560
 4.1250	 4.6710
 4.1280	 4.7150
 4.1320	 4.7190
 4.1350	 4.7030
 4.1380	 4.6960
 4.1420	 4.6800
 4.1450	 4.6700
 4.1480	 4.6380
 4.1520	 4.6520
 4.1550	 4.6880
 4.1580	 4.6850
 4.1620	 4.6920
 4.1650	 4.6670
 4.1680	 4.6440
 4.1720	 4.6510
 4.1750	 4.6180
 4.1780	 4.5590
 4.1820	 4.5760
 4.1850	 4.5760
 4.1890	 4.5990
 4.1920	 4.6760
 4.1950	 4.7260
 4.1990	 4.6530
 4.2020	 4.6070
 4.2060	 4.6570
 4.2090	 4.6770
 4.2120	 4.6190
 4.2160	 4.7550
 4.2190	 4.7890
 4.2230	 4.9330
 4.2260	 4.8880
 4.2300	 4.9000
 4.2330	 4.9400
 4.2360	 4.8800
 4.2400	 4.8840
 4.2430	 5.1040
 4.2470	 4.9980
 4.2500	 4.6280
 4.2540	 4.6560
 4.2570	 4.9260
 4.2610	 4.8800
 4.2640	 4.8340
 4.2680	 4.8150
 4.2710	 4.4580
 4.2750	 4.2940
 4.2780	 4.5450
 4.2820	 4.6480
 4.2850	 4.7010
 4.2890	 4.7510
 4.2930	 4.8520
 4.2960	 4.8560
 4.3000	 4.7320
 4.3030	 4.6210
 4.3070	 4.7220
 4.3100	 4.7490
 4.3140	 4.6270
 4.3180	 4.5040
 4.3210	 4.5000
 4.3250	 4.5170
 4.3280	 4.4800
 4.3320	 4.3940
 4.3360	 4.3970
 4.3390	 4.3730
 4.3430	 4.4300
 4.3470	 4.4270
 4.3500	 4.3670
 4.3540	 4.3350
 4.3570	 4.3700
 4.3610	 4.3000
 4.3650	 4.2350
 4.3680	 4.2310
 4.3720	 4.2920
 4.3760	 4.2130
 4.3800	 4.1320
 4.3830	 4.1600
 4.3870	 4.2520
 4.3910	 4.2950
 4.3940	 4.3070
 4.3980	 4.2550
 4.4020	 4.2470
 4.4060	 4.2380
 4.4090	 4.2110
 4.4130	 4.1470
 4.4170	 4.1800
 4.4210	 4.1850
 4.4240	 4.1880
 4.4280	 4.1660
 4.4320	 4.1420
 4.4360	 4.1410
 4.4400	 4.1650
 4.4430	 4.1100
 4.4470	 4.0830
 4.4510	 4.0970
 4.4550	 4.1040
 4.4590	 4.0590
 4.4620	 4.0420
 4.4660	 4.0670
 4.4700	 4.0950
 4.4740	 4.0280
 4.4780	 4.0440
 4.4820	 4.0880
 4.4860	 4.1140
 4.4900	 4.0820
 4.4930	 4.0680
 4.4970	 3.9890
 4.5010	 3.9570
 4.5050	 3.9860
 4.5090	 4.0400
 4.5130	 4.0390
 4.5170	 4.0170
 4.5210	 3.9920
 4.5250	 3.9990
 4.5290	 3.9690
 4.5330	 3.9980
 4.5370	 3.9640
 4.5410	 3.9740
 4.5450	 4.0010
 4.5490	 3.9930
 4.5530	 3.9360
 4.5570	 3.9160
 4.5610	 3.9030
 4.5650	 3.9450
 4.5690	 3.9260
 4.5730	 3.9510
 4.5770	 3.9230
 4.5810	 3.9240
 4.5850	 3.8950
 4.5890	 3.8820
 4.5930	 3.8770
 4.5970	 3.9110
 4.6010	 3.8840
 4.6050	 3.8900
 4.6090	 3.8400
 4.6130	 3.8700
 4.6170	 3.8940
 4.6220	 3.8660
 4.6260	 3.8820
 4.6300	 3.8610
 4.6340	 3.7760
 4.6380	 3.8340
 4.6420	 3.8650
 4.6460	 3.8630
 4.6510	 3.8580
 4.6550	 3.8710
 4.6590	 3.8490
 4.6630	 3.8530
 4.6670	 3.8680
 4.6720	 3.8050
 4.6760	 3.7810
 4.6800	 3.8440
 4.6840	 3.8440
 4.6880	 3.8540
 4.6930	 3.8170
 4.6970	 3.8340
 4.7010	 3.8180
 4.7050	 3.8680
 4.7100	 3.8030
 4.7140	 3.7680
 4.7180	 3.8560
 4.7230	 3.9210
 4.7270	 3.8260
 4.7310	 3.8160
 4.7360	 3.8660
 4.7400	 3.8830
 4.7440	 3.8580
 4.7490	 3.8970
 4.7530	 3.8130
 4.7570	 3.8480
 4.7620	 3.9100
 4.7660	 3.9070
 4.7700	 3.8280
 4.7750	 3.8220
 4.7790	 3.8860
 4.7840	 3.9690
 4.7880	 3.9460
 4.7920	 3.9400
 4.7970	 3.9280
 4.8010	 3.9430
 4.8060	 3.8870
 4.8100	 3.8890
 4.8150	 3.8880
 4.8190	 3.8680
 4.8240	 3.8080
 4.8280	 3.8960
 4.8330	 3.9420
 4.8370	 3.9010
 4.8420	 3.8360
 4.8460	 3.9040
 4.8510	 3.9270
 4.8550	 3.9300
 4.8600	 3.8670
 4.8640	 3.8660
 4.8690	 3.8640
 4.8730	 3.8570
 4.8780	 3.8450
 4.8830	 3.8710
 4.8870	 3.8230
 4.8920	 3.8880
 4.8960	 3.9320
 4.9010	 3.9320
 4.9060	 3.8620
 4.9100	 3.8700
 4.9150	 3.8590
 4.9200	 3.8880
 4.9240	 3.9230
 4.9290	 3.9430
 4.9340	 3.9520
 4.9380	 3.9770
 4.9430	 3.9120
 4.9480	 3.9370
 4.9530	 3.9110
 4.9570	 3.9150
 4.9620	 3.8750
 4.9670	 3.9040
 4.9720	 3.9160
 4.9760	 3.9730
 4.9810	 3.9840
 4.9860	 4.0050
 4.9910	 3.9860
 4.9960	 4.0270
 5.0000	 4.0150
 5.0050	 4.0200
 5.0100	 3.9590
 5.0150	 3.9900
 5.0200	 3.9970
 5.0250	 4.0340
 5.0290	 4.0070
 5.0340	 4.0510
 5.0390	 4.0250
 5.0440	 4.0550
 5.0490	 4.0630
 5.0540	 4.0720
 5.0590	 4.0940
 5.0640	 4.1690
 5.0690	 4.1360
 5.0740	 4.1280
 5.0790	 4.1220
 5.0840	 4.1470
 5.0890	 4.0950
 5.0940	 4.0390
 5.0990	 4.0250
 5.1040	 4.1150
 5.1090	 4.1350
 5.1140	 4.1190
 5.1190	 4.1080
 5.1240	 4.1350
 5.1290	 4.0620
 5.1340	 4.0540
 5.1390	 4.1080
 5.1440	 4.1620
 5.1490	 4.0830
 5.1540	 4.1270
 5.1600	 4.1300
 5.1650	 4.1340
 5.1700	 4.1290
 5.1750	 4.1300
 5.1800	 4.0880
 5.1850	 4.1940
 5.1910	 4.1970
 5.1960	 4.1930
 5.2010	 4.1400
 5.2060	 4.1420
 5.2110	 4.1070
 5.2170	 4.1590
 5.2220	 4.1730
 5.2270	 4.1900
 5.2320	 4.1390
 5.2380	 4.1540
 5.2430	 4.1420
 5.2480	 4.0970
 5.2540	 4.0410
 5.2590	 4.1210
 5.2640	 4.1530
 5.2700	 4.1590
 5.2750	 4.1310
 5.2800	 4.2120
 5.2860	 4.2060
 5.2910	 4.1690
 5.2970	 4.1590
 5.3020	 4.2020
 5.3070	 4.1130
 5.3130	 4.0770
 5.3180	 4.0460
 5.3240	 4.0890
 5.3290	 4.0940
 5.3350	 4.1180
 5.3400	 4.1000
 5.3460	 4.1500
 5.3510	 4.0840
 5.3570	 4.1360
 5.3620	 4.0950
 5.3680	 4.0390
 5.3730	 3.9480
 5.3790	 4.0090
 5.3850	 4.0200
 5.3900	 4.0370
 5.3960	 4.0030
 5.4010	 4.0000
 5.4070	 3.9610
 5.4130	 4.0100
 5.4180	 4.0690
 5.4240	 4.0870
 5.4300	 3.9320
