Name: Abies concolor 2
Type: vegetation
Class: Tree
Genus: Abies
Species: concolor
Sample No.: VH063
Owner: UCSB
Wavelength Range: VSWIR
Origin: 37.0437; -119.3025; WGS84
Collection Date: 4/20/2013
Description: Samples were collected as part of the HyspIRI Airborne Campaign. 48 individual plants were sampled in three times in 2013 - spring  summer  and fall. The name of the sample includes a 1  2  or 3 which references a different individual of the species. Samples were taken to JPL and processed within 48 hours of collection. The same leaves were processed in the Nicolet and then measured using the ASD.
Measurement: Bidirectional reflectance
First Column: X
Second Column: Y
X Units: Wavelength (micrometers)
Y Units: Reflectance (percentage)
First X Value: 0.35
Last X Value: 2.5
Number of X Values: 2151
Additional Information: vegetation.tree.abies.concolor.vswir.vh063.ucsb.asd.ancillary.txt

 0.3500	 7.7360
 0.3510	 7.5670
 0.3520	 7.5990
 0.3530	 7.6520
 0.3540	 7.5360
 0.3550	 7.4030
 0.3560	 7.3760
 0.3570	 7.4130
 0.3580	 7.3930
 0.3590	 7.3520
 0.3600	 7.3030
 0.3610	 7.2560
 0.3620	 7.2150
 0.3630	 7.3250
 0.3640	 7.4010
 0.3650	 7.2750
 0.3660	 7.1490
 0.3670	 7.1110
 0.3680	 7.1510
 0.3690	 7.1880
 0.3700	 7.1480
 0.3710	 7.1050
 0.3720	 7.1240
 0.3730	 7.2350
 0.3740	 7.2680
 0.3750	 7.2070
 0.3760	 7.1070
 0.3770	 7.0570
 0.3780	 7.1110
 0.3790	 7.1860
 0.3800	 7.1090
 0.3810	 7.1020
 0.3820	 7.0880
 0.3830	 7.0220
 0.3840	 7.0500
 0.3850	 7.0330
 0.3860	 6.9990
 0.3870	 7.0220
 0.3880	 7.0470
 0.3890	 7.0280
 0.3900	 7.0070
 0.3910	 7.0970
 0.3920	 7.0880
 0.3930	 7.0510
 0.3940	 7.0720
 0.3950	 7.1240
 0.3960	 7.1360
 0.3970	 7.1090
 0.3980	 7.0880
 0.3990	 7.1210
 0.4000	 7.1440
 0.4010	 7.1320
 0.4020	 7.1190
 0.4030	 7.1420
 0.4040	 7.1760
 0.4050	 7.1940
 0.4060	 7.2180
 0.4070	 7.2540
 0.4080	 7.2920
 0.4090	 7.3130
 0.4100	 7.3360
 0.4110	 7.3710
 0.4120	 7.4160
 0.4130	 7.4490
 0.4140	 7.4870
 0.4150	 7.5320
 0.4160	 7.5850
 0.4170	 7.6560
 0.4180	 7.6970
 0.4190	 7.7200
 0.4200	 7.7890
 0.4210	 7.8330
 0.4220	 7.8820
 0.4230	 7.9590
 0.4240	 8.0220
 0.4250	 8.0650
 0.4260	 8.1080
 0.4270	 8.1760
 0.4280	 8.2270
 0.4290	 8.2640
 0.4300	 8.2970
 0.4310	 8.3420
 0.4320	 8.3760
 0.4330	 8.4080
 0.4340	 8.4470
 0.4350	 8.4790
 0.4360	 8.5080
 0.4370	 8.5430
 0.4380	 8.5920
 0.4390	 8.6390
 0.4400	 8.6700
 0.4410	 8.6880
 0.4420	 8.7360
 0.4430	 8.7630
 0.4440	 8.7800
 0.4450	 8.8140
 0.4460	 8.8370
 0.4470	 8.8630
 0.4480	 8.8940
 0.4490	 8.9230
 0.4500	 8.9550
 0.4510	 8.9830
 0.4520	 9.0030
 0.4530	 9.0210
 0.4540	 9.0390
 0.4550	 9.0560
 0.4560	 9.0680
 0.4570	 9.0680
 0.4580	 9.0700
 0.4590	 9.0800
 0.4600	 9.0870
 0.4610	 9.0860
 0.4620	 9.0870
 0.4630	 9.0960
 0.4640	 9.0930
 0.4650	 9.0900
 0.4660	 9.0910
 0.4670	 9.0930
 0.4680	 9.0870
 0.4690	 9.0840
 0.4700	 9.0920
 0.4710	 9.0910
 0.4720	 9.0790
 0.4730	 9.0700
 0.4740	 9.0780
 0.4750	 9.0770
 0.4760	 9.0750
 0.4770	 9.0760
 0.4780	 9.0730
 0.4790	 9.0690
 0.4800	 9.0720
 0.4810	 9.0850
 0.4820	 9.0870
 0.4830	 9.0880
 0.4840	 9.0870
 0.4850	 9.0760
 0.4860	 9.0770
 0.4870	 9.0860
 0.4880	 9.0970
 0.4890	 9.1090
 0.4900	 9.1200
 0.4910	 9.1350
 0.4920	 9.1630
 0.4930	 9.1830
 0.4940	 9.2050
 0.4950	 9.2330
 0.4960	 9.2670
 0.4970	 9.3060
 0.4980	 9.3480
 0.4990	 9.3910
 0.5000	 9.4380
 0.5010	 9.4980
 0.5020	 9.5660
 0.5030	 9.6270
 0.5040	 9.7050
 0.5050	 9.7950
 0.5060	 9.8900
 0.5070	 9.9890
 0.5080	10.0980
 0.5090	10.2200
 0.5100	10.3520
 0.5110	10.4910
 0.5120	10.6420
 0.5130	10.8030
 0.5140	10.9730
 0.5150	11.1530
 0.5160	11.3440
 0.5170	11.5460
 0.5180	11.7480
 0.5190	11.9590
 0.5200	12.1770
 0.5210	12.3890
 0.5220	12.5990
 0.5230	12.8050
 0.5240	13.0040
 0.5250	13.1910
 0.5260	13.3690
 0.5270	13.5370
 0.5280	13.6910
 0.5290	13.8290
 0.5300	13.9580
 0.5310	14.0780
 0.5320	14.1820
 0.5330	14.2740
 0.5340	14.3580
 0.5350	14.4370
 0.5360	14.5070
 0.5370	14.5630
 0.5380	14.6120
 0.5390	14.6630
 0.5400	14.7040
 0.5410	14.7420
 0.5420	14.7810
 0.5430	14.8130
 0.5440	14.8500
 0.5450	14.8910
 0.5460	14.9330
 0.5470	14.9810
 0.5480	15.0240
 0.5490	15.0540
 0.5500	15.0760
 0.5510	15.0970
 0.5520	15.1100
 0.5530	15.1060
 0.5540	15.0880
 0.5550	15.0580
 0.5560	15.0140
 0.5570	14.9510
 0.5580	14.8770
 0.5590	14.7920
 0.5600	14.6990
 0.5610	14.6010
 0.5620	14.5010
 0.5630	14.3950
 0.5640	14.2810
 0.5650	14.1620
 0.5660	14.0380
 0.5670	13.9060
 0.5680	13.7640
 0.5690	13.6180
 0.5700	13.4760
 0.5710	13.3390
 0.5720	13.2040
 0.5730	13.0750
 0.5740	12.9570
 0.5750	12.8540
 0.5760	12.7510
 0.5770	12.6530
 0.5780	12.5620
 0.5790	12.4750
 0.5800	12.3910
 0.5810	12.3090
 0.5820	12.2330
 0.5830	12.1680
 0.5840	12.1030
 0.5850	12.0330
 0.5860	11.9620
 0.5870	11.8990
 0.5880	11.8390
 0.5890	11.7800
 0.5900	11.7370
 0.5910	11.7030
 0.5920	11.6750
 0.5930	11.6510
 0.5940	11.6230
 0.5950	11.5980
 0.5960	11.5780
 0.5970	11.5560
 0.5980	11.5270
 0.5990	11.4940
 0.6000	11.4640
 0.6010	11.4330
 0.6020	11.3970
 0.6030	11.3560
 0.6040	11.3140
 0.6050	11.2600
 0.6060	11.2000
 0.6070	11.1400
 0.6080	11.0730
 0.6090	11.0020
 0.6100	10.9280
 0.6110	10.8500
 0.6120	10.7810
 0.6130	10.7130
 0.6140	10.6450
 0.6150	10.5840
 0.6160	10.5220
 0.6170	10.4610
 0.6180	10.4070
 0.6190	10.3560
 0.6200	10.3100
 0.6210	10.2680
 0.6220	10.2340
 0.6230	10.2030
 0.6240	10.1750
 0.6250	10.1510
 0.6260	10.1330
 0.6270	10.1170
 0.6280	10.1020
 0.6290	10.0900
 0.6300	10.0820
 0.6310	10.0720
 0.6320	10.0570
 0.6330	10.0370
 0.6340	10.0130
 0.6350	 9.9840
 0.6360	 9.9490
 0.6370	 9.9020
 0.6380	 9.8480
 0.6390	 9.7880
 0.6400	 9.7250
 0.6410	 9.6590
 0.6420	 9.5900
 0.6430	 9.5200
 0.6440	 9.4480
 0.6450	 9.3730
 0.6460	 9.2990
 0.6470	 9.2330
 0.6480	 9.1700
 0.6490	 9.1140
 0.6500	 9.0670
 0.6510	 9.0240
 0.6520	 8.9880
 0.6530	 8.9520
 0.6540	 8.9100
 0.6550	 8.8700
 0.6560	 8.8280
 0.6570	 8.7810
 0.6580	 8.7280
 0.6590	 8.6720
 0.6600	 8.6130
 0.6610	 8.5530
 0.6620	 8.4950
 0.6630	 8.4350
 0.6640	 8.3770
 0.6650	 8.3280
 0.6660	 8.2850
 0.6670	 8.2470
 0.6680	 8.2140
 0.6690	 8.1900
 0.6700	 8.1720
 0.6710	 8.1580
 0.6720	 8.1500
 0.6730	 8.1470
 0.6740	 8.1510
 0.6750	 8.1610
 0.6760	 8.1720
 0.6770	 8.1830
 0.6780	 8.2010
 0.6790	 8.2270
 0.6800	 8.2600
 0.6810	 8.3010
 0.6820	 8.3520
 0.6830	 8.4130
 0.6840	 8.4930
 0.6850	 8.5890
 0.6860	 8.7040
 0.6870	 8.8460
 0.6880	 9.0220
 0.6890	 9.2400
 0.6900	 9.5050
 0.6910	 9.8180
 0.6920	10.1830
 0.6930	10.6080
 0.6940	11.0980
 0.6950	11.6480
 0.6960	12.2530
 0.6970	12.9120
 0.6980	13.6260
 0.6990	14.3870
 0.7000	15.1850
 0.7010	16.0130
 0.7020	16.8640
 0.7030	17.7370
 0.7040	18.6240
 0.7050	19.5170
 0.7060	20.4230
 0.7070	21.3360
 0.7080	22.2540
 0.7090	23.1790
 0.7100	24.1200
 0.7110	25.0730
 0.7120	26.0360
 0.7130	27.0050
 0.7140	27.9870
 0.7150	28.9840
 0.7160	29.9940
 0.7170	31.0070
 0.7180	32.0300
 0.7190	33.0630
 0.7200	34.1010
 0.7210	35.1420
 0.7220	36.1860
 0.7230	37.2300
 0.7240	38.2670
 0.7250	39.2930
 0.7260	40.3080
 0.7270	41.3130
 0.7280	42.2970
 0.7290	43.2570
 0.7300	44.1950
 0.7310	45.1140
 0.7320	46.0060
 0.7330	46.8700
 0.7340	47.7040
 0.7350	48.5050
 0.7360	49.2790
 0.7370	50.0250
 0.7380	50.7390
 0.7390	51.4140
 0.7400	52.0580
 0.7410	52.6770
 0.7420	53.2690
 0.7430	53.8170
 0.7440	54.3390
 0.7450	54.8340
 0.7460	55.2890
 0.7470	55.7200
 0.7480	56.1220
 0.7490	56.4900
 0.7500	56.8310
 0.7510	57.1500
 0.7520	57.4410
 0.7530	57.7020
 0.7540	57.9500
 0.7550	58.1790
 0.7560	58.3880
 0.7570	58.5790
 0.7580	58.7520
 0.7590	58.9140
 0.7600	59.0650
 0.7610	59.2020
 0.7620	59.3180
 0.7630	59.4220
 0.7640	59.5250
 0.7650	59.6230
 0.7660	59.7130
 0.7670	59.7940
 0.7680	59.8680
 0.7690	59.9340
 0.7700	59.9960
 0.7710	60.0550
 0.7720	60.1080
 0.7730	60.1560
 0.7740	60.2020
 0.7750	60.2480
 0.7760	60.2870
 0.7770	60.3320
 0.7780	60.3790
 0.7790	60.4190
 0.7800	60.4480
 0.7810	60.4770
 0.7820	60.5140
 0.7830	60.5540
 0.7840	60.5800
 0.7850	60.6040
 0.7860	60.6370
 0.7870	60.6760
 0.7880	60.7050
 0.7890	60.7270
 0.7900	60.7490
 0.7910	60.7770
 0.7920	60.8050
 0.7930	60.8300
 0.7940	60.8520
 0.7950	60.8680
 0.7960	60.8860
 0.7970	60.9060
 0.7980	60.9260
 0.7990	60.9460
 0.8000	60.9650
 0.8010	60.9810
 0.8020	60.9980
 0.8030	61.0110
 0.8040	61.0230
 0.8050	61.0370
 0.8060	61.0480
 0.8070	61.0570
 0.8080	61.0690
 0.8090	61.0840
 0.8100	61.0930
 0.8110	61.1020
 0.8120	61.1140
 0.8130	61.1200
 0.8140	61.1270
 0.8150	61.1340
 0.8160	61.1420
 0.8170	61.1480
 0.8180	61.1580
 0.8190	61.1700
 0.8200	61.1800
 0.8210	61.1850
 0.8220	61.1910
 0.8230	61.1960
 0.8240	61.1990
 0.8250	61.2040
 0.8260	61.2040
 0.8270	61.1990
 0.8280	61.2070
 0.8290	61.2050
 0.8300	61.2010
 0.8310	61.2010
 0.8320	61.2010
 0.8330	61.2050
 0.8340	61.2100
 0.8350	61.2170
 0.8360	61.2220
 0.8370	61.2250
 0.8380	61.2320
 0.8390	61.2510
 0.8400	61.2630
 0.8410	61.2770
 0.8420	61.2960
 0.8430	61.3040
 0.8440	61.3200
 0.8450	61.3400
 0.8460	61.3550
 0.8470	61.3740
 0.8480	61.3890
 0.8490	61.4020
 0.8500	61.4160
 0.8510	61.4260
 0.8520	61.4410
 0.8530	61.4610
 0.8540	61.4780
 0.8550	61.4920
 0.8560	61.5060
 0.8570	61.5190
 0.8580	61.5300
 0.8590	61.5510
 0.8600	61.5680
 0.8610	61.5750
 0.8620	61.5900
 0.8630	61.5950
 0.8640	61.6010
 0.8650	61.6190
 0.8660	61.6380
 0.8670	61.6520
 0.8680	61.6600
 0.8690	61.6650
 0.8700	61.6720
 0.8710	61.6830
 0.8720	61.6960
 0.8730	61.7120
 0.8740	61.7230
 0.8750	61.7310
 0.8760	61.7410
 0.8770	61.7500
 0.8780	61.7520
 0.8790	61.7600
 0.8800	61.7740
 0.8810	61.7760
 0.8820	61.7820
 0.8830	61.7880
 0.8840	61.7880
 0.8850	61.7890
 0.8860	61.7920
 0.8870	61.7990
 0.8880	61.8090
 0.8890	61.8080
 0.8900	61.8060
 0.8910	61.8060
 0.8920	61.8050
 0.8930	61.8010
 0.8940	61.7980
 0.8950	61.7930
 0.8960	61.7840
 0.8970	61.7860
 0.8980	61.7830
 0.8990	61.7740
 0.9000	61.7660
 0.9010	61.7540
 0.9020	61.7490
 0.9030	61.7500
 0.9040	61.7430
 0.9050	61.7400
 0.9060	61.7390
 0.9070	61.7330
 0.9080	61.7130
 0.9090	61.7100
 0.9100	61.7090
 0.9110	61.6980
 0.9120	61.6920
 0.9130	61.6800
 0.9140	61.6690
 0.9150	61.6640
 0.9160	61.6630
 0.9170	61.6520
 0.9180	61.6330
 0.9190	61.6160
 0.9200	61.6130
 0.9210	61.5930
 0.9220	61.5610
 0.9230	61.5390
 0.9240	61.4990
 0.9250	61.4690
 0.9260	61.4480
 0.9270	61.4080
 0.9280	61.3610
 0.9290	61.3230
 0.9300	61.2890
 0.9310	61.2320
 0.9320	61.1790
 0.9330	61.1210
 0.9340	61.0550
 0.9350	60.9930
 0.9360	60.9190
 0.9370	60.8530
 0.9380	60.7890
 0.9390	60.6880
 0.9400	60.6250
 0.9410	60.5600
 0.9420	60.4630
 0.9430	60.3660
 0.9440	60.2660
 0.9450	60.1520
 0.9460	60.0230
 0.9470	59.9010
 0.9480	59.7420
 0.9490	59.5810
 0.9500	59.4430
 0.9510	59.2780
 0.9520	59.1020
 0.9530	58.9210
 0.9540	58.7380
 0.9550	58.5550
 0.9560	58.3640
 0.9570	58.1840
 0.9580	58.0310
 0.9590	57.8650
 0.9600	57.7320
 0.9610	57.6200
 0.9620	57.5030
 0.9630	57.4000
 0.9640	57.3060
 0.9650	57.2200
 0.9660	57.1420
 0.9670	57.0820
 0.9680	57.0230
 0.9690	56.9660
 0.9700	56.9140
 0.9710	56.8630
 0.9720	56.8260
 0.9730	56.7990
 0.9740	56.7700
 0.9750	56.7410
 0.9760	56.7230
 0.9770	56.7170
 0.9780	56.7150
 0.9790	56.6960
 0.9800	56.6950
 0.9810	56.7090
 0.9820	56.7140
 0.9830	56.7200
 0.9840	56.7170
 0.9850	56.7320
 0.9860	56.7890
 0.9870	56.8120
 0.9880	56.8450
 0.9890	56.8950
 0.9900	56.9470
 0.9910	56.9770
 0.9920	57.1500
 0.9930	57.3220
 0.9940	57.4950
 0.9950	57.6680
 0.9960	57.8410
 0.9970	58.0130
 0.9980	58.1860
 0.9990	58.3590
 1.0000	58.5320
 1.0010	58.7050
 1.0020	58.8770
 1.0030	59.0500
 1.0040	59.2230
 1.0050	59.3960
 1.0060	59.5680
 1.0070	59.7410
 1.0080	59.9140
 1.0090	60.0870
 1.0100	60.0870
 1.0110	60.1570
 1.0120	60.2350
 1.0130	60.3170
 1.0140	60.4000
 1.0150	60.4900
 1.0160	60.5700
 1.0170	60.6520
 1.0180	60.7370
 1.0190	60.8130
 1.0200	60.8930
 1.0210	60.9790
 1.0220	61.0620
 1.0230	61.1430
 1.0240	61.2270
 1.0250	61.3070
 1.0260	61.3800
 1.0270	61.4570
 1.0280	61.5380
 1.0290	61.6150
 1.0300	61.6870
 1.0310	61.7610
 1.0320	61.8370
 1.0330	61.9090
 1.0340	61.9800
 1.0350	62.0520
 1.0360	62.1230
 1.0370	62.1950
 1.0380	62.2620
 1.0390	62.3290
 1.0400	62.3920
 1.0410	62.4480
 1.0420	62.5080
 1.0430	62.5730
 1.0440	62.6300
 1.0450	62.6810
 1.0460	62.7370
 1.0470	62.7910
 1.0480	62.8440
 1.0490	62.9020
 1.0500	62.9540
 1.0510	63.0030
 1.0520	63.0480
 1.0530	63.0890
 1.0540	63.1250
 1.0550	63.1670
 1.0560	63.2100
 1.0570	63.2480
 1.0580	63.2890
 1.0590	63.3240
 1.0600	63.3490
 1.0610	63.3780
 1.0620	63.4070
 1.0630	63.4340
 1.0640	63.4570
 1.0650	63.4820
 1.0660	63.5110
 1.0670	63.5320
 1.0680	63.5490
 1.0690	63.5640
 1.0700	63.5760
 1.0710	63.5820
 1.0720	63.5900
 1.0730	63.5960
 1.0740	63.6040
 1.0750	63.6150
 1.0760	63.6190
 1.0770	63.6240
 1.0780	63.6240
 1.0790	63.6150
 1.0800	63.6100
 1.0810	63.6090
 1.0820	63.6020
 1.0830	63.5940
 1.0840	63.5830
 1.0850	63.5690
 1.0860	63.5540
 1.0870	63.5360
 1.0880	63.5160
 1.0890	63.4950
 1.0900	63.4700
 1.0910	63.4460
 1.0920	63.4230
 1.0930	63.3960
 1.0940	63.3640
 1.0950	63.3340
 1.0960	63.3070
 1.0970	63.2720
 1.0980	63.2350
 1.0990	63.1980
 1.1000	63.1550
 1.1010	63.1140
 1.1020	63.0750
 1.1030	63.0360
 1.1040	62.9930
 1.1050	62.9510
 1.1060	62.9080
 1.1070	62.8660
 1.1080	62.8190
 1.1090	62.7710
 1.1100	62.7180
 1.1110	62.6620
 1.1120	62.6030
 1.1130	62.5410
 1.1140	62.4750
 1.1150	62.4090
 1.1160	62.3370
 1.1170	62.2650
 1.1180	62.1830
 1.1190	62.0960
 1.1200	61.9990
 1.1210	61.8970
 1.1220	61.7820
 1.1230	61.6550
 1.1240	61.5190
 1.1250	61.3660
 1.1260	61.2000
 1.1270	61.0160
 1.1280	60.8180
 1.1290	60.6010
 1.1300	60.3690
 1.1310	60.1130
 1.1320	59.8380
 1.1330	59.5450
 1.1340	59.2270
 1.1350	58.8980
 1.1360	58.5550
 1.1370	58.1960
 1.1380	57.8250
 1.1390	57.4460
 1.1400	57.0540
 1.1410	56.6620
 1.1420	56.2700
 1.1430	55.8770
 1.1440	55.4880
 1.1450	55.0940
 1.1460	54.7200
 1.1470	54.3450
 1.1480	53.9940
 1.1490	53.6570
 1.1500	53.3410
 1.1510	53.0380
 1.1520	52.7560
 1.1530	52.4940
 1.1540	52.2500
 1.1550	52.0220
 1.1560	51.8130
 1.1570	51.6240
 1.1580	51.4540
 1.1590	51.2990
 1.1600	51.1580
 1.1610	51.0300
 1.1620	50.9100
 1.1630	50.8020
 1.1640	50.7030
 1.1650	50.6100
 1.1660	50.5270
 1.1670	50.4480
 1.1680	50.3770
 1.1690	50.3080
 1.1700	50.2440
 1.1710	50.1810
 1.1720	50.1220
 1.1730	50.0620
 1.1740	50.0040
 1.1750	49.9470
 1.1760	49.8870
 1.1770	49.8250
 1.1780	49.7620
 1.1790	49.7010
 1.1800	49.6400
 1.1810	49.5780
 1.1820	49.5130
 1.1830	49.4510
 1.1840	49.3890
 1.1850	49.3280
 1.1860	49.2710
 1.1870	49.2160
 1.1880	49.1640
 1.1890	49.1150
 1.1900	49.0700
 1.1910	49.0250
 1.1920	48.9880
 1.1930	48.9560
 1.1940	48.9290
 1.1950	48.9100
 1.1960	48.8950
 1.1970	48.8830
 1.1980	48.8770
 1.1990	48.8770
 1.2000	48.8810
 1.2010	48.8920
 1.2020	48.9080
 1.2030	48.9280
 1.2040	48.9540
 1.2050	48.9850
 1.2060	49.0190
 1.2070	49.0590
 1.2080	49.1050
 1.2090	49.1550
 1.2100	49.2110
 1.2110	49.2710
 1.2120	49.3340
 1.2130	49.4020
 1.2140	49.4750
 1.2150	49.5500
 1.2160	49.6280
 1.2170	49.7060
 1.2180	49.7880
 1.2190	49.8720
 1.2200	49.9580
 1.2210	50.0490
 1.2220	50.1390
 1.2230	50.2270
 1.2240	50.3140
 1.2250	50.3990
 1.2260	50.4830
 1.2270	50.5650
 1.2280	50.6470
 1.2290	50.7270
 1.2300	50.8070
 1.2310	50.8860
 1.2320	50.9610
 1.2330	51.0320
 1.2340	51.1020
 1.2350	51.1680
 1.2360	51.2340
 1.2370	51.2990
 1.2380	51.3650
 1.2390	51.4280
 1.2400	51.4870
 1.2410	51.5450
 1.2420	51.6000
 1.2430	51.6540
 1.2440	51.7100
 1.2450	51.7620
 1.2460	51.8120
 1.2470	51.8610
 1.2480	51.9090
 1.2490	51.9550
 1.2500	51.9990
 1.2510	52.0400
 1.2520	52.0800
 1.2530	52.1190
 1.2540	52.1540
 1.2550	52.1900
 1.2560	52.2250
 1.2570	52.2520
 1.2580	52.2770
 1.2590	52.3020
 1.2600	52.3250
 1.2610	52.3460
 1.2620	52.3670
 1.2630	52.3870
 1.2640	52.4020
 1.2650	52.4150
 1.2660	52.4270
 1.2670	52.4360
 1.2680	52.4410
 1.2690	52.4430
 1.2700	52.4420
 1.2710	52.4360
 1.2720	52.4300
 1.2730	52.4230
 1.2740	52.4140
 1.2750	52.4050
 1.2760	52.3910
 1.2770	52.3730
 1.2780	52.3520
 1.2790	52.3260
 1.2800	52.3000
 1.2810	52.2710
 1.2820	52.2370
 1.2830	52.1990
 1.2840	52.1580
 1.2850	52.1130
 1.2860	52.0630
 1.2870	52.0090
 1.2880	51.9510
 1.2890	51.8870
 1.2900	51.8180
 1.2910	51.7450
 1.2920	51.6670
 1.2930	51.5840
 1.2940	51.4960
 1.2950	51.4030
 1.2960	51.3040
 1.2970	51.1970
 1.2980	51.0830
 1.2990	50.9660
 1.3000	50.8440
 1.3010	50.7160
 1.3020	50.5870
 1.3030	50.4500
 1.3040	50.3050
 1.3050	50.1580
 1.3060	50.0030
 1.3070	49.8420
 1.3080	49.6770
 1.3090	49.5040
 1.3100	49.3240
 1.3110	49.1420
 1.3120	48.9510
 1.3130	48.7560
 1.3140	48.5550
 1.3150	48.3470
 1.3160	48.1360
 1.3170	47.9210
 1.3180	47.7010
 1.3190	47.4740
 1.3200	47.2420
 1.3210	47.0020
 1.3220	46.7620
 1.3230	46.5180
 1.3240	46.2690
 1.3250	46.0190
 1.3260	45.7620
 1.3270	45.5020
 1.3280	45.2430
 1.3290	44.9770
 1.3300	44.7100
 1.3310	44.4420
 1.3320	44.1710
 1.3330	43.9050
 1.3340	43.6400
 1.3350	43.3750
 1.3360	43.1110
 1.3370	42.8490
 1.3380	42.5890
 1.3390	42.3310
 1.3400	42.0760
 1.3410	41.8270
 1.3420	41.5820
 1.3430	41.3400
 1.3440	41.1020
 1.3450	40.8680
 1.3460	40.6350
 1.3470	40.4090
 1.3480	40.1870
 1.3490	39.9720
 1.3500	39.7620
 1.3510	39.5550
 1.3520	39.3480
 1.3530	39.1430
 1.3540	38.9380
 1.3550	38.7360
 1.3560	38.5350
 1.3570	38.3350
 1.3580	38.1340
 1.3590	37.9290
 1.3600	37.7210
 1.3610	37.5090
 1.3620	37.2890
 1.3630	37.0650
 1.3640	36.8340
 1.3650	36.5930
 1.3660	36.3460
 1.3670	36.0890
 1.3680	35.8180
 1.3690	35.5340
 1.3700	35.2330
 1.3710	34.9180
 1.3720	34.5860
 1.3730	34.2340
 1.3740	33.8650
 1.3750	33.4750
 1.3760	33.0610
 1.3770	32.6240
 1.3780	32.1600
 1.3790	31.6750
 1.3800	31.1690
 1.3810	30.6370
 1.3820	30.0910
 1.3830	29.5270
 1.3840	28.9500
 1.3850	28.3540
 1.3860	27.7530
 1.3870	27.1340
 1.3880	26.5200
 1.3890	25.9000
 1.3900	25.2780
 1.3910	24.6670
 1.3920	24.0580
 1.3930	23.4530
 1.3940	22.8620
 1.3950	22.2780
 1.3960	21.7100
 1.3970	21.1600
 1.3980	20.6280
 1.3990	20.1190
 1.4000	19.6290
 1.4010	19.1600
 1.4020	18.7130
 1.4030	18.2840
 1.4040	17.8790
 1.4050	17.4960
 1.4060	17.1330
 1.4070	16.7960
 1.4080	16.4780
 1.4090	16.1780
 1.4100	15.8990
 1.4110	15.6370
 1.4120	15.3930
 1.4130	15.1670
 1.4140	14.9560
 1.4150	14.7620
 1.4160	14.5800
 1.4170	14.4110
 1.4180	14.2540
 1.4190	14.1070
 1.4200	13.9710
 1.4210	13.8450
 1.4220	13.7280
 1.4230	13.6210
 1.4240	13.5220
 1.4250	13.4290
 1.4260	13.3450
 1.4270	13.2670
 1.4280	13.1950
 1.4290	13.1300
 1.4300	13.0710
 1.4310	13.0160
 1.4320	12.9690
 1.4330	12.9240
 1.4340	12.8830
 1.4350	12.8470
 1.4360	12.8140
 1.4370	12.7850
 1.4380	12.7600
 1.4390	12.7400
 1.4400	12.7230
 1.4410	12.7080
 1.4420	12.6970
 1.4430	12.6870
 1.4440	12.6810
 1.4450	12.6760
 1.4460	12.6720
 1.4470	12.6720
 1.4480	12.6730
 1.4490	12.6750
 1.4500	12.6800
 1.4510	12.6840
 1.4520	12.6910
 1.4530	12.6990
 1.4540	12.7080
 1.4550	12.7210
 1.4560	12.7350
 1.4570	12.7500
 1.4580	12.7680
 1.4590	12.7880
 1.4600	12.8110
 1.4610	12.8370
 1.4620	12.8650
 1.4630	12.8960
 1.4640	12.9300
 1.4650	12.9690
 1.4660	13.0120
 1.4670	13.0580
 1.4680	13.1070
 1.4690	13.1590
 1.4700	13.2150
