Name: Quercus virginana
Type: vegetation
Class: Tree
Genus: Quercus
Species: virginana
Sample No.: JPL107
Owner: JPL
Wavelength Range: VSWIR
Origin: 34.12893; -118.11242;; WGS84
Collection Date: 9/7/2016
Description: Samples were collected at the Huntington Garden in San Marino California as part of a JPL Subcontract studying HyTES imagery. Samples were taken to JPL and processed within 48 hours of collection. The same leaves were processed in the Nicolet and then measured using the ASD.
Measurement: Bidirectional reflectance
First Column: X
Second Column: Y
X Units: Wavelength (micrometer)
Y Units: Reflectance (percentage)
First X Value: 0.35
Last X Value: 2.5
Number of X Values: 2151
Additional Information: vegetation.tree.quercus.virginana.vswir.jpl107.jpl.asd.ancillary.txt

 0.3500	 7.9160
 0.3510	 8.0460
 0.3520	 8.1070
 0.3530	 8.1190
 0.3540	 8.1490
 0.3550	 8.0610
 0.3560	 8.0150
 0.3570	 8.0000
 0.3580	 7.9380
 0.3590	 7.9830
 0.3600	 7.9750
 0.3610	 7.8740
 0.3620	 7.8390
 0.3630	 7.8560
 0.3640	 7.8760
 0.3650	 7.8620
 0.3660	 7.8630
 0.3670	 7.8450
 0.3680	 7.8140
 0.3690	 7.8000
 0.3700	 7.8100
 0.3710	 7.8570
 0.3720	 7.8970
 0.3730	 7.7740
 0.3740	 7.7520
 0.3750	 7.7990
 0.3760	 7.8090
 0.3770	 7.8080
 0.3780	 7.7790
 0.3790	 7.7570
 0.3800	 7.8050
 0.3810	 7.8240
 0.3820	 7.8200
 0.3830	 7.8120
 0.3840	 7.7940
 0.3850	 7.7890
 0.3860	 7.7800
 0.3870	 7.7540
 0.3880	 7.7720
 0.3890	 7.7980
 0.3900	 7.8030
 0.3910	 7.7810
 0.3920	 7.8030
 0.3930	 7.8070
 0.3940	 7.7560
 0.3950	 7.7690
 0.3960	 7.7770
 0.3970	 7.7740
 0.3980	 7.7820
 0.3990	 7.7850
 0.4000	 7.7860
 0.4010	 7.7870
 0.4020	 7.7830
 0.4030	 7.7750
 0.4040	 7.7680
 0.4050	 7.7680
 0.4060	 7.7930
 0.4070	 7.8130
 0.4080	 7.8170
 0.4090	 7.8070
 0.4100	 7.8160
 0.4110	 7.8340
 0.4120	 7.8500
 0.4130	 7.8610
 0.4140	 7.8810
 0.4150	 7.8970
 0.4160	 7.8940
 0.4170	 7.9110
 0.4180	 7.9280
 0.4190	 7.9420
 0.4200	 7.9650
 0.4210	 7.9790
 0.4220	 7.9840
 0.4230	 7.9830
 0.4240	 7.9980
 0.4250	 8.0010
 0.4260	 8.0020
 0.4270	 8.0230
 0.4280	 8.0300
 0.4290	 8.0350
 0.4300	 8.0410
 0.4310	 8.0250
 0.4320	 8.0050
 0.4330	 7.9850
 0.4340	 7.9700
 0.4350	 7.9710
 0.4360	 7.9840
 0.4370	 8.0030
 0.4380	 8.0190
 0.4390	 8.0390
 0.4400	 8.0670
 0.4410	 8.0980
 0.4420	 8.1160
 0.4430	 8.1280
 0.4440	 8.1330
 0.4450	 8.1320
 0.4460	 8.1460
 0.4470	 8.1580
 0.4480	 8.1620
 0.4490	 8.1640
 0.4500	 8.1810
 0.4510	 8.1950
 0.4520	 8.1920
 0.4530	 8.2020
 0.4540	 8.2110
 0.4550	 8.2170
 0.4560	 8.2240
 0.4570	 8.2310
 0.4580	 8.2360
 0.4590	 8.2410
 0.4600	 8.2460
 0.4610	 8.2470
 0.4620	 8.2470
 0.4630	 8.2480
 0.4640	 8.2510
 0.4650	 8.2520
 0.4660	 8.2520
 0.4670	 8.2560
 0.4680	 8.2560
 0.4690	 8.2590
 0.4700	 8.2680
 0.4710	 8.2690
 0.4720	 8.2740
 0.4730	 8.2790
 0.4740	 8.2770
 0.4750	 8.2790
 0.4760	 8.2810
 0.4770	 8.2820
 0.4780	 8.2870
 0.4790	 8.2900
 0.4800	 8.2910
 0.4810	 8.2920
 0.4820	 8.2860
 0.4830	 8.2810
 0.4840	 8.2770
 0.4850	 8.2700
 0.4860	 8.2610
 0.4870	 8.2570
 0.4880	 8.2590
 0.4890	 8.2640
 0.4900	 8.2730
 0.4910	 8.2860
 0.4920	 8.3010
 0.4930	 8.3170
 0.4940	 8.3340
 0.4950	 8.3520
 0.4960	 8.3680
 0.4970	 8.3880
 0.4980	 8.4090
 0.4990	 8.4300
 0.5000	 8.4570
 0.5010	 8.4830
 0.5020	 8.5080
 0.5030	 8.5360
 0.5040	 8.5730
 0.5050	 8.6120
 0.5060	 8.6520
 0.5070	 8.7000
 0.5080	 8.7470
 0.5090	 8.7950
 0.5100	 8.8540
 0.5110	 8.9200
 0.5120	 8.9920
 0.5130	 9.0690
 0.5140	 9.1480
 0.5150	 9.2400
 0.5160	 9.3420
 0.5170	 9.4470
 0.5180	 9.5570
 0.5190	 9.6740
 0.5200	 9.8000
 0.5210	 9.9340
 0.5220	10.0690
 0.5230	10.2010
 0.5240	10.3320
 0.5250	10.4640
 0.5260	10.5930
 0.5270	10.7140
 0.5280	10.8270
 0.5290	10.9370
 0.5300	11.0410
 0.5310	11.1370
 0.5320	11.2210
 0.5330	11.3030
 0.5340	11.3780
 0.5350	11.4410
 0.5360	11.5000
 0.5370	11.5460
 0.5380	11.5800
 0.5390	11.6110
 0.5400	11.6230
 0.5410	11.6180
 0.5420	11.6080
 0.5430	11.6090
 0.5440	11.6300
 0.5450	11.6740
 0.5460	11.7380
 0.5470	11.8060
 0.5480	11.8670
 0.5490	11.9110
 0.5500	11.9330
 0.5510	11.9480
 0.5520	11.9570
 0.5530	11.9610
 0.5540	11.9570
 0.5550	11.9440
 0.5560	11.9190
 0.5570	11.8790
 0.5580	11.8310
 0.5590	11.7770
 0.5600	11.7180
 0.5610	11.6520
 0.5620	11.5820
 0.5630	11.5070
 0.5640	11.4230
 0.5650	11.3320
 0.5660	11.2390
 0.5670	11.1460
 0.5680	11.0510
 0.5690	10.9510
 0.5700	10.8520
 0.5710	10.7590
 0.5720	10.6670
 0.5730	10.5780
 0.5740	10.4980
 0.5750	10.4330
 0.5760	10.3780
 0.5770	10.3290
 0.5780	10.2850
 0.5790	10.2430
 0.5800	10.1990
 0.5810	10.1520
 0.5820	10.1050
 0.5830	10.0620
 0.5840	10.0250
 0.5850	 9.9900
 0.5860	 9.9500
 0.5870	 9.9030
 0.5880	 9.8570
 0.5890	 9.8230
 0.5900	 9.8020
 0.5910	 9.7940
 0.5920	 9.7870
 0.5930	 9.7720
 0.5940	 9.7600
 0.5950	 9.7590
 0.5960	 9.7650
 0.5970	 9.7620
 0.5980	 9.7520
 0.5990	 9.7390
 0.6000	 9.7250
 0.6010	 9.7140
 0.6020	 9.6980
 0.6030	 9.6770
 0.6040	 9.6520
 0.6050	 9.6230
 0.6060	 9.5890
 0.6070	 9.5500
 0.6080	 9.5080
 0.6090	 9.4450
 0.6100	 9.3580
 0.6110	 9.2570
 0.6120	 9.2210
 0.6130	 9.2180
 0.6140	 9.2190
 0.6150	 9.2000
 0.6160	 9.1780
 0.6170	 9.1550
 0.6180	 9.1270
 0.6190	 9.1020
 0.6200	 9.0790
 0.6210	 9.0570
 0.6220	 9.0410
 0.6230	 9.0300
 0.6240	 9.0190
 0.6250	 9.0090
 0.6260	 9.0030
 0.6270	 8.9970
 0.6280	 8.9900
 0.6290	 8.9830
 0.6300	 8.9740
 0.6310	 8.9690
 0.6320	 8.9720
 0.6330	 8.9760
 0.6340	 8.9720
 0.6350	 8.9630
 0.6360	 8.9530
 0.6370	 8.9400
 0.6380	 8.9270
 0.6390	 8.9100
 0.6400	 8.8890
 0.6410	 8.8660
 0.6420	 8.8420
 0.6430	 8.8170
 0.6440	 8.7930
 0.6450	 8.7680
 0.6460	 8.7440
 0.6470	 8.7200
 0.6480	 8.6990
 0.6490	 8.6770
 0.6500	 8.6560
 0.6510	 8.6400
 0.6520	 8.6250
 0.6530	 8.6110
 0.6540	 8.5970
 0.6550	 8.5810
 0.6560	 8.5630
 0.6570	 8.5440
 0.6580	 8.5230
 0.6590	 8.5020
 0.6600	 8.4800
 0.6610	 8.4570
 0.6620	 8.4350
 0.6630	 8.4160
 0.6640	 8.4010
 0.6650	 8.3900
 0.6660	 8.3760
 0.6670	 8.3650
 0.6680	 8.3570
 0.6690	 8.3510
 0.6700	 8.3500
 0.6710	 8.3530
 0.6720	 8.3560
 0.6730	 8.3610
 0.6740	 8.3670
 0.6750	 8.3770
 0.6760	 8.3910
 0.6770	 8.3990
 0.6780	 8.4080
 0.6790	 8.4220
 0.6800	 8.4420
 0.6810	 8.4640
 0.6820	 8.4890
 0.6830	 8.5170
 0.6840	 8.5490
 0.6850	 8.5870
 0.6860	 8.6320
 0.6870	 8.6850
 0.6880	 8.7440
 0.6890	 8.8180
 0.6900	 8.9100
 0.6910	 9.0220
 0.6920	 9.1540
 0.6930	 9.3140
 0.6940	 9.5050
 0.6950	 9.7360
 0.6960	10.0060
 0.6970	10.3190
 0.6980	10.6740
 0.6990	11.0800
 0.7000	11.5320
 0.7010	12.0290
 0.7020	12.5680
 0.7030	13.1490
 0.7040	13.7650
 0.7050	14.4130
 0.7060	15.0920
 0.7070	15.7970
 0.7080	16.5300
 0.7090	17.2930
 0.7100	18.0770
 0.7110	18.8820
 0.7120	19.7090
 0.7130	20.5560
 0.7140	21.4210
 0.7150	22.3010
 0.7160	23.1960
 0.7170	24.1030
 0.7180	25.0200
 0.7190	25.9440
 0.7200	26.8730
 0.7210	27.8040
 0.7220	28.7350
 0.7230	29.6620
 0.7240	30.5810
 0.7250	31.4890
 0.7260	32.3830
 0.7270	33.2600
 0.7280	34.1160
 0.7290	34.9470
 0.7300	35.7540
 0.7310	36.5370
 0.7320	37.2930
 0.7330	38.0210
 0.7340	38.7180
 0.7350	39.3860
 0.7360	40.0270
 0.7370	40.6380
 0.7380	41.2200
 0.7390	41.7730
 0.7400	42.2950
 0.7410	42.7870
 0.7420	43.2540
 0.7430	43.6930
 0.7440	44.1050
 0.7450	44.4920
 0.7460	44.8560
 0.7470	45.1950
 0.7480	45.5110
 0.7490	45.8050
 0.7500	46.0780
 0.7510	46.3280
 0.7520	46.5580
 0.7530	46.7750
 0.7540	46.9730
 0.7550	47.1560
 0.7560	47.3260
 0.7570	47.4820
 0.7580	47.6260
 0.7590	47.7570
 0.7600	47.8760
 0.7610	47.9860
 0.7620	48.0870
 0.7630	48.1790
 0.7640	48.2650
 0.7650	48.3470
 0.7660	48.4220
 0.7670	48.4910
 0.7680	48.5540
 0.7690	48.6120
 0.7700	48.6670
 0.7710	48.7190
 0.7720	48.7660
 0.7730	48.8080
 0.7740	48.8510
 0.7750	48.8920
 0.7760	48.9280
 0.7770	48.9610
 0.7780	48.9940
 0.7790	49.0270
 0.7800	49.0550
 0.7810	49.0790
 0.7820	49.1020
 0.7830	49.1270
 0.7840	49.1510
 0.7850	49.1730
 0.7860	49.1940
 0.7870	49.2110
 0.7880	49.2310
 0.7890	49.2500
 0.7900	49.2640
 0.7910	49.2800
 0.7920	49.2930
 0.7930	49.3020
 0.7940	49.3120
 0.7950	49.3230
 0.7960	49.3320
 0.7970	49.3390
 0.7980	49.3410
 0.7990	49.3490
 0.8000	49.3590
 0.8010	49.3650
 0.8020	49.3650
 0.8030	49.3670
 0.8040	49.3690
 0.8050	49.3680
 0.8060	49.3700
 0.8070	49.3710
 0.8080	49.3690
 0.8090	49.3680
 0.8100	49.3640
 0.8110	49.3610
 0.8120	49.3580
 0.8130	49.3550
 0.8140	49.3490
 0.8150	49.3430
 0.8160	49.3410
 0.8170	49.3360
 0.8180	49.3320
 0.8190	49.3280
 0.8200	49.3250
 0.8210	49.3200
 0.8220	49.3140
 0.8230	49.3050
 0.8240	49.2990
 0.8250	49.2920
 0.8260	49.2860
 0.8270	49.2810
 0.8280	49.2710
 0.8290	49.2600
 0.8300	49.2510
 0.8310	49.2480
 0.8320	49.2430
 0.8330	49.2350
 0.8340	49.2260
 0.8350	49.2200
 0.8360	49.2170
 0.8370	49.2160
 0.8380	49.2150
 0.8390	49.2110
 0.8400	49.2060
 0.8410	49.2060
 0.8420	49.2100
 0.8430	49.2110
 0.8440	49.2120
 0.8450	49.2150
 0.8460	49.2190
 0.8470	49.2190
 0.8480	49.2190
 0.8490	49.2220
 0.8500	49.2290
 0.8510	49.2320
 0.8520	49.2350
 0.8530	49.2410
 0.8540	49.2470
 0.8550	49.2510
 0.8560	49.2550
 0.8570	49.2600
 0.8580	49.2700
 0.8590	49.2770
 0.8600	49.2830
 0.8610	49.2910
 0.8620	49.3060
 0.8630	49.3110
 0.8640	49.3150
 0.8650	49.3270
 0.8660	49.3400
 0.8670	49.3480
 0.8680	49.3550
 0.8690	49.3670
 0.8700	49.3760
 0.8710	49.3880
 0.8720	49.4020
 0.8730	49.4140
 0.8740	49.4240
 0.8750	49.4370
 0.8760	49.4530
 0.8770	49.4650
 0.8780	49.4780
 0.8790	49.4930
 0.8800	49.5060
 0.8810	49.5130
 0.8820	49.5260
 0.8830	49.5400
 0.8840	49.5520
 0.8850	49.5640
 0.8860	49.5800
 0.8870	49.5930
 0.8880	49.6010
 0.8890	49.6160
 0.8900	49.6300
 0.8910	49.6430
 0.8920	49.6570
 0.8930	49.6720
 0.8940	49.6830
 0.8950	49.6920
 0.8960	49.7070
 0.8970	49.7200
 0.8980	49.7310
 0.8990	49.7430
 0.9000	49.7540
 0.9010	49.7610
 0.9020	49.7700
 0.9030	49.7840
 0.9040	49.7990
 0.9050	49.8060
 0.9060	49.8140
 0.9070	49.8280
 0.9080	49.8380
 0.9090	49.8470
 0.9100	49.8550
 0.9110	49.8620
 0.9120	49.8730
 0.9130	49.8840
 0.9140	49.8920
 0.9150	49.9000
 0.9160	49.9080
 0.9170	49.9150
 0.9180	49.9160
 0.9190	49.9150
 0.9200	49.9240
 0.9210	49.9270
 0.9220	49.9220
 0.9230	49.9190
 0.9240	49.9200
 0.9250	49.9180
 0.9260	49.9090
 0.9270	49.8960
 0.9280	49.8950
 0.9290	49.8890
 0.9300	49.8740
 0.9310	49.8590
 0.9320	49.8430
 0.9330	49.8250
 0.9340	49.8050
 0.9350	49.7840
 0.9360	49.7630
 0.9370	49.7420
 0.9380	49.7220
 0.9390	49.7050
 0.9400	49.6840
 0.9410	49.6550
 0.9420	49.6250
 0.9430	49.5990
 0.9440	49.5710
 0.9450	49.5350
 0.9460	49.4940
 0.9470	49.4560
 0.9480	49.4140
 0.9490	49.3640
 0.9500	49.3060
 0.9510	49.2410
 0.9520	49.1780
 0.9530	49.1210
 0.9540	49.0690
 0.9550	49.0120
 0.9560	48.9460
 0.9570	48.8840
 0.9580	48.8340
 0.9590	48.7750
 0.9600	48.7170
 0.9610	48.6650
 0.9620	48.6210
 0.9630	48.5880
 0.9640	48.5620
 0.9650	48.5360
 0.9660	48.5060
 0.9670	48.4780
 0.9680	48.4570
 0.9690	48.4380
 0.9700	48.4170
 0.9710	48.4000
 0.9720	48.3900
 0.9730	48.3820
 0.9740	48.3700
 0.9750	48.3670
 0.9760	48.3530
 0.9770	48.3420
 0.9780	48.3520
 0.9790	48.3560
 0.9800	48.3590
 0.9810	48.3630
 0.9820	48.3660
 0.9830	48.3590
 0.9840	48.3690
 0.9850	48.3870
 0.9860	48.3900
 0.9870	48.4040
 0.9880	48.4180
 0.9890	48.4310
 0.9900	48.4500
 0.9910	48.4640
 0.9920	48.4800
 0.9930	48.4980
 0.9940	48.5140
 0.9950	48.5320
 0.9960	48.5490
 0.9970	48.5650
 0.9980	48.5810
 0.9990	48.6090
 1.0000	48.6200
 1.0010	50.0400
 1.0020	50.0630
 1.0030	50.0910
 1.0040	50.1140
 1.0050	50.1340
 1.0060	50.1590
 1.0070	50.1820
 1.0080	50.2050
 1.0090	50.2310
 1.0100	50.2550
 1.0110	50.2780
 1.0120	50.3010
 1.0130	50.3250
 1.0140	50.3480
 1.0150	50.3720
 1.0160	50.3910
 1.0170	50.4090
 1.0180	50.4250
 1.0190	50.4440
 1.0200	50.4660
 1.0210	50.4910
 1.0220	50.5180
 1.0230	50.5430
 1.0240	50.5650
 1.0250	50.5880
 1.0260	50.6080
 1.0270	50.6300
 1.0280	50.6510
 1.0290	50.6720
 1.0300	50.6940
 1.0310	50.7170
 1.0320	50.7430
 1.0330	50.7650
 1.0340	50.7840
 1.0350	50.8030
 1.0360	50.8180
 1.0370	50.8330
 1.0380	50.8500
 1.0390	50.8690
 1.0400	50.8870
 1.0410	50.9050
 1.0420	50.9210
 1.0430	50.9400
 1.0440	50.9530
 1.0450	50.9600
 1.0460	50.9720
 1.0470	50.9840
 1.0480	50.9960
 1.0490	51.0100
 1.0500	51.0230
 1.0510	51.0340
 1.0520	51.0460
 1.0530	51.0590
 1.0540	51.0770
 1.0550	51.0870
 1.0560	51.0930
 1.0570	51.1020
 1.0580	51.1090
 1.0590	51.1160
 1.0600	51.1260
 1.0610	51.1340
 1.0620	51.1390
 1.0630	51.1440
 1.0640	51.1480
 1.0650	51.1520
 1.0660	51.1540
 1.0670	51.1570
 1.0680	51.1610
 1.0690	51.1660
 1.0700	51.1700
 1.0710	51.1730
 1.0720	51.1760
 1.0730	51.1790
 1.0740	51.1800
 1.0750	51.1790
 1.0760	51.1790
 1.0770	51.1780
 1.0780	51.1780
 1.0790	51.1800
 1.0800	51.1810
 1.0810	51.1830
 1.0820	51.1820
 1.0830	51.1810
 1.0840	51.1780
 1.0850	51.1730
 1.0860	51.1670
 1.0870	51.1610
 1.0880	51.1540
 1.0890	51.1490
 1.0900	51.1450
 1.0910	51.1410
 1.0920	51.1390
 1.0930	51.1350
 1.0940	51.1280
 1.0950	51.1220
 1.0960	51.1150
 1.0970	51.1070
 1.0980	51.1000
 1.0990	51.0930
 1.1000	51.0850
 1.1010	51.0770
 1.1020	51.0680
 1.1030	51.0600
 1.1040	51.0530
 1.1050	51.0450
 1.1060	51.0360
 1.1070	51.0290
 1.1080	51.0200
 1.1090	51.0090
 1.1100	50.9980
 1.1110	50.9890
 1.1120	50.9750
 1.1130	50.9600
 1.1140	50.9440
 1.1150	50.9270
 1.1160	50.9080
 1.1170	50.8900
 1.1180	50.8690
 1.1190	50.8470
 1.1200	50.8200
 1.1210	50.7890
 1.1220	50.7590
 1.1230	50.7250
 1.1240	50.6870
 1.1250	50.6430
 1.1260	50.5970
 1.1270	50.5420
 1.1280	50.4790
 1.1290	50.4120
 1.1300	50.3400
 1.1310	50.2610
 1.1320	50.1760
 1.1330	50.0840
 1.1340	49.9860
 1.1350	49.8790
 1.1360	49.7640
 1.1370	49.6440
 1.1380	49.5160
 1.1390	49.3830
 1.1400	49.2460
 1.1410	49.1070
 1.1420	48.9630
 1.1430	48.8140
 1.1440	48.6660
 1.1450	48.5160
 1.1460	48.3680
 1.1470	48.2200
 1.1480	48.0770
 1.1490	47.9350
 1.1500	47.8010
 1.1510	47.6700
 1.1520	47.5500
 1.1530	47.4370
 1.1540	47.3350
 1.1550	47.2410
 1.1560	47.1560
 1.1570	47.0780
 1.1580	47.0090
 1.1590	46.9460
 1.1600	46.8910
 1.1610	46.8420
 1.1620	46.7990
 1.1630	46.7640
 1.1640	46.7350
 1.1650	46.7070
 1.1660	46.6850
 1.1670	46.6630
 1.1680	46.6420
 1.1690	46.6240
 1.1700	46.6110
 1.1710	46.5970
 1.1720	46.5870
 1.1730	46.5740
 1.1740	46.5610
 1.1750	46.5490
 1.1760	46.5370
 1.1770	46.5240
 1.1780	46.5100
 1.1790	46.4940
 1.1800	46.4770
 1.1810	46.4600
 1.1820	46.4440
 1.1830	46.4290
 1.1840	46.4130
 1.1850	46.3980
 1.1860	46.3810
 1.1870	46.3650
 1.1880	46.3510
 1.1890	46.3410
 1.1900	46.3300
 1.1910	46.3210
 1.1920	46.3140
 1.1930	46.3080
 1.1940	46.3040
 1.1950	46.3020
 1.1960	46.3010
 1.1970	46.3000
 1.1980	46.3020
 1.1990	46.3060
 1.2000	46.3130
 1.2010	46.3210
 1.2020	46.3280
 1.2030	46.3390
 1.2040	46.3520
 1.2050	46.3660
 1.2060	46.3820
 1.2070	46.3990
 1.2080	46.4150
 1.2090	46.4340
 1.2100	46.4540
 1.2110	46.4760
 1.2120	46.4990
 1.2130	46.5240
 1.2140	46.5510
 1.2150	46.5780
 1.2160	46.6060
 1.2170	46.6350
 1.2180	46.6630
 1.2190	46.6940
 1.2200	46.7250
 1.2210	46.7550
 1.2220	46.7870
 1.2230	46.8180
 1.2240	46.8490
 1.2250	46.8810
 1.2260	46.9110
 1.2270	46.9420
 1.2280	46.9710
 1.2290	46.9980
 1.2300	47.0280
 1.2310	47.0550
 1.2320	47.0810
 1.2330	47.1080
 1.2340	47.1330
 1.2350	47.1550
 1.2360	47.1790
 1.2370	47.2040
 1.2380	47.2270
 1.2390	47.2500
 1.2400	47.2720
 1.2410	47.2910
 1.2420	47.3100
 1.2430	47.3320
 1.2440	47.3510
 1.2450	47.3700
 1.2460	47.3900
 1.2470	47.4070
 1.2480	47.4250
 1.2490	47.4420
 1.2500	47.4560
 1.2510	47.4690
 1.2520	47.4830
 1.2530	47.4950
 1.2540	47.5080
 1.2550	47.5220
 1.2560	47.5330
 1.2570	47.5420
 1.2580	47.5510
 1.2590	47.5580
 1.2600	47.5610
 1.2610	47.5650
 1.2620	47.5670
 1.2630	47.5700
 1.2640	47.5710
 1.2650	47.5710
 1.2660	47.5710
 1.2670	47.5700
 1.2680	47.5690
 1.2690	47.5670
 1.2700	47.5620
 1.2710	47.5540
 1.2720	47.5480
 1.2730	47.5420
 1.2740	47.5350
 1.2750	47.5270
 1.2760	47.5180
 1.2770	47.5040
 1.2780	47.4890
 1.2790	47.4760
 1.2800	47.4630
 1.2810	47.4480
 1.2820	47.4320
 1.2830	47.4140
 1.2840	47.3920
 1.2850	47.3680
 1.2860	47.3400
 1.2870	47.3110
 1.2880	47.2780
 1.2890	47.2440
 1.2900	47.2080
 1.2910	47.1700
 1.2920	47.1330
 1.2930	47.0930
 1.2940	47.0480
 1.2950	47.0030
 1.2960	46.9530
 1.2970	46.9000
 1.2980	46.8460
 1.2990	46.7880
 1.3000	46.7280
 1.3010	46.6630
 1.3020	46.5960
 1.3030	46.5240
 1.3040	46.4500
 1.3050	46.3770
 1.3060	46.3010
 1.3070	46.2220
 1.3080	46.1410
 1.3090	46.0560
 1.3100	45.9670
 1.3110	45.8780
 1.3120	45.7840
 1.3130	45.6860
 1.3140	45.5860
 1.3150	45.4840
 1.3160	45.3790
 1.3170	45.2730
 1.3180	45.1640
 1.3190	45.0510
 1.3200	44.9330
 1.3210	44.8120
 1.3220	44.6890
 1.3230	44.5640
 1.3240	44.4350
 1.3250	44.3060
 1.3260	44.1730
 1.3270	44.0370
 1.3280	43.8990
 1.3290	43.7550
 1.3300	43.6100
 1.3310	43.4620
 1.3320	43.3110
 1.3330	43.1620
 1.3340	43.0100
 1.3350	42.8580
 1.3360	42.7060
 1.3370	42.5510
 1.3380	42.3960
 1.3390	42.2410
 1.3400	42.0850
 1.3410	41.9320
 1.3420	41.7800
 1.3430	41.6300
 1.3440	41.4810
 1.3450	41.3320
 1.3460	41.1830
 1.3470	41.0370
 1.3480	40.8900
 1.3490	40.7460
 1.3500	40.6050
 1.3510	40.4650
 1.3520	40.3250
 1.3530	40.1860
 1.3540	40.0450
 1.3550	39.9040
 1.3560	39.7630
 1.3570	39.6230
 1.3580	39.4840
 1.3590	39.3410
 1.3600	39.1950
 1.3610	39.0450
 1.3620	38.8900
 1.3630	38.7300
 1.3640	38.5650
 1.3650	38.3940
 1.3660	38.2160
 1.3670	38.0300
 1.3680	37.8330
 1.3690	37.6260
 1.3700	37.4030
 1.3710	37.1680
 1.3720	36.9200
 1.3730	36.6530
 1.3740	36.3710
 1.3750	36.0700
 1.3760	35.7470
 1.3770	35.4000
 1.3780	35.0280
 1.3790	34.6330
 1.3800	34.2130
 1.3810	33.7670
 1.3820	33.3020
 1.3830	32.8160
 1.3840	32.3110
 1.3850	31.7850
 1.3860	31.2440
 1.3870	30.6800
 1.3880	30.1130
 1.3890	29.5340
 1.3900	28.9450
 1.3910	28.3560
 1.3920	27.7630
 1.3930	27.1660
 1.3940	26.5750
 1.3950	25.9820
 1.3960	25.3990
 1.3970	24.8290
 1.3980	24.2690
 1.3990	23.7330
 1.4000	23.2140
 1.4010	22.7100
 1.4020	22.2300
 1.4030	21.7670
 1.4040	21.3260
 1.4050	20.9110
 1.4060	20.5160
 1.4070	20.1480
 1.4080	19.8030
 1.4090	19.4770
 1.4100	19.1750
 1.4110	18.8930
 1.4120	18.6310
 1.4130	18.3900
 1.4140	18.1660
 1.4150	17.9630
 1.4160	17.7750
 1.4170	17.6020
 1.4180	17.4450
 1.4190	17.2990
 1.4200	17.1660
 1.4210	17.0460
 1.4220	16.9360
 1.4230	16.8380
 1.4240	16.7490
 1.4250	16.6680
 1.4260	16.5960
 1.4270	16.5310
 1.4280	16.4730
 1.4290	16.4210
 1.4300	16.3780
 1.4310	16.3380
 1.4320	16.3060
 1.4330	16.2780
 1.4340	16.2530
 1.4350	16.2330
 1.4360	16.2180
 1.4370	16.2070
 1.4380	16.2000
 1.4390	16.1970
 1.4400	16.1960
 1.4410	16.1970
 1.4420	16.2010
 1.4430	16.2070
 1.4440	16.2140
 1.4450	16.2230
 1.4460	16.2330
 1.4470	16.2440
 1.4480	16.2580
 1.4490	16.2720
 1.4500	16.2880
 1.4510	16.3060
 1.4520	16.3260
 1.4530	16.3460
 1.4540	16.3680
 1.4550	16.3910
 1.4560	16.4140
 1.4570	16.4390
 1.4580	16.4680
 1.4590	16.4980
 1.4600	16.5320
 1.4610	16.5700
 1.4620	16.6110
 1.4630	16.6570
 1.4640	16.7070
 1.4650	16.7600
 1.4660	16.8170
 1.4670	16.8770
 1.4680	16.9420
 1.4690	17.0120
 1.4700	17.0860
 1.4710	17.1640
 1.4720	17.2460
 1.4730	17.3310
 1.4740	17.4200
 1.4750	17.5110
 1.4760	17.6050
 1.4770	17.7010
