Name: Phyllostachys aurea
Type: vegetation
Class: Tree
Genus: Phyllostachys
Species: aurea
Sample No.: JPL089
Owner: JPL
Wavelength Range: VSWIR
Origin: 34.12517; - 118.1154; WGS84
Collection Date: 2/2/2016
Description: Samples were collected at the Huntington Garden in San Marino California as part of a JPL Subcontract studying HyTES imagery. Samples were taken to JPL and processed within 48 hours of collection. The same leaves were processed in the Nicolet and then measured using the ASD.
Measurement: Bidirectional reflectance
First Column: X
Second Column: Y
X Units: Wavelength (micrometer)
Y Units: Reflectance (percentage)
First X Value: 0.35
Last X Value: 2.5
Number of X Values: 2151
Additional Information: 

 0.3500	 4.7750
 0.3510	 6.8160
 0.3520	 5.4620
 0.3530	 3.3000
 0.3540	 3.1070
 0.3550	 3.6860
 0.3560	 4.1680
 0.3570	 4.3470
 0.3580	 4.3770
 0.3590	 4.3460
 0.3600	 4.3580
 0.3610	 4.2850
 0.3620	 3.6430
 0.3630	 3.7410
 0.3640	 4.2120
 0.3650	 4.3810
 0.3660	 4.1790
 0.3670	 3.7320
 0.3680	 3.6140
 0.3690	 4.5140
 0.3700	 4.8430
 0.3710	 4.2360
 0.3720	 3.2290
 0.3730	 3.8520
 0.3740	 4.2710
 0.3750	 4.1960
 0.3760	 3.9340
 0.3770	 4.0910
 0.3780	 3.9670
 0.3790	 3.7940
 0.3800	 4.5070
 0.3810	 4.6020
 0.3820	 4.6620
 0.3830	 5.0090
 0.3840	 4.5790
 0.3850	 4.3850
 0.3860	 4.1570
 0.3870	 3.4760
 0.3880	 3.9630
 0.3890	 4.4480
 0.3900	 4.4210
 0.3910	 4.2410
 0.3920	 4.4760
 0.3930	 4.5710
 0.3940	 4.2100
 0.3950	 4.2740
 0.3960	 4.3370
 0.3970	 4.2180
 0.3980	 3.9360
 0.3990	 4.0370
 0.4000	 4.3460
 0.4010	 4.5450
 0.4020	 4.2370
 0.4030	 4.1320
 0.4040	 4.1440
 0.4050	 4.1100
 0.4060	 4.4110
 0.4070	 4.2860
 0.4080	 3.9920
 0.4090	 4.3560
 0.4100	 4.6650
 0.4110	 4.6310
 0.4120	 4.3190
 0.4130	 4.2890
 0.4140	 4.2840
 0.4150	 4.2740
 0.4160	 4.2810
 0.4170	 4.2580
 0.4180	 4.2430
 0.4190	 4.2790
 0.4200	 4.3980
 0.4210	 4.4190
 0.4220	 4.4180
 0.4230	 4.4670
 0.4240	 4.5050
 0.4250	 4.4600
 0.4260	 4.4260
 0.4270	 4.5320
 0.4280	 4.5500
 0.4290	 4.4990
 0.4300	 4.4610
 0.4310	 4.5660
 0.4320	 4.5940
 0.4330	 4.5380
 0.4340	 4.4630
 0.4350	 4.4730
 0.4360	 4.5180
 0.4370	 4.5430
 0.4380	 4.5090
 0.4390	 4.5320
 0.4400	 4.5980
 0.4410	 4.6570
 0.4420	 4.6170
 0.4430	 4.5830
 0.4440	 4.5620
 0.4450	 4.5350
 0.4460	 4.5890
 0.4470	 4.6290
 0.4480	 4.6440
 0.4490	 4.7300
 0.4500	 4.7710
 0.4510	 4.7120
 0.4520	 4.5810
 0.4530	 4.6030
 0.4540	 4.6460
 0.4550	 4.6580
 0.4560	 4.6460
 0.4570	 4.6620
 0.4580	 4.7070
 0.4590	 4.7490
 0.4600	 4.7140
 0.4610	 4.6540
 0.4620	 4.6650
 0.4630	 4.7960
 0.4640	 4.7760
 0.4650	 4.7320
 0.4660	 4.7430
 0.4670	 4.8210
 0.4680	 4.8740
 0.4690	 4.8840
 0.4700	 4.8490
 0.4710	 4.7350
 0.4720	 4.7570
 0.4730	 4.8410
 0.4740	 4.7900
 0.4750	 4.8160
 0.4760	 4.8770
 0.4770	 4.9070
 0.4780	 4.8460
 0.4790	 4.8010
 0.4800	 4.7600
 0.4810	 4.7040
 0.4820	 4.7760
 0.4830	 4.8300
 0.4840	 4.8180
 0.4850	 4.7920
 0.4860	 4.8700
 0.4870	 4.9320
 0.4880	 4.9000
 0.4890	 4.9190
 0.4900	 4.8890
 0.4910	 4.8640
 0.4920	 4.9440
 0.4930	 4.9990
 0.4940	 5.0140
 0.4950	 5.0100
 0.4960	 5.0420
 0.4970	 5.0650
 0.4980	 5.1020
 0.4990	 5.1750
 0.5000	 5.2590
 0.5010	 5.3370
 0.5020	 5.3980
 0.5030	 5.4340
 0.5040	 5.5080
 0.5050	 5.6310
 0.5060	 5.7720
 0.5070	 5.8060
 0.5080	 5.9100
 0.5090	 6.0760
 0.5100	 6.2220
 0.5110	 6.3670
 0.5120	 6.5540
 0.5130	 6.7830
 0.5140	 6.9940
 0.5150	 7.2200
 0.5160	 7.4340
 0.5170	 7.6300
 0.5180	 7.9200
 0.5190	 8.1980
 0.5200	 8.4580
 0.5210	 8.7690
 0.5220	 9.0960
 0.5230	 9.3830
 0.5240	 9.6170
 0.5250	 9.8580
 0.5260	10.1410
 0.5270	10.4220
 0.5280	10.6380
 0.5290	10.8420
 0.5300	11.0450
 0.5310	11.2460
 0.5320	11.4290
 0.5330	11.5780
 0.5340	11.7130
 0.5350	11.8490
 0.5360	11.9440
 0.5370	12.0540
 0.5380	12.1890
 0.5390	12.3200
 0.5400	12.4200
 0.5410	12.5100
 0.5420	12.6040
 0.5430	12.6970
 0.5440	12.7760
 0.5450	12.8300
 0.5460	12.8570
 0.5470	12.8800
 0.5480	12.8750
 0.5490	12.8590
 0.5500	12.9090
 0.5510	12.9450
 0.5520	12.9570
 0.5530	12.9540
 0.5540	12.9390
 0.5550	12.8990
 0.5560	12.8410
 0.5570	12.7880
 0.5580	12.7240
 0.5590	12.6450
 0.5600	12.5520
 0.5610	12.4560
 0.5620	12.3260
 0.5630	12.1930
 0.5640	12.0920
 0.5650	11.9470
 0.5660	11.7910
 0.5670	11.6410
 0.5680	11.4920
 0.5690	11.3330
 0.5700	11.1670
 0.5710	10.9960
 0.5720	10.8120
 0.5730	10.6470
 0.5740	10.5100
 0.5750	10.3830
 0.5760	10.2510
 0.5770	10.1360
 0.5780	10.0400
 0.5790	 9.9080
 0.5800	 9.7910
 0.5810	 9.6970
 0.5820	 9.6140
 0.5830	 9.5240
 0.5840	 9.4610
 0.5850	 9.4100
 0.5860	 9.3100
 0.5870	 9.2340
 0.5880	 9.1820
 0.5890	 9.1360
 0.5900	 9.0910
 0.5910	 9.0320
 0.5920	 8.9750
 0.5930	 8.9480
 0.5940	 8.9100
 0.5950	 8.8620
 0.5960	 8.8230
 0.5970	 8.8340
 0.5980	 8.8120
 0.5990	 8.7700
 0.6000	 8.7370
 0.6010	 8.6830
 0.6020	 8.6400
 0.6030	 8.6100
 0.6040	 8.5630
 0.6050	 8.5200
 0.6060	 8.4540
 0.6070	 8.3540
 0.6080	 8.2720
 0.6090	 8.1930
 0.6100	 8.1330
 0.6110	 8.1060
 0.6120	 8.0290
 0.6130	 7.9220
 0.6140	 7.8130
 0.6150	 7.7280
 0.6160	 7.6380
 0.6170	 7.5510
 0.6180	 7.4810
 0.6190	 7.4510
 0.6200	 7.4060
 0.6210	 7.3350
 0.6220	 7.2670
 0.6230	 7.2320
 0.6240	 7.2050
 0.6250	 7.1720
 0.6260	 7.1580
 0.6270	 7.1470
 0.6280	 7.1460
 0.6290	 7.1650
 0.6300	 7.1560
 0.6310	 7.1220
 0.6320	 7.0850
 0.6330	 7.0810
 0.6340	 7.0810
 0.6350	 7.0630
 0.6360	 7.0150
 0.6370	 6.9490
 0.6380	 6.8950
 0.6390	 6.8470
 0.6400	 6.7810
 0.6410	 6.7140
 0.6420	 6.6360
 0.6430	 6.5500
 0.6440	 6.4870
 0.6450	 6.4010
 0.6460	 6.3050
 0.6470	 6.2290
 0.6480	 6.1810
 0.6490	 6.1380
 0.6500	 6.0840
 0.6510	 6.0200
 0.6520	 5.9760
 0.6530	 5.9350
 0.6540	 5.8890
 0.6550	 5.8690
 0.6560	 5.8440
 0.6570	 5.8010
 0.6580	 5.7380
 0.6590	 5.6980
 0.6600	 5.6420
 0.6610	 5.5670
 0.6620	 5.5090
 0.6630	 5.4630
 0.6640	 5.4220
 0.6650	 5.3790
 0.6660	 5.3290
 0.6670	 5.3030
 0.6680	 5.2970
 0.6690	 5.2910
 0.6700	 5.2600
 0.6710	 5.2370
 0.6720	 5.2430
 0.6730	 5.2670
 0.6740	 5.2620
 0.6750	 5.2620
 0.6760	 5.2990
 0.6770	 5.3150
 0.6780	 5.3360
 0.6790	 5.3690
 0.6800	 5.4130
 0.6810	 5.4710
 0.6820	 5.5120
 0.6830	 5.5460
 0.6840	 5.6500
 0.6850	 5.7530
 0.6860	 5.8500
 0.6870	 5.9620
 0.6880	 6.1130
 0.6890	 6.3080
 0.6900	 6.5530
 0.6910	 6.8520
 0.6920	 7.1980
 0.6930	 7.5960
 0.6940	 8.0630
 0.6950	 8.6440
 0.6960	 9.2600
 0.6970	 9.9100
 0.6980	10.6180
 0.6990	11.3610
 0.7000	12.1420
 0.7010	12.9540
 0.7020	13.7850
 0.7030	14.5860
 0.7040	15.3710
 0.7050	16.1580
 0.7060	16.9380
 0.7070	17.6940
 0.7080	18.4250
 0.7090	19.1410
 0.7100	19.8510
 0.7110	20.5640
 0.7120	21.2660
 0.7130	21.9360
 0.7140	22.6230
 0.7150	23.2970
 0.7160	23.9360
 0.7170	24.5850
 0.7180	25.2470
 0.7190	25.8960
 0.7200	26.5010
 0.7210	27.1330
 0.7220	27.7610
 0.7230	28.3660
 0.7240	28.9550
 0.7250	29.5160
 0.7260	30.0570
 0.7270	30.5940
 0.7280	31.1490
 0.7290	31.6670
 0.7300	32.1460
 0.7310	32.6030
 0.7320	33.0590
 0.7330	33.5010
 0.7340	33.9240
 0.7350	34.3330
 0.7360	34.6920
 0.7370	35.0310
 0.7380	35.3700
 0.7390	35.6870
 0.7400	35.9790
 0.7410	36.2500
 0.7420	36.5080
 0.7430	36.7580
 0.7440	36.9860
 0.7450	37.1850
 0.7460	37.3570
 0.7470	37.5410
 0.7480	37.7160
 0.7490	37.8620
 0.7500	37.9840
 0.7510	38.1000
 0.7520	38.2090
 0.7530	38.3060
 0.7540	38.3990
 0.7550	38.4790
 0.7560	38.5470
 0.7570	38.6130
 0.7580	38.6710
 0.7590	38.7330
 0.7600	38.7940
 0.7610	38.8200
 0.7620	38.8670
 0.7630	38.9140
 0.7640	38.9320
 0.7650	38.9510
 0.7660	38.9850
 0.7670	39.0150
 0.7680	39.0100
 0.7690	39.0190
 0.7700	39.0300
 0.7710	39.0420
 0.7720	39.0800
 0.7730	39.0800
 0.7740	39.0770
 0.7750	39.0990
 0.7760	39.0900
 0.7770	39.0850
 0.7780	39.0910
 0.7790	39.1040
 0.7800	39.1110
 0.7810	39.1010
 0.7820	39.0860
 0.7830	39.0900
 0.7840	39.0840
 0.7850	39.0840
 0.7860	39.0960
 0.7870	39.0840
 0.7880	39.0760
 0.7890	39.0790
 0.7900	39.0860
 0.7910	39.0620
 0.7920	39.0550
 0.7930	39.0610
 0.7940	39.0440
 0.7950	39.0430
 0.7960	39.0400
 0.7970	39.0240
 0.7980	38.9990
 0.7990	38.9930
 0.8000	38.9980
 0.8010	39.0000
 0.8020	39.0010
 0.8030	38.9730
 0.8040	38.9380
 0.8050	38.9280
 0.8060	38.9180
 0.8070	38.9040
 0.8080	38.8840
 0.8090	38.8610
 0.8100	38.8560
 0.8110	38.8550
 0.8120	38.8420
 0.8130	38.8170
 0.8140	38.8160
 0.8150	38.8290
 0.8160	38.8280
 0.8170	38.7780
 0.8180	38.7620
 0.8190	38.7780
 0.8200	38.7840
 0.8210	38.7560
 0.8220	38.7280
 0.8230	38.7170
 0.8240	38.7170
 0.8250	38.7140
 0.8260	38.7120
 0.8270	38.7060
 0.8280	38.6690
 0.8290	38.6580
 0.8300	38.6570
 0.8310	38.6430
 0.8320	38.6280
 0.8330	38.6280
 0.8340	38.6260
 0.8350	38.6040
 0.8360	38.5970
 0.8370	38.6040
 0.8380	38.6130
 0.8390	38.6060
 0.8400	38.6050
 0.8410	38.6120
 0.8420	38.6210
 0.8430	38.6100
 0.8440	38.5910
 0.8450	38.5830
 0.8460	38.5990
 0.8470	38.6310
 0.8480	38.6290
 0.8490	38.6120
 0.8500	38.6160
 0.8510	38.6240
 0.8520	38.6380
 0.8530	38.6490
 0.8540	38.6450
 0.8550	38.6490
 0.8560	38.6560
 0.8570	38.6560
 0.8580	38.6410
 0.8590	38.6650
 0.8600	38.6880
 0.8610	38.6830
 0.8620	38.6710
 0.8630	38.6710
 0.8640	38.6820
 0.8650	38.6960
 0.8660	38.6890
 0.8670	38.7060
 0.8680	38.7260
 0.8690	38.7210
 0.8700	38.7430
 0.8710	38.7510
 0.8720	38.7550
 0.8730	38.7820
 0.8740	38.7790
 0.8750	38.7860
 0.8760	38.8110
 0.8770	38.8210
 0.8780	38.8310
 0.8790	38.8350
 0.8800	38.8360
 0.8810	38.8450
 0.8820	38.8550
 0.8830	38.8760
 0.8840	38.9020
 0.8850	38.8870
 0.8860	38.8750
 0.8870	38.8710
 0.8880	38.8720
 0.8890	38.9020
 0.8900	38.9040
 0.8910	38.8910
 0.8920	38.9000
 0.8930	38.9380
 0.8940	38.9530
 0.8950	38.9450
 0.8960	38.9410
 0.8970	38.9190
 0.8980	38.9270
 0.8990	38.9600
 0.9000	38.9660
 0.9010	38.9990
 0.9020	38.9920
 0.9030	38.9430
 0.9040	38.9490
 0.9050	38.9680
 0.9060	38.9720
 0.9070	38.9510
 0.9080	38.9300
 0.9090	38.9520
 0.9100	38.9800
 0.9110	38.9810
 0.9120	38.9740
 0.9130	38.9840
 0.9140	38.9870
 0.9150	38.9550
 0.9160	38.9050
 0.9170	38.9110
 0.9180	38.9490
 0.9190	38.9590
 0.9200	38.9350
 0.9210	38.9360
 0.9220	38.9510
 0.9230	38.9410
 0.9240	38.9930
 0.9250	38.9510
 0.9260	38.8670
 0.9270	38.9180
 0.9280	38.9600
 0.9290	38.9360
 0.9300	38.8860
 0.9310	38.9130
 0.9320	38.8630
 0.9330	38.8400
 0.9340	38.8770
 0.9350	38.8860
 0.9360	38.8490
 0.9370	38.8340
 0.9380	38.8430
 0.9390	38.7760
 0.9400	38.7480
 0.9410	38.7780
 0.9420	38.8150
 0.9430	38.7530
 0.9440	38.7360
 0.9450	38.7210
 0.9460	38.6680
 0.9470	38.6190
 0.9480	38.6430
 0.9490	38.6720
 0.9500	38.6350
 0.9510	38.5500
 0.9520	38.5730
 0.9530	38.6110
 0.9540	38.5680
 0.9550	38.5620
 0.9560	38.5250
 0.9570	38.4540
 0.9580	38.3890
 0.9590	38.4600
 0.9600	38.4830
 0.9610	38.4470
 0.9620	38.4020
 0.9630	38.3520
 0.9640	38.3830
 0.9650	38.4270
 0.9660	38.3930
 0.9670	38.3810
 0.9680	38.3890
 0.9690	38.3750
 0.9700	38.3120
 0.9710	38.3020
 0.9720	38.2880
 0.9730	38.2250
 0.9740	38.1180
 0.9750	38.1370
 0.9760	38.2320
 0.9770	38.3130
 0.9780	38.2980
 0.9790	38.1930
 0.9800	38.1670
 0.9810	38.2050
 0.9820	38.2120
 0.9830	38.2070
 0.9840	38.2190
 0.9850	38.2380
 0.9860	38.2410
 0.9870	38.2270
 0.9880	38.2450
 0.9890	38.2930
 0.9900	38.3250
 0.9910	38.2580
 0.9920	38.1780
 0.9930	38.1500
 0.9940	38.1790
 0.9950	38.1270
 0.9960	38.0700
 0.9970	38.1110
 0.9980	38.2650
 0.9990	38.1700
 1.0000	38.1090
 1.0010	38.4000
 1.0020	38.4110
 1.0030	38.4020
 1.0040	38.3600
 1.0050	38.3540
 1.0060	38.3520
 1.0070	38.3600
 1.0080	38.3610
 1.0090	38.3680
 1.0100	38.3660
 1.0110	38.3490
 1.0120	38.3350
 1.0130	38.3340
 1.0140	38.3280
 1.0150	38.3060
 1.0160	38.3070
 1.0170	38.3060
 1.0180	38.2970
 1.0190	38.2900
 1.0200	38.3030
 1.0210	38.3410
 1.0220	38.3610
 1.0230	38.3700
 1.0240	38.3730
 1.0250	38.3740
 1.0260	38.3540
 1.0270	38.3530
 1.0280	38.3660
 1.0290	38.3760
 1.0300	38.3980
 1.0310	38.4050
 1.0320	38.4220
 1.0330	38.3980
 1.0340	38.3830
 1.0350	38.3520
 1.0360	38.3380
 1.0370	38.3590
 1.0380	38.3700
 1.0390	38.4080
 1.0400	38.4150
 1.0410	38.4020
 1.0420	38.4010
 1.0430	38.3810
 1.0440	38.3860
 1.0450	38.4160
 1.0460	38.4330
 1.0470	38.4640
 1.0480	38.4770
 1.0490	38.4750
 1.0500	38.4740
 1.0510	38.4620
 1.0520	38.4490
 1.0530	38.4520
 1.0540	38.4640
 1.0550	38.4700
 1.0560	38.4910
 1.0570	38.4880
 1.0580	38.4660
 1.0590	38.4540
 1.0600	38.4350
 1.0610	38.4270
 1.0620	38.4180
 1.0630	38.4240
 1.0640	38.4450
 1.0650	38.4570
 1.0660	38.4850
 1.0670	38.4970
 1.0680	38.5020
 1.0690	38.4960
 1.0700	38.4860
 1.0710	38.4650
 1.0720	38.4510
 1.0730	38.4220
 1.0740	38.4230
 1.0750	38.4480
 1.0760	38.4550
 1.0770	38.4690
 1.0780	38.4800
 1.0790	38.4830
 1.0800	38.4840
 1.0810	38.4930
 1.0820	38.4950
 1.0830	38.4860
 1.0840	38.4800
 1.0850	38.4690
 1.0860	38.4660
 1.0870	38.4730
 1.0880	38.4860
 1.0890	38.4930
 1.0900	38.5150
 1.0910	38.5120
 1.0920	38.4870
 1.0930	38.4760
 1.0940	38.4620
 1.0950	38.4500
 1.0960	38.4400
 1.0970	38.4340
 1.0980	38.4310
 1.0990	38.4240
 1.1000	38.4240
 1.1010	38.4180
 1.1020	38.4010
 1.1030	38.3860
 1.1040	38.3900
 1.1050	38.3980
 1.1060	38.4030
 1.1070	38.4250
 1.1080	38.4210
 1.1090	38.4020
 1.1100	38.3830
 1.1110	38.3490
 1.1120	38.3340
 1.1130	38.3200
 1.1140	38.3160
 1.1150	38.3330
 1.1160	38.3340
 1.1170	38.3300
 1.1180	38.3290
 1.1190	38.3230
 1.1200	38.3180
 1.1210	38.3100
 1.1220	38.3090
 1.1230	38.3030
 1.1240	38.2920
 1.1250	38.2750
 1.1260	38.2550
 1.1270	38.2290
 1.1280	38.1900
 1.1290	38.1600
 1.1300	38.1270
 1.1310	38.1060
 1.1320	38.0960
 1.1330	38.0810
 1.1340	38.0800
 1.1350	38.0610
 1.1360	38.0320
 1.1370	38.0000
 1.1380	37.9620
 1.1390	37.9130
 1.1400	37.8650
 1.1410	37.8170
 1.1420	37.7630
 1.1430	37.7120
 1.1440	37.6760
 1.1450	37.6500
 1.1460	37.6160
 1.1470	37.5930
 1.1480	37.5590
 1.1490	37.5090
 1.1500	37.4690
 1.1510	37.4280
 1.1520	37.3930
 1.1530	37.3670
 1.1540	37.3370
 1.1550	37.3060
 1.1560	37.2810
 1.1570	37.2590
 1.1580	37.2250
 1.1590	37.2080
 1.1600	37.1950
 1.1610	37.1720
 1.1620	37.1650
 1.1630	37.1640
 1.1640	37.1630
 1.1650	37.1580
 1.1660	37.1610
 1.1670	37.1520
 1.1680	37.1300
 1.1690	37.1100
 1.1700	37.0850
 1.1710	37.0660
 1.1720	37.0470
 1.1730	37.0360
 1.1740	37.0310
 1.1750	37.0310
 1.1760	37.0310
 1.1770	37.0220
 1.1780	37.0030
 1.1790	36.9800
 1.1800	36.9620
 1.1810	36.9540
 1.1820	36.9570
 1.1830	36.9580
 1.1840	36.9610
 1.1850	36.9520
 1.1860	36.9350
 1.1870	36.9270
 1.1880	36.9120
 1.1890	36.8870
 1.1900	36.8750
 1.1910	36.8580
 1.1920	36.8540
 1.1930	36.8760
 1.1940	36.8730
 1.1950	36.8660
 1.1960	36.8570
 1.1970	36.8300
 1.1980	36.8100
 1.1990	36.8040
 1.2000	36.8180
 1.2010	36.8390
 1.2020	36.8480
 1.2030	36.8520
 1.2040	36.8440
 1.2050	36.8370
 1.2060	36.8350
 1.2070	36.8290
 1.2080	36.8310
 1.2090	36.8300
 1.2100	36.8260
 1.2110	36.8250
 1.2120	36.8260
 1.2130	36.8310
 1.2140	36.8400
 1.2150	36.8440
 1.2160	36.8460
 1.2170	36.8470
 1.2180	36.8540
 1.2190	36.8660
 1.2200	36.8770
 1.2210	36.8830
 1.2220	36.8840
 1.2230	36.8800
 1.2240	36.8880
 1.2250	36.8960
 1.2260	36.8880
 1.2270	36.8840
 1.2280	36.8810
 1.2290	36.8810
 1.2300	36.8940
 1.2310	36.9160
 1.2320	36.9400
 1.2330	36.9520
 1.2340	36.9590
 1.2350	36.9580
 1.2360	36.9600
 1.2370	36.9530
 1.2380	36.9570
 1.2390	36.9600
 1.2400	36.9690
 1.2410	36.9810
 1.2420	36.9860
 1.2430	37.0000
 1.2440	37.0080
 1.2450	37.0020
 1.2460	37.0110
 1.2470	37.0160
 1.2480	37.0160
 1.2490	37.0250
 1.2500	37.0230
 1.2510	37.0180
 1.2520	37.0170
 1.2530	37.0120
 1.2540	37.0070
 1.2550	37.0130
 1.2560	37.0170
 1.2570	37.0210
 1.2580	37.0240
 1.2590	37.0250
 1.2600	37.0230
 1.2610	37.0230
 1.2620	37.0240
 1.2630	37.0230
 1.2640	37.0240
 1.2650	37.0150
 1.2660	37.0040
 1.2670	36.9920
 1.2680	36.9760
 1.2690	36.9650
 1.2700	36.9650
 1.2710	36.9670
 1.2720	36.9700
 1.2730	36.9710
 1.2740	36.9600
 1.2750	36.9450
 1.2760	36.9310
 1.2770	36.9310
 1.2780	36.9300
 1.2790	36.9240
 1.2800	36.9300
 1.2810	36.9180
 1.2820	36.8950
 1.2830	36.8890
 1.2840	36.8880
 1.2850	36.8860
 1.2860	36.8880
 1.2870	36.8880
 1.2880	36.8890
 1.2890	36.8790
 1.2900	36.8670
 1.2910	36.8610
 1.2920	36.8580
 1.2930	36.8450
 1.2940	36.8270
 1.2950	36.8130
 1.2960	36.7990
 1.2970	36.7780
 1.2980	36.7660
 1.2990	36.7620
 1.3000	36.7400
 1.3010	36.7200
 1.3020	36.7060
 1.3030	36.6810
 1.3040	36.6580
 1.3050	36.6320
 1.3060	36.6150
 1.3070	36.6060
 1.3080	36.5980
 1.3090	36.5950
 1.3100	36.5750
 1.3110	36.5420
 1.3120	36.4980
 1.3130	36.4520
 1.3140	36.4190
 1.3150	36.3960
 1.3160	36.3690
 1.3170	36.3510
 1.3180	36.3300
 1.3190	36.2980
 1.3200	36.2480
 1.3210	36.2050
 1.3220	36.1660
 1.3230	36.1330
 1.3240	36.1050
 1.3250	36.0760
 1.3260	36.0440
 1.3270	35.9980
 1.3280	35.9510
 1.3290	35.9030
 1.3300	35.8530
 1.3310	35.8020
 1.3320	35.7530
 1.3330	35.7140
 1.3340	35.6750
 1.3350	35.6350
 1.3360	35.5950
 1.3370	35.5520
 1.3380	35.5140
 1.3390	35.4760
 1.3400	35.4310
 1.3410	35.3780
 1.3420	35.3250
 1.3430	35.2730
 1.3440	35.2220
 1.3450	35.1740
 1.3460	35.1340
 1.3470	35.0870
 1.3480	35.0390
 1.3490	34.9910
 1.3500	34.9420
 1.3510	34.8870
 1.3520	34.8390
 1.3530	34.7880
 1.3540	34.7380
 1.3550	34.7000
 1.3560	34.6550
 1.3570	34.6140
 1.3580	34.5780
 1.3590	34.5300
 1.3600	34.4790
 1.3610	34.4230
 1.3620	34.3680
 1.3630	34.3070
 1.3640	34.2420
 1.3650	34.1820
 1.3660	34.1210
 1.3670	34.0590
 1.3680	34.0000
 1.3690	33.9280
 1.3700	33.8490
 1.3710	33.7670
 1.3720	33.6750
 1.3730	33.5860
 1.3740	33.4820
 1.3750	33.3640
 1.3760	33.2460
 1.3770	33.1150
 1.3780	32.9700
 1.3790	32.8200
 1.3800	32.6560
 1.3810	32.4770
 1.3820	32.2860
 1.3830	32.0840
 1.3840	31.8710
 1.3850	31.6450
 1.3860	31.4090
 1.3870	31.1640
 1.3880	30.9050
 1.3890	30.6330
 1.3900	30.3520
 1.3910	30.0630
 1.3920	29.7640
 1.3930	29.4590
 1.3940	29.1490
 1.3950	28.8320
 1.3960	28.5140
 1.3970	28.1940
 1.3980	27.8720
 1.3990	27.5590
 1.4000	27.2480
 1.4010	26.9430
 1.4020	26.6440
 1.4030	26.3440
 1.4040	26.0540
 1.4050	25.7740
 1.4060	25.4970
 1.4070	25.2390
 1.4080	24.9870
 1.4090	24.7440
 1.4100	24.5200
 1.4110	24.2990
 1.4120	24.0930
 1.4130	23.9030
 1.4140	23.7170
 1.4150	23.5470
 1.4160	23.3860
 1.4170	23.2290
 1.4180	23.0850
 1.4190	22.9520
 1.4200	22.8260
 1.4210	22.7090
 1.4220	22.6010
 1.4230	22.4990
 1.4240	22.4020
 1.4250	22.3150
 1.4260	22.2350
 1.4270	22.1630
 1.4280	22.1020
 1.4290	22.0420
 1.4300	21.9890
 1.4310	21.9380
 1.4320	21.8870
 1.4330	21.8460
 1.4340	21.8140
 1.4350	21.7830
 1.4360	21.7550
 1.4370	21.7360
 1.4380	21.7150
 1.4390	21.6990
 1.4400	21.6880
 1.4410	21.6800
 1.4420	21.6730
 1.4430	21.6660
 1.4440	21.6610
 1.4450	21.6550
 1.4460	21.6510
 1.4470	21.6500
 1.4480	21.6550
 1.4490	21.6650
 1.4500	21.6740
 1.4510	21.6830
 1.4520	21.6910
 1.4530	21.7020
 1.4540	21.7150
 1.4550	21.7340
 1.4560	21.7590
 1.4570	21.7840
 1.4580	21.8110
 1.4590	21.8350
 1.4600	21.8610
 1.4610	21.8910
 1.4620	21.9180
 1.4630	21.9560
 1.4640	21.9960
 1.4650	22.0360
 1.4660	22.0870
 1.4670	22.1380
 1.4680	22.1960
 1.4690	22.2600
 1.4700	22.3210
 1.4710	22.3870
 1.4720	22.4560
 1.4730	22.5220
 1.4740	22.5930
 1.4750	22.6710
 1.4760	22.7470
 1.4770	22.8270
 1.4780	22.9080
 1.4790	22.9930
 1.4800	23.0810
 1.4810	23.1700
