Name: Arctostaphylos glandulosa 1
Type: vegetation
Class: Shrub
Genus: Arctostaphylos
Species: glandulosa
Sample No.: VH118
Owner: UCSB
Wavelength Range: VSWIR
Origin: 34.5084; -119.7682; WGS84
Collection Date: 6/3/2013
Description: Samples were collected as part of the HyspIRI Airborne Campaign. 48 individual plants were sampled in three times in 2013 - spring  summer  and fall. The name of the sample includes a 1  2  or 3 which references a different individual of the species. Samples were taken to JPL and processed within 48 hours of collection. The same leaves were processed in the Nicolet and then measured using the ASD.
Measurement: Bidirectional reflectance
First Column: X
Second Column: Y
X Units: Wavelength (micrometers)
Y Units: Reflectance (percentage)
First X Value: 0.35
Last X Value: 2.5
Number of X Values: 2151
Additional Information: vegetation.shrub.arctostaphylos.glandulosa.vswir.vh118.ucsb.asd.ancillary.txt

 0.3500	 8.0750
 0.3510	 8.1640
 0.3520	 8.1460
 0.3530	 8.0800
 0.3540	 8.0970
 0.3550	 8.2870
 0.3560	 8.2430
 0.3570	 8.1200
 0.3580	 8.2710
 0.3590	 8.0690
 0.3600	 7.9220
 0.3610	 8.0280
 0.3620	 8.1520
 0.3630	 8.2220
 0.3640	 8.2060
 0.3650	 8.1300
 0.3660	 8.1450
 0.3670	 8.1550
 0.3680	 8.1420
 0.3690	 8.1530
 0.3700	 8.2580
 0.3710	 8.3330
 0.3720	 8.3070
 0.3730	 8.2430
 0.3740	 8.2860
 0.3750	 8.3610
 0.3760	 8.3450
 0.3770	 8.2500
 0.3780	 8.2910
 0.3790	 8.4180
 0.3800	 8.3790
 0.3810	 8.4750
 0.3820	 8.5630
 0.3830	 8.5470
 0.3840	 8.6110
 0.3850	 8.5900
 0.3860	 8.5670
 0.3870	 8.6710
 0.3880	 8.7090
 0.3890	 8.7470
 0.3900	 8.7900
 0.3910	 8.7720
 0.3920	 8.7300
 0.3930	 8.7220
 0.3940	 8.7710
 0.3950	 8.8220
 0.3960	 8.8240
 0.3970	 8.8310
 0.3980	 8.9200
 0.3990	 8.9620
 0.4000	 8.9950
 0.4010	 9.0240
 0.4020	 8.9920
 0.4030	 9.0110
 0.4040	 9.0410
 0.4050	 9.0340
 0.4060	 9.0570
 0.4070	 9.1000
 0.4080	 9.1420
 0.4090	 9.1600
 0.4100	 9.1970
 0.4110	 9.2320
 0.4120	 9.2580
 0.4130	 9.3070
 0.4140	 9.3280
 0.4150	 9.3340
 0.4160	 9.3570
 0.4170	 9.4200
 0.4180	 9.4810
 0.4190	 9.5240
 0.4200	 9.5610
 0.4210	 9.6000
 0.4220	 9.6510
 0.4230	 9.7160
 0.4240	 9.7640
 0.4250	 9.7910
 0.4260	 9.8190
 0.4270	 9.8740
 0.4280	 9.9010
 0.4290	 9.9460
 0.4300	10.0160
 0.4310	10.0610
 0.4320	10.1050
 0.4330	10.1400
 0.4340	10.1600
 0.4350	10.1970
 0.4360	10.2330
 0.4370	10.2660
 0.4380	10.3080
 0.4390	10.3520
 0.4400	10.3910
 0.4410	10.4240
 0.4420	10.4600
 0.4430	10.4950
 0.4440	10.5330
 0.4450	10.5780
 0.4460	10.5960
 0.4470	10.6220
 0.4480	10.6620
 0.4490	10.6860
 0.4500	10.7120
 0.4510	10.7460
 0.4520	10.7850
 0.4530	10.8040
 0.4540	10.8280
 0.4550	10.8530
 0.4560	10.8600
 0.4570	10.8880
 0.4580	10.9130
 0.4590	10.9210
 0.4600	10.9420
 0.4610	10.9590
 0.4620	10.9680
 0.4630	10.9690
 0.4640	10.9860
 0.4650	11.0060
 0.4660	11.0150
 0.4670	11.0020
 0.4680	11.0090
 0.4690	11.0280
 0.4700	11.0420
 0.4710	11.0400
 0.4720	11.0430
 0.4730	11.0550
 0.4740	11.0710
 0.4750	11.0820
 0.4760	11.0860
 0.4770	11.0900
 0.4780	11.1040
 0.4790	11.1150
 0.4800	11.1270
 0.4810	11.1420
 0.4820	11.1390
 0.4830	11.1470
 0.4840	11.1700
 0.4850	11.1900
 0.4860	11.2040
 0.4870	11.2210
 0.4880	11.2430
 0.4890	11.2550
 0.4900	11.2860
 0.4910	11.3220
 0.4920	11.3370
 0.4930	11.3700
 0.4940	11.4080
 0.4950	11.4470
 0.4960	11.4990
 0.4970	11.5400
 0.4980	11.5820
 0.4990	11.6390
 0.5000	11.7040
 0.5010	11.7700
 0.5020	11.8360
 0.5030	11.9130
 0.5040	12.0030
 0.5050	12.1050
 0.5060	12.2170
 0.5070	12.3350
 0.5080	12.4590
 0.5090	12.5900
 0.5100	12.7310
 0.5110	12.8860
 0.5120	13.0510
 0.5130	13.2260
 0.5140	13.4170
 0.5150	13.6220
 0.5160	13.8370
 0.5170	14.0610
 0.5180	14.2980
 0.5190	14.5390
 0.5200	14.7780
 0.5210	15.0180
 0.5220	15.2640
 0.5230	15.5100
 0.5240	15.7490
 0.5250	15.9830
 0.5260	16.2110
 0.5270	16.4300
 0.5280	16.6370
 0.5290	16.8340
 0.5300	17.0190
 0.5310	17.1930
 0.5320	17.3530
 0.5330	17.5070
 0.5340	17.6540
 0.5350	17.7900
 0.5360	17.9110
 0.5370	18.0270
 0.5380	18.1390
 0.5390	18.2400
 0.5400	18.3420
 0.5410	18.4410
 0.5420	18.5340
 0.5430	18.6260
 0.5440	18.7140
 0.5450	18.8000
 0.5460	18.8830
 0.5470	18.9530
 0.5480	19.0220
 0.5490	19.0910
 0.5500	19.1470
 0.5510	19.2030
 0.5520	19.2520
 0.5530	19.2880
 0.5540	19.3120
 0.5550	19.3280
 0.5560	19.3330
 0.5570	19.3190
 0.5580	19.2950
 0.5590	19.2620
 0.5600	19.2190
 0.5610	19.1590
 0.5620	19.0920
 0.5630	19.0160
 0.5640	18.9300
 0.5650	18.8370
 0.5660	18.7400
 0.5670	18.6400
 0.5680	18.5320
 0.5690	18.4120
 0.5700	18.2880
 0.5710	18.1650
 0.5720	18.0420
 0.5730	17.9220
 0.5740	17.8010
 0.5750	17.6750
 0.5760	17.5630
 0.5770	17.4660
 0.5780	17.3770
 0.5790	17.2940
 0.5800	17.2120
 0.5810	17.1340
 0.5820	17.0640
 0.5830	16.9990
 0.5840	16.9430
 0.5850	16.8920
 0.5860	16.8390
 0.5870	16.7910
 0.5880	16.7450
 0.5890	16.6980
 0.5900	16.6500
 0.5910	16.6090
 0.5920	16.5740
 0.5930	16.5410
 0.5940	16.5150
 0.5950	16.4910
 0.5960	16.4690
 0.5970	16.4520
 0.5980	16.4390
 0.5990	16.4260
 0.6000	16.4080
 0.6010	16.3870
 0.6020	16.3530
 0.6030	16.3070
 0.6040	16.2590
 0.6050	16.1990
 0.6060	16.1320
 0.6070	16.0630
 0.6080	15.9840
 0.6090	15.9050
 0.6100	15.8240
 0.6110	15.7380
 0.6120	15.6480
 0.6130	15.5520
 0.6140	15.4550
 0.6150	15.3680
 0.6160	15.2810
 0.6170	15.1980
 0.6180	15.1230
 0.6190	15.0600
 0.6200	15.0000
 0.6210	14.9430
 0.6220	14.8960
 0.6230	14.8560
 0.6240	14.8200
 0.6250	14.7870
 0.6260	14.7680
 0.6270	14.7510
 0.6280	14.7330
 0.6290	14.7180
 0.6300	14.7080
 0.6310	14.6910
 0.6320	14.6660
 0.6330	14.6400
 0.6340	14.6040
 0.6350	14.5540
 0.6360	14.4910
 0.6370	14.4240
 0.6380	14.3430
 0.6390	14.2480
 0.6400	14.1490
 0.6410	14.0400
 0.6420	13.9240
 0.6430	13.8060
 0.6440	13.6860
 0.6450	13.5680
 0.6460	13.4540
 0.6470	13.3470
 0.6480	13.2520
 0.6490	13.1640
 0.6500	13.0850
 0.6510	13.0220
 0.6520	12.9630
 0.6530	12.9080
 0.6540	12.8560
 0.6550	12.7960
 0.6560	12.7300
 0.6570	12.6590
 0.6580	12.5830
 0.6590	12.4980
 0.6600	12.4080
 0.6610	12.3160
 0.6620	12.2210
 0.6630	12.1340
 0.6640	12.0520
 0.6650	11.9720
 0.6660	11.9050
 0.6670	11.8450
 0.6680	11.7920
 0.6690	11.7510
 0.6700	11.7110
 0.6710	11.6840
 0.6720	11.6690
 0.6730	11.6530
 0.6740	11.6460
 0.6750	11.6450
 0.6760	11.6470
 0.6770	11.6600
 0.6780	11.6760
 0.6790	11.6970
 0.6800	11.7290
 0.6810	11.7770
 0.6820	11.8440
 0.6830	11.9300
 0.6840	12.0370
 0.6850	12.1750
 0.6860	12.3520
 0.6870	12.5730
 0.6880	12.8530
 0.6890	13.1900
 0.6900	13.5900
 0.6910	14.0660
 0.6920	14.6180
 0.6930	15.2460
 0.6940	15.9490
 0.6950	16.7170
 0.6960	17.5500
 0.6970	18.4440
 0.6980	19.3880
 0.6990	20.3700
 0.7000	21.3850
 0.7010	22.4240
 0.7020	23.4770
 0.7030	24.5320
 0.7040	25.5790
 0.7050	26.6140
 0.7060	27.6330
 0.7070	28.6310
 0.7080	29.6060
 0.7090	30.5590
 0.7100	31.4880
 0.7110	32.3950
 0.7120	33.2790
 0.7130	34.1370
 0.7140	34.9670
 0.7150	35.7760
 0.7160	36.5620
 0.7170	37.3150
 0.7180	38.0460
 0.7190	38.7540
 0.7200	39.4310
 0.7210	40.0810
 0.7220	40.7080
 0.7230	41.3080
 0.7240	41.8710
 0.7250	42.4100
 0.7260	42.9230
 0.7270	43.4060
 0.7280	43.8610
 0.7290	44.2870
 0.7300	44.6870
 0.7310	45.0650
 0.7320	45.4190
 0.7330	45.7490
 0.7340	46.0550
 0.7350	46.3410
 0.7360	46.6090
 0.7370	46.8600
 0.7380	47.0930
 0.7390	47.3130
 0.7400	47.5220
 0.7410	47.7160
 0.7420	47.8920
 0.7430	48.0550
 0.7440	48.2110
 0.7450	48.3560
 0.7460	48.4880
 0.7470	48.6070
 0.7480	48.7180
 0.7490	48.8220
 0.7500	48.9220
 0.7510	49.0120
 0.7520	49.0920
 0.7530	49.1650
 0.7540	49.2330
 0.7550	49.2970
 0.7560	49.3560
 0.7570	49.4120
 0.7580	49.4640
 0.7590	49.5130
 0.7600	49.5610
 0.7610	49.6010
 0.7620	49.6360
 0.7630	49.6690
 0.7640	49.7020
 0.7650	49.7370
 0.7660	49.7720
 0.7670	49.8020
 0.7680	49.8270
 0.7690	49.8490
 0.7700	49.8720
 0.7710	49.8980
 0.7720	49.9210
 0.7730	49.9440
 0.7740	49.9660
 0.7750	49.9850
 0.7760	50.0050
 0.7770	50.0250
 0.7780	50.0450
 0.7790	50.0640
 0.7800	50.0810
 0.7810	50.0990
 0.7820	50.1180
 0.7830	50.1390
 0.7840	50.1540
 0.7850	50.1680
 0.7860	50.1830
 0.7870	50.1980
 0.7880	50.2130
 0.7890	50.2290
 0.7900	50.2420
 0.7910	50.2540
 0.7920	50.2680
 0.7930	50.2840
 0.7940	50.2960
 0.7950	50.3030
 0.7960	50.3100
 0.7970	50.3190
 0.7980	50.3280
 0.7990	50.3350
 0.8000	50.3430
 0.8010	50.3500
 0.8020	50.3480
 0.8030	50.3510
 0.8040	50.3580
 0.8050	50.3610
 0.8060	50.3620
 0.8070	50.3600
 0.8080	50.3570
 0.8090	50.3590
 0.8100	50.3550
 0.8110	50.3520
 0.8120	50.3510
 0.8130	50.3460
 0.8140	50.3360
 0.8150	50.3280
 0.8160	50.3260
 0.8170	50.3210
 0.8180	50.3160
 0.8190	50.3120
 0.8200	50.3060
 0.8210	50.3010
 0.8220	50.2910
 0.8230	50.2750
 0.8240	50.2640
 0.8250	50.2580
 0.8260	50.2440
 0.8270	50.2240
 0.8280	50.2140
 0.8290	50.2040
 0.8300	50.1880
 0.8310	50.1670
 0.8320	50.1520
 0.8330	50.1400
 0.8340	50.1290
 0.8350	50.1200
 0.8360	50.1100
 0.8370	50.1020
 0.8380	50.0930
 0.8390	50.0780
 0.8400	50.0750
 0.8410	50.0770
 0.8420	50.0770
 0.8430	50.0680
 0.8440	50.0660
 0.8450	50.0670
 0.8460	50.0650
 0.8470	50.0590
 0.8480	50.0510
 0.8490	50.0450
 0.8500	50.0450
 0.8510	50.0460
 0.8520	50.0480
 0.8530	50.0480
 0.8540	50.0450
 0.8550	50.0420
 0.8560	50.0430
 0.8570	50.0460
 0.8580	50.0440
 0.8590	50.0430
 0.8600	50.0460
 0.8610	50.0520
 0.8620	50.0470
 0.8630	50.0470
 0.8640	50.0520
 0.8650	50.0540
 0.8660	50.0530
 0.8670	50.0560
 0.8680	50.0630
 0.8690	50.0710
 0.8700	50.0670
 0.8710	50.0680
 0.8720	50.0740
 0.8730	50.0790
 0.8740	50.0890
 0.8750	50.0950
 0.8760	50.0940
 0.8770	50.0950
 0.8780	50.1020
 0.8790	50.1110
 0.8800	50.1190
 0.8810	50.1170
 0.8820	50.1190
 0.8830	50.1240
 0.8840	50.1280
 0.8850	50.1370
 0.8860	50.1390
 0.8870	50.1370
 0.8880	50.1340
 0.8890	50.1360
 0.8900	50.1420
 0.8910	50.1470
 0.8920	50.1480
 0.8930	50.1470
 0.8940	50.1520
 0.8950	50.1580
 0.8960	50.1570
 0.8970	50.1620
 0.8980	50.1680
 0.8990	50.1730
 0.9000	50.1740
 0.9010	50.1690
 0.9020	50.1660
 0.9030	50.1670
 0.9040	50.1720
 0.9050	50.1790
 0.9060	50.1780
 0.9070	50.1680
 0.9080	50.1750
 0.9090	50.1810
 0.9100	50.1800
 0.9110	50.1730
 0.9120	50.1740
 0.9130	50.1730
 0.9140	50.1710
 0.9150	50.1710
 0.9160	50.1570
 0.9170	50.1500
 0.9180	50.1480
 0.9190	50.1420
 0.9200	50.1230
 0.9210	50.1070
 0.9220	50.0950
 0.9230	50.0810
 0.9240	50.0720
 0.9250	50.0530
 0.9260	50.0270
 0.9270	50.0100
 0.9280	49.9860
 0.9290	49.9560
 0.9300	49.9240
 0.9310	49.8890
 0.9320	49.8620
 0.9330	49.8270
 0.9340	49.7840
 0.9350	49.7520
 0.9360	49.7180
 0.9370	49.6760
 0.9380	49.6280
 0.9390	49.5890
 0.9400	49.5450
 0.9410	49.5000
 0.9420	49.4510
 0.9430	49.3890
 0.9440	49.3280
 0.9450	49.2650
 0.9460	49.1960
 0.9470	49.1160
 0.9480	49.0350
 0.9490	48.9480
 0.9500	48.8520
 0.9510	48.7470
 0.9520	48.6390
 0.9530	48.5360
 0.9540	48.4370
 0.9550	48.3230
 0.9560	48.2200
 0.9570	48.1190
 0.9580	48.0110
 0.9590	47.9200
 0.9600	47.8490
 0.9610	47.7880
 0.9620	47.7220
 0.9630	47.6630
 0.9640	47.6140
 0.9650	47.5720
 0.9660	47.5350
 0.9670	47.5100
 0.9680	47.4770
 0.9690	47.4540
 0.9700	47.4570
 0.9710	47.4230
 0.9720	47.4060
 0.9730	47.4090
 0.9740	47.4070
 0.9750	47.3900
 0.9760	47.3870
 0.9770	47.3990
 0.9780	47.4080
 0.9790	47.4080
 0.9800	47.4080
 0.9810	47.4170
 0.9820	47.4330
 0.9830	47.4370
 0.9840	47.4590
 0.9850	47.4930
 0.9860	47.5180
 0.9870	47.5570
 0.9880	47.5760
 0.9890	47.5850
 0.9900	47.6080
 0.9910	47.6420
 0.9920	47.7140
 0.9930	47.7850
 0.9940	47.8570
 0.9950	47.9280
 0.9960	48.0000
 0.9970	48.0710
 0.9980	48.1430
 0.9990	48.2140
 1.0000	48.2860
 1.0010	48.3570
 1.0020	48.4280
 1.0030	48.5000
 1.0040	48.5710
 1.0050	48.6430
 1.0060	48.7140
 1.0070	48.7860
 1.0080	48.8570
 1.0090	48.9290
 1.0100	48.9290
 1.0110	48.9650
 1.0120	49.0030
 1.0130	49.0430
 1.0140	49.0810
 1.0150	49.1200
 1.0160	49.1580
 1.0170	49.1920
 1.0180	49.2250
 1.0190	49.2610
 1.0200	49.2910
 1.0210	49.3210
 1.0220	49.3530
 1.0230	49.3840
 1.0240	49.4120
 1.0250	49.4440
 1.0260	49.4800
 1.0270	49.5120
 1.0280	49.5450
 1.0290	49.5760
 1.0300	49.6000
 1.0310	49.6290
 1.0320	49.6600
 1.0330	49.6880
 1.0340	49.7200
 1.0350	49.7480
 1.0360	49.7720
 1.0370	49.7980
 1.0380	49.8240
 1.0390	49.8500
 1.0400	49.8750
 1.0410	49.8990
 1.0420	49.9240
 1.0430	49.9500
 1.0440	49.9740
 1.0450	49.9980
 1.0460	50.0200
 1.0470	50.0400
 1.0480	50.0590
 1.0490	50.0780
 1.0500	50.0960
 1.0510	50.1130
 1.0520	50.1280
 1.0530	50.1450
 1.0540	50.1650
 1.0550	50.1800
 1.0560	50.1970
 1.0570	50.2080
 1.0580	50.2120
 1.0590	50.2210
 1.0600	50.2280
 1.0610	50.2370
 1.0620	50.2480
 1.0630	50.2560
 1.0640	50.2610
 1.0650	50.2670
 1.0660	50.2720
 1.0670	50.2760
 1.0680	50.2800
 1.0690	50.2820
 1.0700	50.2850
 1.0710	50.2870
 1.0720	50.2870
 1.0730	50.2870
 1.0740	50.2850
 1.0750	50.2780
 1.0760	50.2760
 1.0770	50.2770
 1.0780	50.2720
 1.0790	50.2690
 1.0800	50.2610
 1.0810	50.2450
 1.0820	50.2340
 1.0830	50.2260
 1.0840	50.2170
 1.0850	50.2120
 1.0860	50.2040
 1.0870	50.1930
 1.0880	50.1800
 1.0890	50.1650
 1.0900	50.1470
 1.0910	50.1310
 1.0920	50.1140
 1.0930	50.0980
 1.0940	50.0860
 1.0950	50.0680
 1.0960	50.0470
 1.0970	50.0270
 1.0980	50.0030
 1.0990	49.9820
 1.1000	49.9630
 1.1010	49.9430
 1.1020	49.9220
 1.1030	49.8990
 1.1040	49.8740
 1.1050	49.8480
 1.1060	49.8230
 1.1070	49.7980
 1.1080	49.7720
 1.1090	49.7480
 1.1100	49.7200
 1.1110	49.6910
 1.1120	49.6580
 1.1130	49.6210
 1.1140	49.5840
 1.1150	49.5460
 1.1160	49.5050
 1.1170	49.4650
 1.1180	49.4190
 1.1190	49.3670
 1.1200	49.3120
 1.1210	49.2550
 1.1220	49.1910
 1.1230	49.1240
 1.1240	49.0520
 1.1250	48.9740
 1.1260	48.8930
 1.1270	48.7980
 1.1280	48.6960
 1.1290	48.5830
 1.1300	48.4590
 1.1310	48.3270
 1.1320	48.1900
 1.1330	48.0390
 1.1340	47.8750
 1.1350	47.7050
 1.1360	47.5250
 1.1370	47.3360
 1.1380	47.1390
 1.1390	46.9360
 1.1400	46.7240
 1.1410	46.5050
 1.1420	46.2840
 1.1430	46.0590
 1.1440	45.8370
 1.1450	45.6090
 1.1460	45.3940
 1.1470	45.1790
 1.1480	44.9770
 1.1490	44.7810
 1.1500	44.5980
 1.1510	44.4230
 1.1520	44.2630
 1.1530	44.1130
 1.1540	43.9780
 1.1550	43.8570
 1.1560	43.7480
 1.1570	43.6540
 1.1580	43.5700
 1.1590	43.4960
 1.1600	43.4320
 1.1610	43.3760
 1.1620	43.3270
 1.1630	43.2870
 1.1640	43.2550
 1.1650	43.2260
 1.1660	43.2040
 1.1670	43.1830
 1.1680	43.1660
 1.1690	43.1500
 1.1700	43.1380
 1.1710	43.1260
 1.1720	43.1180
 1.1730	43.1070
 1.1740	43.0970
 1.1750	43.0860
 1.1760	43.0700
 1.1770	43.0540
 1.1780	43.0360
 1.1790	43.0190
 1.1800	43.0020
 1.1810	42.9830
 1.1820	42.9650
 1.1830	42.9450
 1.1840	42.9260
 1.1850	42.9070
 1.1860	42.8860
 1.1870	42.8660
 1.1880	42.8490
 1.1890	42.8340
 1.1900	42.8190
 1.1910	42.8080
 1.1920	42.7970
 1.1930	42.7820
 1.1940	42.7720
 1.1950	42.7630
 1.1960	42.7580
 1.1970	42.7540
 1.1980	42.7550
 1.1990	42.7580
 1.2000	42.7630
 1.2010	42.7710
 1.2020	42.7800
 1.2030	42.7910
 1.2040	42.8060
 1.2050	42.8250
 1.2060	42.8450
 1.2070	42.8660
 1.2080	42.8910
 1.2090	42.9160
 1.2100	42.9450
 1.2110	42.9770
 1.2120	43.0110
 1.2130	43.0470
 1.2140	43.0860
 1.2150	43.1250
 1.2160	43.1660
 1.2170	43.2080
 1.2180	43.2520
 1.2190	43.2960
 1.2200	43.3400
 1.2210	43.3870
 1.2220	43.4340
 1.2230	43.4790
 1.2240	43.5270
 1.2250	43.5730
 1.2260	43.6170
 1.2270	43.6600
 1.2280	43.7000
 1.2290	43.7390
 1.2300	43.7770
 1.2310	43.8130
 1.2320	43.8510
 1.2330	43.8850
 1.2340	43.9180
 1.2350	43.9500
 1.2360	43.9810
 1.2370	44.0100
 1.2380	44.0400
 1.2390	44.0700
 1.2400	44.0970
 1.2410	44.1230
 1.2420	44.1500
 1.2430	44.1740
 1.2440	44.1970
 1.2450	44.2190
 1.2460	44.2380
 1.2470	44.2600
 1.2480	44.2830
 1.2490	44.3050
 1.2500	44.3260
 1.2510	44.3410
 1.2520	44.3540
 1.2530	44.3680
 1.2540	44.3820
 1.2550	44.3960
 1.2560	44.4050
 1.2570	44.4110
 1.2580	44.4160
 1.2590	44.4220
 1.2600	44.4300
 1.2610	44.4350
 1.2620	44.4390
 1.2630	44.4400
 1.2640	44.4390
 1.2650	44.4350
 1.2660	44.4300
 1.2670	44.4260
 1.2680	44.4210
 1.2690	44.4140
 1.2700	44.4070
 1.2710	44.3980
 1.2720	44.3850
 1.2730	44.3700
 1.2740	44.3560
 1.2750	44.3380
 1.2760	44.3200
 1.2770	44.3020
 1.2780	44.2780
 1.2790	44.2510
 1.2800	44.2250
 1.2810	44.1960
 1.2820	44.1670
 1.2830	44.1360
 1.2840	44.1030
 1.2850	44.0670
 1.2860	44.0300
 1.2870	43.9880
 1.2880	43.9430
 1.2890	43.8930
 1.2900	43.8420
 1.2910	43.7890
 1.2920	43.7330
 1.2930	43.6730
 1.2940	43.6090
 1.2950	43.5410
 1.2960	43.4720
 1.2970	43.4010
 1.2980	43.3260
 1.2990	43.2460
 1.3000	43.1650
 1.3010	43.0770
 1.3020	42.9860
 1.3030	42.8930
 1.3040	42.7930
 1.3050	42.6880
 1.3060	42.5830
 1.3070	42.4730
 1.3080	42.3600
 1.3090	42.2440
 1.3100	42.1240
 1.3110	41.9980
 1.3120	41.8650
 1.3130	41.7280
 1.3140	41.5890
 1.3150	41.4450
 1.3160	41.2980
 1.3170	41.1510
 1.3180	41.0000
 1.3190	40.8420
 1.3200	40.6820
 1.3210	40.5170
 1.3220	40.3470
 1.3230	40.1760
 1.3240	39.9990
 1.3250	39.8220
 1.3260	39.6430
 1.3270	39.4590
 1.3280	39.2770
 1.3290	39.0910
 1.3300	38.9040
 1.3310	38.7160
 1.3320	38.5240
 1.3330	38.3330
 1.3340	38.1410
 1.3350	37.9480
 1.3360	37.7580
 1.3370	37.5650
 1.3380	37.3730
 1.3390	37.1840
 1.3400	36.9950
 1.3410	36.8110
 1.3420	36.6290
 1.3430	36.4500
 1.3440	36.2730
 1.3450	36.0960
 1.3460	35.9190
 1.3470	35.7470
 1.3480	35.5760
 1.3490	35.4090
 1.3500	35.2460
 1.3510	35.0840
 1.3520	34.9200
 1.3530	34.7570
 1.3540	34.5940
 1.3550	34.4320
 1.3560	34.2690
 1.3570	34.1060
 1.3580	33.9420
 1.3590	33.7750
 1.3600	33.6040
 1.3610	33.4290
 1.3620	33.2480
 1.3630	33.0610
 1.3640	32.8670
 1.3650	32.6650
 1.3660	32.4570
 1.3670	32.2390
 1.3680	32.0100
 1.3690	31.7690
 1.3700	31.5110
 1.3710	31.2400
 1.3720	30.9530
 1.3730	30.6480
 1.3740	30.3300
 1.3750	29.9930
 1.3760	29.6340
 1.3770	29.2560
 1.3780	28.8540
 1.3790	28.4320
 1.3800	27.9940
 1.3810	27.5340
 1.3820	27.0640
 1.3830	26.5790
 1.3840	26.0850
 1.3850	25.5750
 1.3860	25.0640
 1.3870	24.5380
 1.3880	24.0200
 1.3890	23.5000
 1.3900	22.9810
 1.3910	22.4720
 1.3920	21.9660
 1.3930	21.4660
 1.3940	20.9780
 1.3950	20.4980
 1.3960	20.0340
 1.3970	19.5890
 1.3980	19.1590
 1.3990	18.7550
 1.4000	18.3690
 1.4010	18.0000
 1.4020	17.6550
 1.4030	17.3270
 1.4040	17.0210
 1.4050	16.7360
 1.4060	16.4690
 1.4070	16.2250
 1.4080	15.9990
 1.4090	15.7880
 1.4100	15.5960
 1.4110	15.4200
 1.4120	15.2570
 1.4130	15.1080
 1.4140	14.9720
 1.4150	14.8490
 1.4160	14.7380
 1.4170	14.6370
 1.4180	14.5460
 1.4190	14.4630
 1.4200	14.3870
 1.4210	14.3190
 1.4220	14.2580
 1.4230	14.2050
 1.4240	14.1580
 1.4250	14.1140
 1.4260	14.0760
 1.4270	14.0420
 1.4280	14.0120
 1.4290	13.9860
 1.4300	13.9650
 1.4310	13.9460
 1.4320	13.9320
 1.4330	13.9180
 1.4340	13.9080
 1.4350	13.8990
 1.4360	13.8940
 1.4370	13.8890
 1.4380	13.8880
 1.4390	13.8890
 1.4400	13.8910
 1.4410	13.8940
 1.4420	13.8990
 1.4430	13.9050
 1.4440	13.9120
 1.4450	13.9190
 1.4460	13.9270
 1.4470	13.9360
 1.4480	13.9460
 1.4490	13.9570
 1.4500	13.9700
 1.4510	13.9820
 1.4520	13.9950
 1.4530	14.0090
 1.4540	14.0230
 1.4550	14.0390
 1.4560	14.0560
 1.4570	14.0740
 1.4580	14.0960
 1.4590	14.1180
 1.4600	14.1430
 1.4610	14.1700
 1.4620	14.1980
 1.4630	14.2310
 1.4640	14.2650
 1.4650	14.3020
 1.4660	14.3420
 1.4670	14.3850
 1.4680	14.4320
