Name: Quercus douglasii 1
Type: vegetation
Class: Tree
Genus: Quercus
Species: douglasii
Sample No.: VH074
Owner: UCSB
Wavelength Range: TIR
Origin: 34.7153; -120.0598; WGS84
Collection Date: 4/21/2013
Description: Samples were collected as part of the HyspIRI Airborne Campaign. 48 individual plants were sampled in three times in 2013 - spring  summer  and fall. The name of the sample includes a 1  2  or 3 which references a different individual of the species. Samples were taken to JPL and processed within 48 hours of collection. The same leaves were processed in the Nicolet and then measured using the ASD.
Measurement: Hemispherical reflectance
First Column: X
Second Column: Y
X Units: Wavelength (micrometers)
Y Units: Reflectance (percentage)
First X Value: 2.501
Last X Value: 15.387
Number of X Values: 1737
Additional Information: vegetation.tree.quercus.douglasii.tir.vh074.ucsb.nicolet.ancillary.txt

 2.5010	 6.6100
 2.5030	 6.5150
 2.5040	 6.6460
 2.5050	 6.6180
 2.5060	 6.6150
 2.5070	 6.5060
 2.5090	 6.5190
 2.5100	 6.6850
 2.5110	 6.7530
 2.5120	 6.5140
 2.5140	 6.4290
 2.5150	 6.3940
 2.5160	 6.4900
 2.5170	 6.5320
 2.5180	 6.5840
 2.5200	 6.6450
 2.5210	 6.7190
 2.5220	 6.6700
 2.5230	 6.5850
 2.5250	 6.6010
 2.5260	 6.6330
 2.5270	 6.6060
 2.5280	 6.6620
 2.5290	 6.5700
 2.5310	 6.5690
 2.5320	 6.5250
 2.5330	 6.4740
 2.5340	 6.4220
 2.5360	 6.5740
 2.5370	 6.6420
 2.5380	 6.6600
 2.5390	 6.5860
 2.5410	 6.7130
 2.5420	 6.6170
 2.5430	 6.4800
 2.5440	 6.4370
 2.5460	 6.5930
 2.5470	 6.6120
 2.5480	 6.6070
 2.5490	 6.5640
 2.5510	 6.6410
 2.5520	 6.6160
 2.5530	 6.6270
 2.5540	 6.6580
 2.5560	 6.6790
 2.5570	 6.6270
 2.5580	 6.6660
 2.5590	 6.5990
 2.5610	 6.6440
 2.5620	 6.6940
 2.5630	 6.7550
 2.5640	 6.6080
 2.5660	 6.5760
 2.5670	 6.6320
 2.5680	 6.6970
 2.5700	 6.6890
 2.5710	 6.6720
 2.5720	 6.5280
 2.5730	 6.5360
 2.5750	 6.5970
 2.5760	 6.7120
 2.5770	 6.6790
 2.5790	 6.7270
 2.5800	 6.6090
 2.5810	 6.5660
 2.5820	 6.5860
 2.5840	 6.6750
 2.5850	 6.6270
 2.5860	 6.7040
 2.5880	 6.6590
 2.5890	 6.5920
 2.5900	 6.5870
 2.5910	 6.5910
 2.5930	 6.5180
 2.5940	 6.6310
 2.5950	 6.5950
 2.5970	 6.4900
 2.5980	 6.4290
 2.5990	 6.5050
 2.6000	 6.4780
 2.6020	 6.4640
 2.6030	 6.3860
 2.6040	 6.3850
 2.6060	 6.4040
 2.6070	 6.4160
 2.6080	 6.3500
 2.6100	 6.4270
 2.6110	 6.3470
 2.6120	 6.2190
 2.6140	 6.1180
 2.6150	 6.2510
 2.6160	 6.3110
 2.6180	 6.2570
 2.6190	 6.1090
 2.6200	 6.1390
 2.6220	 6.0700
 2.6230	 6.0800
 2.6240	 6.1160
 2.6260	 6.1510
 2.6270	 6.1190
 2.6280	 6.1270
 2.6300	 6.1030
 2.6310	 6.0490
 2.6320	 5.8810
 2.6340	 5.9370
 2.6350	 5.9370
 2.6360	 5.8470
 2.6380	 5.8310
 2.6390	 5.9390
 2.6400	 5.9280
 2.6420	 5.9920
 2.6430	 5.8930
 2.6440	 5.8650
 2.6460	 5.8880
 2.6470	 5.9410
 2.6480	 5.8230
 2.6500	 5.7920
 2.6510	 5.7630
 2.6520	 5.8050
 2.6540	 5.6980
 2.6550	 5.6420
 2.6560	 5.5110
 2.6580	 5.5250
 2.6590	 5.5790
 2.6610	 5.6070
 2.6620	 5.5460
 2.6630	 5.6130
 2.6650	 5.6670
 2.6660	 5.5990
 2.6670	 5.4540
 2.6690	 5.4810
 2.6700	 5.5870
 2.6720	 5.6290
 2.6730	 5.5200
 2.6740	 5.4730
 2.6760	 5.4130
 2.6770	 5.4820
 2.6780	 5.4220
 2.6800	 5.3690
 2.6810	 5.2740
 2.6830	 5.2910
 2.6840	 5.1780
 2.6850	 5.2520
 2.6870	 5.2730
 2.6880	 5.3020
 2.6900	 5.2580
 2.6910	 5.2800
 2.6920	 5.1640
 2.6940	 5.2330
 2.6950	 5.2230
 2.6970	 5.1780
 2.6980	 5.0340
 2.6990	 5.0300
 2.7010	 5.1050
 2.7020	 5.0700
 2.7040	 4.9470
 2.7050	 4.9170
 2.7060	 4.8380
 2.7080	 4.9220
 2.7090	 4.8630
 2.7110	 4.7310
 2.7120	 4.7570
 2.7130	 4.8100
 2.7150	 4.6510
 2.7160	 4.5830
 2.7180	 4.6200
 2.7190	 4.6620
 2.7210	 4.5680
 2.7220	 4.6000
 2.7230	 4.5750
 2.7250	 4.6010
 2.7260	 4.3990
 2.7280	 4.2860
 2.7290	 4.2180
 2.7310	 4.2240
 2.7320	 4.1390
 2.7330	 4.1770
 2.7350	 4.0650
 2.7360	 4.0820
 2.7380	 4.1310
 2.7390	 4.1120
 2.7410	 3.9060
 2.7420	 3.9310
 2.7440	 3.9690
 2.7450	 4.0700
 2.7470	 3.8930
 2.7480	 3.8380
 2.7490	 3.8170
 2.7510	 3.7820
 2.7520	 3.7150
 2.7540	 3.7050
 2.7550	 3.6660
 2.7570	 3.7620
 2.7580	 3.6650
 2.7600	 3.6840
 2.7610	 3.6240
 2.7630	 3.6280
 2.7640	 3.5370
 2.7660	 3.6460
 2.7670	 3.6420
 2.7680	 3.5590
 2.7700	 3.4920
 2.7710	 3.5160
 2.7730	 3.6390
 2.7740	 3.6300
 2.7760	 3.3540
 2.7770	 3.2870
 2.7790	 3.3320
 2.7800	 3.5110
 2.7820	 3.4620
 2.7830	 3.4470
 2.7850	 3.2960
 2.7860	 3.1840
 2.7880	 3.1180
 2.7890	 3.2430
 2.7910	 3.3060
 2.7920	 3.3050
 2.7940	 3.2430
 2.7950	 3.2130
 2.7970	 3.1440
 2.7980	 3.2540
 2.8000	 3.3030
 2.8010	 3.3760
 2.8030	 3.2570
 2.8040	 3.1360
 2.8060	 3.0620
 2.8070	 3.1030
 2.8090	 3.1100
 2.8110	 3.0990
 2.8120	 3.0110
 2.8140	 3.0770
 2.8150	 2.9990
 2.8170	 3.0240
 2.8180	 3.0480
 2.8200	 3.0740
 2.8210	 2.9730
 2.8230	 3.0620
 2.8240	 3.0180
 2.8260	 3.0200
 2.8270	 2.9360
 2.8290	 2.9720
 2.8300	 2.9910
 2.8320	 3.0440
 2.8340	 2.9840
 2.8350	 2.9370
 2.8370	 2.8810
 2.8380	 2.9010
 2.8400	 2.8100
 2.8410	 2.8860
 2.8430	 2.9330
 2.8440	 2.9970
 2.8460	 2.9020
 2.8480	 2.8830
 2.8490	 2.8660
 2.8510	 3.0230
 2.8520	 2.9730
 2.8540	 2.9030
 2.8550	 2.8150
 2.8570	 2.9050
 2.8590	 2.9420
 2.8600	 2.9610
 2.8620	 2.8480
 2.8630	 2.9110
 2.8650	 2.8590
 2.8660	 2.9310
 2.8680	 2.8980
 2.8700	 2.8830
 2.8710	 2.8610
 2.8730	 2.9230
 2.8740	 2.8820
 2.8760	 2.9080
 2.8780	 2.7810
 2.8790	 2.7580
 2.8810	 2.7790
 2.8820	 2.9960
 2.8840	 2.7480
 2.8860	 2.6390
 2.8870	 2.7520
 2.8890	 2.8520
 2.8900	 2.7790
 2.8920	 2.8730
 2.8940	 2.9200
 2.8950	 2.9170
 2.8970	 2.7890
 2.8980	 2.8150
 2.9000	 2.7610
 2.9020	 2.8100
 2.9030	 2.6580
 2.9050	 2.5980
 2.9070	 2.7340
 2.9080	 3.0270
 2.9100	 2.9410
 2.9120	 2.8800
 2.9130	 2.7780
 2.9150	 2.7660
 2.9160	 2.7200
 2.9180	 2.8120
 2.9200	 2.8160
 2.9210	 2.7830
 2.9230	 2.7150
 2.9250	 2.7790
 2.9260	 2.7850
 2.9280	 2.8330
 2.9300	 2.8040
 2.9310	 2.7310
 2.9330	 2.6510
 2.9350	 2.8630
 2.9360	 2.8550
 2.9380	 2.7820
 2.9400	 2.7840
 2.9410	 2.9580
 2.9430	 2.9480
 2.9450	 2.8120
 2.9460	 2.7340
 2.9480	 2.7980
 2.9500	 2.7510
 2.9510	 2.7900
 2.9530	 2.7690
 2.9550	 2.8650
 2.9560	 2.8330
 2.9580	 2.9030
 2.9600	 2.9850
 2.9610	 2.9000
 2.9630	 2.9600
 2.9650	 3.0390
 2.9660	 2.7880
 2.9680	 2.7910
 2.9700	 2.5590
 2.9720	 2.3190
 2.9730	 2.6490
 2.9750	 2.9170
 2.9770	 3.0480
 2.9780	 3.2240
 2.9800	 2.9440
 2.9820	 2.7540
 2.9840	 2.7130
 2.9850	 3.0850
 2.9870	 2.8620
 2.9890	 2.3040
 2.9900	 2.3940
 2.9920	 2.8540
 2.9940	 2.6230
 2.9960	 2.7650
 2.9970	 2.9040
 2.9990	 2.9430
 3.0010	 2.8960
 3.0030	 2.9310
 3.0040	 2.8860
 3.0060	 2.9460
 3.0080	 2.7850
 3.0100	 2.6650
 3.0110	 2.6110
 3.0130	 2.8910
 3.0150	 2.7890
 3.0170	 2.8710
 3.0180	 2.9690
 3.0200	 3.0260
 3.0220	 3.0960
 3.0240	 3.0450
 3.0250	 2.9300
 3.0270	 2.9200
 3.0290	 2.9220
 3.0310	 3.0450
 3.0320	 3.0190
 3.0340	 2.5660
 3.0360	 2.1260
 3.0380	 2.3320
 3.0400	 3.2170
 3.0410	 3.6960
 3.0430	 3.6110
 3.0450	 3.3960
 3.0470	 3.4850
 3.0480	 3.5050
 3.0500	 3.1360
 3.0520	 2.5890
 3.0540	 1.9590
 3.0560	 2.4180
 3.0570	 3.1480
 3.0590	 3.3610
 3.0610	 3.0390
 3.0630	 2.8480
 3.0650	 2.7130
 3.0660	 2.7540
 3.0680	 2.7650
 3.0700	 2.9830
 3.0720	 3.0580
 3.0740	 3.0500
 3.0760	 3.0230
 3.0770	 3.0260
 3.0790	 3.0070
 3.0810	 3.1670
 3.0830	 3.2120
 3.0850	 3.1380
 3.0870	 3.0150
 3.0880	 2.9110
 3.0900	 2.8920
 3.0920	 3.0650
 3.0940	 3.1040
 3.0960	 3.1040
 3.0980	 3.1050
 3.0990	 3.1520
 3.1010	 3.1530
 3.1030	 3.0620
 3.1050	 3.0230
 3.1070	 3.0670
 3.1090	 2.9120
 3.1110	 3.1560
 3.1120	 3.2860
 3.1140	 3.3320
 3.1160	 3.2230
 3.1180	 3.1390
 3.1200	 3.0700
 3.1220	 3.0810
 3.1240	 3.0440
 3.1260	 3.1210
 3.1270	 3.0660
 3.1290	 3.0490
 3.1310	 3.1250
 3.1330	 3.2740
 3.1350	 3.1790
 3.1370	 3.2560
 3.1390	 3.4180
 3.1410	 3.3360
 3.1430	 3.2770
 3.1450	 3.4070
 3.1460	 3.2340
 3.1480	 3.2050
 3.1500	 3.1540
 3.1520	 3.2220
 3.1540	 3.2780
 3.1560	 3.3320
 3.1580	 3.1820
 3.1600	 3.3200
 3.1620	 3.3590
 3.1640	 3.1530
 3.1660	 2.9100
 3.1680	 3.4730
 3.1700	 3.8190
 3.1710	 3.4790
 3.1730	 3.1150
 3.1750	 3.3260
 3.1770	 3.5030
 3.1790	 3.3590
 3.1810	 3.2260
 3.1830	 3.3930
 3.1850	 3.6990
 3.1870	 3.7470
 3.1890	 3.5760
 3.1910	 3.3070
 3.1930	 3.3030
 3.1950	 3.3800
 3.1970	 3.4110
 3.1990	 3.3620
 3.2010	 3.3050
 3.2030	 3.4190
 3.2050	 3.4040
 3.2070	 3.4810
 3.2090	 3.4730
 3.2110	 3.5010
 3.2130	 3.4950
 3.2150	 3.5030
 3.2170	 3.5310
 3.2190	 3.5820
 3.2210	 3.5030
 3.2230	 3.4910
 3.2250	 3.5490
 3.2270	 3.6150
 3.2290	 3.5420
 3.2310	 3.4930
 3.2330	 3.4610
 3.2350	 3.5400
 3.2370	 3.5930
 3.2390	 3.6390
 3.2410	 3.6140
 3.2430	 3.5900
 3.2450	 3.5850
 3.2470	 3.6280
 3.2490	 3.6140
 3.2510	 3.5780
 3.2530	 3.4810
 3.2550	 3.5800
 3.2570	 3.6480
 3.2590	 3.5780
 3.2610	 3.5310
 3.2630	 3.5770
 3.2650	 3.5510
 3.2670	 3.5970
 3.2690	 3.5450
 3.2720	 3.6140
 3.2740	 3.7010
 3.2760	 3.7330
 3.2780	 3.6480
 3.2800	 3.7090
 3.2820	 3.7320
 3.2840	 3.6490
 3.2860	 3.5240
 3.2880	 3.5690
 3.2900	 3.5470
 3.2920	 3.5180
 3.2940	 3.4760
 3.2960	 3.4680
 3.2990	 3.4950
 3.3010	 3.6560
 3.3030	 3.6870
 3.3050	 3.6820
 3.3070	 3.6220
 3.3090	 3.6350
 3.3110	 3.6210
 3.3130	 3.6970
 3.3150	 3.7310
 3.3180	 3.7440
 3.3200	 3.6920
 3.3220	 3.6800
 3.3240	 3.6890
 3.3260	 3.6560
 3.3280	 3.6060
 3.3300	 3.6660
 3.3330	 3.6470
 3.3350	 3.7050
 3.3370	 3.7070
 3.3390	 3.6420
 3.3410	 3.6010
 3.3430	 3.6430
 3.3450	 3.5680
 3.3480	 3.5360
 3.3500	 3.4740
 3.3520	 3.4350
 3.3540	 3.4500
 3.3560	 3.5030
 3.3580	 3.4510
 3.3610	 3.4930
 3.3630	 3.4790
 3.3650	 3.4810
 3.3670	 3.4090
 3.3690	 3.4590
 3.3720	 3.4090
 3.3740	 3.3930
 3.3760	 3.2890
 3.3780	 3.2150
 3.3800	 3.2460
 3.3830	 3.2810
 3.3850	 3.2020
 3.3870	 3.2390
 3.3890	 3.2570
 3.3910	 3.2820
 3.3940	 3.1620
 3.3960	 3.1010
 3.3980	 3.1580
 3.4000	 3.1930
 3.4020	 3.0770
 3.4050	 3.1140
 3.4070	 3.0760
 3.4090	 3.2190
 3.4110	 3.3670
 3.4140	 3.5360
 3.4160	 3.6490
 3.4180	 3.8710
 3.4200	 4.1250
 3.4230	 4.4940
 3.4250	 4.9210
 3.4270	 5.2670
 3.4290	 5.3070
 3.4320	 5.1410
 3.4340	 4.8250
 3.4360	 4.5490
 3.4390	 4.2140
 3.4410	 4.1030
 3.4430	 4.0620
 3.4450	 4.0150
 3.4480	 3.8980
 3.4500	 3.9220
 3.4520	 3.9070
 3.4550	 4.0100
 3.4570	 4.1060
 3.4590	 4.0870
 3.4620	 3.9760
 3.4640	 3.9010
 3.4660	 3.8950
 3.4680	 3.8880
 3.4710	 3.8400
 3.4730	 3.8390
 3.4750	 3.7700
 3.4780	 3.7740
 3.4800	 3.8210
 3.4820	 3.8760
 3.4850	 3.7560
 3.4870	 3.6810
 3.4890	 3.6230
 3.4920	 3.6200
 3.4940	 3.5580
 3.4970	 3.5340
 3.4990	 3.6550
 3.5010	 3.8260
 3.5040	 4.0010
 3.5060	 4.3920
 3.5080	 4.8800
 3.5110	 5.3140
 3.5130	 5.4150
 3.5160	 5.2670
 3.5180	 4.9620
 3.5200	 4.7450
 3.5230	 4.6440
 3.5250	 4.5950
 3.5270	 4.5320
 3.5300	 4.5640
 3.5320	 4.6140
 3.5350	 4.6880
 3.5370	 4.6220
 3.5400	 4.5820
 3.5420	 4.5350
 3.5440	 4.5460
 3.5470	 4.5290
 3.5490	 4.5810
 3.5520	 4.5630
 3.5540	 4.5210
 3.5570	 4.4420
 3.5590	 4.4980
 3.5610	 4.4890
 3.5640	 4.5220
 3.5660	 4.5650
 3.5690	 4.6240
 3.5710	 4.6150
 3.5740	 4.6670
 3.5760	 4.6370
 3.5790	 4.6070
 3.5810	 4.5170
 3.5840	 4.4820
 3.5860	 4.5770
 3.5890	 4.6810
 3.5910	 4.5930
 3.5930	 4.6100
 3.5960	 4.6660
 3.5980	 4.6850
 3.6010	 4.6680
 3.6030	 4.6100
 3.6060	 4.5900
 3.6080	 4.6670
 3.6110	 4.6070
 3.6140	 4.6050
 3.6160	 4.6460
 3.6190	 4.7010
 3.6210	 4.6750
 3.6240	 4.6310
 3.6260	 4.5530
 3.6290	 4.5050
 3.6310	 4.5000
 3.6340	 4.6090
 3.6360	 4.6280
 3.6390	 4.5890
 3.6410	 4.5820
 3.6440	 4.6860
 3.6470	 4.6420
 3.6490	 4.6040
 3.6520	 4.6520
 3.6540	 4.7280
 3.6570	 4.7190
 3.6590	 4.7320
 3.6620	 4.7200
 3.6650	 4.7850
 3.6670	 4.7470
 3.6700	 4.7380
 3.6720	 4.6870
 3.6750	 4.6830
 3.6780	 4.6750
 3.6800	 4.7490
 3.6830	 4.7780
 3.6850	 4.8200
 3.6880	 4.8230
 3.6910	 4.8240
 3.6930	 4.7300
 3.6960	 4.7080
 3.6990	 4.6850
 3.7010	 4.6910
 3.7040	 4.7050
 3.7060	 4.7930
 3.7090	 4.8150
 3.7120	 4.8090
 3.7140	 4.7080
 3.7170	 4.6750
 3.7200	 4.6920
 3.7220	 4.8240
 3.7250	 4.8660
 3.7280	 4.9390
 3.7300	 4.8540
 3.7330	 4.7920
 3.7360	 4.7710
 3.7390	 4.8780
 3.7410	 4.9050
 3.7440	 4.8510
 3.7470	 4.8130
 3.7490	 4.8770
 3.7520	 4.8540
 3.7550	 4.8730
 3.7580	 4.7860
 3.7600	 4.7950
 3.7630	 4.8590
 3.7660	 4.9140
 3.7680	 4.9330
 3.7710	 4.9080
 3.7740	 4.8660
 3.7770	 4.8930
 3.7790	 4.8840
 3.7820	 4.9320
 3.7850	 4.8600
 3.7880	 4.8360
 3.7900	 4.9080
 3.7930	 4.9610
 3.7960	 4.9510
 3.7990	 4.9320
 3.8020	 4.8790
 3.8040	 4.9020
 3.8070	 4.9010
 3.8100	 4.9520
 3.8130	 4.9790
 3.8160	 4.9960
 3.8180	 4.9500
 3.8210	 4.9360
 3.8240	 4.9350
 3.8270	 4.9640
 3.8300	 4.9970
 3.8330	 5.1180
 3.8350	 5.1210
 3.8380	 5.0530
 3.8410	 5.0120
 3.8440	 4.9950
 3.8470	 4.9880
 3.8500	 5.0620
 3.8520	 5.0380
 3.8550	 5.0190
 3.8580	 5.0170
 3.8610	 5.1110
 3.8640	 5.1510
 3.8670	 5.1350
 3.8700	 5.0900
 3.8730	 5.0790
 3.8750	 5.0880
 3.8780	 5.1030
 3.8810	 5.0580
 3.8840	 5.0920
 3.8870	 5.0690
 3.8900	 5.1440
 3.8930	 5.1530
 3.8960	 5.1510
 3.8990	 5.1750
 3.9020	 5.1680
 3.9050	 5.1120
 3.9080	 5.1260
 3.9110	 5.1610
 3.9140	 5.2070
 3.9160	 5.1880
 3.9190	 5.2160
 3.9220	 5.1780
 3.9250	 5.1760
 3.9280	 5.1620
 3.9310	 5.1730
 3.9340	 5.1530
 3.9370	 5.1870
 3.9400	 5.1800
 3.9430	 5.1810
 3.9460	 5.1860
 3.9490	 5.2140
 3.9520	 5.2300
 3.9550	 5.2430
 3.9580	 5.2220
 3.9610	 5.2720
 3.9640	 5.2420
 3.9670	 5.2120
 3.9700	 5.1760
 3.9730	 5.1730
 3.9770	 5.1240
 3.9800	 5.1480
 3.9830	 5.2180
 3.9860	 5.2380
 3.9890	 5.2070
 3.9920	 5.2310
 3.9950	 5.2680
 3.9980	 5.2760
 4.0010	 5.2380
 4.0040	 5.2840
 4.0070	 5.2870
 4.0100	 5.2410
 4.0130	 5.2350
 4.0170	 5.2540
 4.0200	 5.2360
 4.0230	 5.2870
 4.0260	 5.2490
 4.0290	 5.2280
 4.0320	 5.2680
 4.0350	 5.3250
 4.0380	 5.3390
 4.0420	 5.3690
 4.0450	 5.3410
 4.0480	 5.3490
 4.0510	 5.4000
 4.0540	 5.4410
 4.0570	 5.3570
 4.0610	 5.3290
 4.0640	 5.3240
 4.0670	 5.3580
 4.0700	 5.3630
 4.0730	 5.4300
 4.0770	 5.4240
 4.0800	 5.3840
 4.0830	 5.3190
 4.0860	 5.3300
 4.0890	 5.3670
 4.0930	 5.4290
 4.0960	 5.4050
 4.0990	 5.3570
 4.1020	 5.3810
 4.1060	 5.3830
 4.1090	 5.3510
 4.1120	 5.3850
 4.1150	 5.3260
 4.1190	 5.3770
 4.1220	 5.4900
 4.1250	 5.4830
 4.1280	 5.4130
 4.1320	 5.3710
 4.1350	 5.3580
 4.1380	 5.3850
 4.1420	 5.3790
 4.1450	 5.3850
 4.1480	 5.4240
 4.1520	 5.4570
 4.1550	 5.4470
 4.1580	 5.4590
 4.1620	 5.3970
 4.1650	 5.4060
 4.1680	 5.4390
 4.1720	 5.4150
 4.1750	 5.3910
 4.1780	 5.4110
 4.1820	 5.3950
 4.1850	 5.4330
 4.1890	 5.4500
 4.1920	 5.5350
 4.1950	 5.5560
 4.1990	 5.6220
 4.2020	 5.7460
 4.2060	 5.8540
 4.2090	 5.9260
 4.2120	 6.0470
 4.2160	 6.1220
 4.2190	 6.1710
 4.2230	 6.1480
 4.2260	 6.1560
 4.2300	 6.4860
 4.2330	 6.6880
 4.2360	 6.5630
 4.2400	 6.5910
 4.2430	 6.4670
 4.2470	 6.5510
 4.2500	 6.4220
 4.2540	 6.1020
 4.2570	 5.9990
 4.2610	 6.1450
 4.2640	 6.3430
 4.2680	 6.4770
 4.2710	 6.4690
 4.2750	 6.4980
 4.2780	 6.4140
 4.2820	 6.2730
 4.2850	 6.3030
 4.2890	 6.4350
 4.2930	 6.2040
 4.2960	 6.0110
 4.3000	 6.1570
 4.3030	 6.2450
 4.3070	 6.1700
 4.3100	 6.1110
 4.3140	 5.9980
 4.3180	 5.8590
 4.3210	 5.7590
 4.3250	 5.7560
 4.3280	 5.6850
 4.3320	 5.6320
 4.3360	 5.5880
 4.3390	 5.5350
 4.3430	 5.4840
 4.3470	 5.5540
 4.3500	 5.5540
 4.3540	 5.5460
 4.3570	 5.4590
 4.3610	 5.4140
 4.3650	 5.4550
 4.3680	 5.5100
 4.3720	 5.5110
 4.3760	 5.4840
 4.3800	 5.4850
 4.3830	 5.5030
 4.3870	 5.4800
 4.3910	 5.4640
 4.3940	 5.4200
 4.3980	 5.4180
 4.4020	 5.4220
 4.4060	 5.4260
 4.4090	 5.3940
 4.4130	 5.3710
 4.4170	 5.3430
 4.4210	 5.4370
 4.4240	 5.4130
 4.4280	 5.3700
 4.4320	 5.3060
 4.4360	 5.2860
 4.4400	 5.3100
 4.4430	 5.3430
 4.4470	 5.3750
 4.4510	 5.3740
 4.4550	 5.3670
 4.4590	 5.3870
 4.4620	 5.3640
 4.4660	 5.4020
 4.4700	 5.4290
 4.4740	 5.3990
 4.4780	 5.3360
 4.4820	 5.3440
 4.4860	 5.3760
 4.4900	 5.3550
 4.4930	 5.2820
 4.4970	 5.3030
 4.5010	 5.3400
 4.5050	 5.3330
 4.5090	 5.3210
 4.5130	 5.2930
 4.5170	 5.2570
 4.5210	 5.2970
 4.5250	 5.3160
 4.5290	 5.2550
 4.5330	 5.2440
 4.5370	 5.2920
 4.5410	 5.3300
 4.5450	 5.2880
 4.5490	 5.2750
 4.5530	 5.3290
 4.5570	 5.3080
 4.5610	 5.2620
 4.5650	 5.1970
 4.5690	 5.2120
 4.5730	 5.2430
 4.5770	 5.2490
 4.5810	 5.2270
 4.5850	 5.2310
 4.5890	 5.2710
 4.5930	 5.2660
 4.5970	 5.2570
 4.6010	 5.2080
 4.6050	 5.2020
 4.6090	 5.1940
 4.6130	 5.2490
 4.6170	 5.3200
 4.6220	 5.2990
 4.6260	 5.2360
 4.6300	 5.1850
 4.6340	 5.1720
 4.6380	 5.2150
 4.6420	 5.2070
 4.6460	 5.2050
 4.6510	 5.2000
 4.6550	 5.1700
 4.6590	 5.1530
 4.6630	 5.1470
 4.6670	 5.1700
 4.6720	 5.2050
 4.6760	 5.1780
 4.6800	 5.1300
 4.6840	 5.1150
 4.6880	 5.1880
 4.6930	 5.2240
 4.6970	 5.1820
 4.7010	 5.1540
 4.7050	 5.1100
 4.7100	 5.1350
 4.7140	 5.1970
 4.7180	 5.2100
 4.7230	 5.2100
 4.7270	 5.2530
 4.7310	 5.2240
 4.7360	 5.1470
 4.7400	 5.1060
 4.7440	 5.1430
 4.7490	 5.2240
 4.7530	 5.2310
 4.7570	 5.2080
 4.7620	 5.2040
 4.7660	 5.2330
 4.7700	 5.1730
 4.7750	 5.0750
 4.7790	 5.1380
 4.7840	 5.1970
 4.7880	 5.2520
 4.7920	 5.2540
 4.7970	 5.1740
 4.8010	 5.1550
 4.8060	 5.1840
 4.8100	 5.1750
 4.8150	 5.1240
 4.8190	 5.1290
 4.8240	 5.1950
 4.8280	 5.1870
 4.8330	 5.1420
 4.8370	 5.1370
 4.8420	 5.0980
 4.8460	 5.1210
 4.8510	 5.1100
 4.8550	 5.0850
 4.8600	 5.1140
 4.8640	 5.1990
 4.8690	 5.2310
 4.8730	 5.2100
 4.8780	 5.2030
 4.8830	 5.1880
 4.8870	 5.1830
 4.8920	 5.1920
 4.8960	 5.1740
 4.9010	 5.2330
 4.9060	 5.2490
 4.9100	 5.2550
 4.9150	 5.2260
 4.9200	 5.2430
 4.9240	 5.2740
 4.9290	 5.2800
 4.9340	 5.2590
 4.9380	 5.2600
 4.9430	 5.2640
 4.9480	 5.2210
 4.9530	 5.2270
 4.9570	 5.2810
 4.9620	 5.2940
 4.9670	 5.3320
 4.9720	 5.3330
 4.9760	 5.2890
 4.9810	 5.2720
 4.9860	 5.3280
 4.9910	 5.3330
 4.9960	 5.3330
 5.0000	 5.3550
 5.0050	 5.3700
 5.0100	 5.2880
 5.0150	 5.2820
 5.0200	 5.2890
 5.0250	 5.3120
 5.0290	 5.3080
 5.0340	 5.3070
 5.0390	 5.3210
 5.0440	 5.2920
 5.0490	 5.2940
 5.0540	 5.2940
 5.0590	 5.2780
 5.0640	 5.3400
 5.0690	 5.3420
 5.0740	 5.2950
 5.0790	 5.3140
 5.0840	 5.3450
 5.0890	 5.2960
 5.0940	 5.3130
 5.0990	 5.3250
 5.1040	 5.3230
 5.1090	 5.2900
 5.1140	 5.3650
 5.1190	 5.3990
 5.1240	 5.3460
 5.1290	 5.3010
 5.1340	 5.2810
 5.1390	 5.2800
 5.1440	 5.3390
 5.1490	 5.3870
 5.1540	 5.3660
 5.1600	 5.3140
 5.1650	 5.3310
 5.1700	 5.3560
 5.1750	 5.3670
 5.1800	 5.3400
 5.1850	 5.3750
 5.1910	 5.4150
 5.1960	 5.3630
 5.2010	 5.3020
 5.2060	 5.3070
 5.2110	 5.2990
 5.2170	 5.2930
 5.2220	 5.3360
 5.2270	 5.3870
 5.2320	 5.3750
 5.2380	 5.3950
 5.2430	 5.3740
 5.2480	 5.3520
 5.2540	 5.3230
 5.2590	 5.3350
 5.2640	 5.3460
 5.2700	 5.3260
 5.2750	 5.3120
 5.2800	 5.3550
 5.2860	 5.3790
 5.2910	 5.3540
 5.2970	 5.3030
 5.3020	 5.3110
 5.3070	 5.2990
 5.3130	 5.2830
 5.3180	 5.2480
 5.3240	 5.2990
 5.3290	 5.2900
 5.3350	 5.2630
 5.3400	 5.2320
 5.3460	 5.2590
 5.3510	 5.2970
 5.3570	 5.3160
 5.3620	 5.2610
 5.3680	 5.2330
 5.3730	 5.2090
 5.3790	 5.1960
 5.3850	 5.1810
 5.3900	 5.2030
 5.3960	 5.2510
 5.4010	 5.2840
 5.4070	 5.2630
 5.4130	 5.2720
 5.4180	 5.2270
 5.4240	 5.2240
 5.4300	 5.1880
 5.4350	 5.1610
 5.4410	 5.0890
