Name: Baccharis pilularis 3
Type: vegetation
Class: Shrub
Genus: Baccharis
Species: pilularis
Sample No.: VH126
Owner: UCSB
Wavelength Range: TIR
Origin: 34.5088; -119.7683; WGS84
Collection Date: 6/3/2013
Description: Samples were collected as part of the HyspIRI Airborne Campaign. 48 individual plants were sampled in three times in 2013 - spring  summer  and fall. The name of the sample includes a 1  2  or 3 which references a different individual of the species. Samples were taken to JPL and processed within 48 hours of collection. The same leaves were processed in the Nicolet and then measured using the ASD.
Measurement: Hemispherical reflectance
First Column: X
Second Column: Y
X Units: Wavelength (micrometers)
Y Units: Reflectance (percentage)
First X Value: 2.501
Last X Value: 15.387
Number of X Values: 1737
Additional Information: vegetation.shrub.baccharis.pilularis.tir.vh126.ucsb.nicolet.ancillary.txt

 2.5010	 5.8260
 2.5030	 5.9570
 2.5040	 5.9360
 2.5050	 5.7810
 2.5060	 5.7280
 2.5070	 5.7500
 2.5090	 5.8030
 2.5100	 5.7010
 2.5110	 5.7750
 2.5120	 5.8430
 2.5140	 5.8280
 2.5150	 5.7710
 2.5160	 5.7920
 2.5170	 5.7540
 2.5180	 5.8040
 2.5200	 5.7080
 2.5210	 5.7380
 2.5220	 5.7470
 2.5230	 5.8280
 2.5250	 5.9000
 2.5260	 5.8680
 2.5270	 5.7850
 2.5280	 5.7990
 2.5290	 5.7570
 2.5310	 5.8180
 2.5320	 5.7720
 2.5330	 5.7490
 2.5340	 5.7570
 2.5360	 5.7990
 2.5370	 5.7260
 2.5380	 5.6530
 2.5390	 5.5970
 2.5410	 5.7240
 2.5420	 5.8230
 2.5430	 5.9400
 2.5440	 5.9290
 2.5460	 5.8650
 2.5470	 5.7650
 2.5480	 5.7980
 2.5490	 5.7320
 2.5510	 5.7310
 2.5520	 5.7260
 2.5530	 5.7920
 2.5540	 5.8200
 2.5560	 5.7140
 2.5570	 5.7020
 2.5580	 5.8300
 2.5590	 5.8230
 2.5610	 5.8670
 2.5620	 5.7340
 2.5630	 5.6930
 2.5640	 5.6770
 2.5660	 5.7600
 2.5670	 5.8360
 2.5680	 5.9110
 2.5700	 5.8340
 2.5710	 5.8940
 2.5720	 5.8850
 2.5730	 5.8230
 2.5750	 5.8230
 2.5760	 5.8890
 2.5770	 5.8180
 2.5790	 5.7220
 2.5800	 5.6610
 2.5810	 5.7820
 2.5820	 5.7710
 2.5840	 5.8290
 2.5850	 5.8760
 2.5860	 5.8600
 2.5880	 5.7050
 2.5890	 5.7140
 2.5900	 5.7220
 2.5910	 5.8440
 2.5930	 5.9220
 2.5940	 5.9960
 2.5950	 5.8870
 2.5970	 5.9290
 2.5980	 5.9320
 2.5990	 5.8850
 2.6000	 5.8490
 2.6020	 5.7900
 2.6030	 5.7080
 2.6040	 5.8370
 2.6060	 5.7940
 2.6070	 5.7320
 2.6080	 5.7420
 2.6100	 5.8180
 2.6110	 5.8280
 2.6120	 5.8830
 2.6140	 5.7590
 2.6150	 5.7690
 2.6160	 5.7930
 2.6180	 5.8560
 2.6190	 5.7570
 2.6200	 5.6250
 2.6220	 5.6520
 2.6230	 5.6810
 2.6240	 5.6900
 2.6260	 5.7170
 2.6270	 5.6320
 2.6280	 5.6810
 2.6300	 5.6410
 2.6310	 5.5810
 2.6320	 5.5620
 2.6340	 5.5750
 2.6350	 5.5640
 2.6360	 5.5280
 2.6380	 5.3920
 2.6390	 5.3930
 2.6400	 5.4320
 2.6420	 5.5640
 2.6430	 5.4910
 2.6440	 5.5000
 2.6460	 5.5620
 2.6470	 5.5410
 2.6480	 5.5580
 2.6500	 5.5420
 2.6510	 5.5290
 2.6520	 5.6440
 2.6540	 5.6170
 2.6550	 5.4470
 2.6560	 5.3610
 2.6580	 5.5210
 2.6590	 5.5240
 2.6610	 5.3600
 2.6620	 5.3430
 2.6630	 5.4930
 2.6650	 5.5370
 2.6660	 5.5380
 2.6670	 5.5030
 2.6690	 5.4880
 2.6700	 5.4360
 2.6720	 5.3620
 2.6730	 5.3090
 2.6740	 5.3250
 2.6760	 5.3650
 2.6770	 5.4140
 2.6780	 5.3650
 2.6800	 5.3490
 2.6810	 5.2570
 2.6830	 5.2560
 2.6840	 5.2690
 2.6850	 5.2680
 2.6870	 5.2290
 2.6880	 5.1870
 2.6900	 5.1760
 2.6910	 5.1990
 2.6920	 5.1410
 2.6940	 5.2960
 2.6950	 5.3310
 2.6970	 5.2650
 2.6980	 5.1250
 2.6990	 5.1910
 2.7010	 5.2140
 2.7020	 5.1970
 2.7040	 5.1280
 2.7050	 5.1020
 2.7060	 5.0600
 2.7080	 5.0390
 2.7090	 5.0900
 2.7110	 5.1800
 2.7120	 5.1470
 2.7130	 5.0820
 2.7150	 5.0030
 2.7160	 5.0530
 2.7180	 5.0990
 2.7190	 4.9930
 2.7210	 4.8320
 2.7220	 4.8160
 2.7230	 4.6540
 2.7250	 4.6120
 2.7260	 4.7350
 2.7280	 4.8800
 2.7290	 4.8430
 2.7310	 4.8580
 2.7320	 4.7650
 2.7330	 4.6590
 2.7350	 4.5920
 2.7360	 4.6100
 2.7380	 4.4770
 2.7390	 4.4610
 2.7410	 4.4580
 2.7420	 4.4450
 2.7440	 4.4350
 2.7450	 4.4200
 2.7470	 4.3070
 2.7480	 4.3120
 2.7490	 4.2640
 2.7510	 4.2790
 2.7520	 4.2240
 2.7540	 4.2370
 2.7550	 4.1430
 2.7570	 4.2370
 2.7580	 4.2870
 2.7600	 4.2710
 2.7610	 4.1750
 2.7630	 4.1340
 2.7640	 4.0670
 2.7660	 4.0590
 2.7670	 4.0210
 2.7680	 4.0770
 2.7700	 4.0600
 2.7710	 4.0170
 2.7730	 4.0040
 2.7740	 4.0750
 2.7760	 4.0220
 2.7770	 3.9690
 2.7790	 3.9500
 2.7800	 3.9640
 2.7820	 3.8650
 2.7830	 3.9580
 2.7850	 3.9030
 2.7860	 3.8090
 2.7880	 3.8420
 2.7890	 3.9560
 2.7910	 3.9910
 2.7920	 3.9230
 2.7940	 3.8770
 2.7950	 3.9680
 2.7970	 3.9040
 2.7980	 3.8780
 2.8000	 3.7240
 2.8010	 3.7500
 2.8030	 3.7860
 2.8040	 3.8050
 2.8060	 3.6700
 2.8070	 3.6250
 2.8090	 3.5970
 2.8110	 3.6760
 2.8120	 3.6540
 2.8140	 3.6370
 2.8150	 3.5930
 2.8170	 3.6760
 2.8180	 3.6500
 2.8200	 3.7130
 2.8210	 3.7820
 2.8230	 3.8090
 2.8240	 3.6810
 2.8260	 3.7070
 2.8270	 3.6750
 2.8290	 3.6720
 2.8300	 3.6770
 2.8320	 3.6900
 2.8340	 3.5830
 2.8350	 3.5690
 2.8370	 3.5110
 2.8380	 3.5880
 2.8400	 3.6810
 2.8410	 3.7160
 2.8430	 3.5880
 2.8440	 3.5960
 2.8460	 3.5950
 2.8480	 3.5860
 2.8490	 3.4960
 2.8510	 3.5430
 2.8520	 3.4990
 2.8540	 3.4380
 2.8550	 3.3310
 2.8570	 3.4560
 2.8590	 3.5240
 2.8600	 3.5460
 2.8620	 3.5080
 2.8630	 3.5450
 2.8650	 3.5230
 2.8660	 3.5140
 2.8680	 3.5420
 2.8700	 3.6070
 2.8710	 3.4350
 2.8730	 3.4360
 2.8740	 3.5700
 2.8760	 3.6990
 2.8780	 3.7230
 2.8790	 3.6540
 2.8810	 3.5180
 2.8820	 3.5850
 2.8840	 3.6200
 2.8860	 3.5770
 2.8870	 3.4850
 2.8890	 3.5890
 2.8900	 3.5690
 2.8920	 3.4740
 2.8940	 3.4260
 2.8950	 3.5400
 2.8970	 3.6120
 2.8980	 3.6160
 2.9000	 3.5760
 2.9020	 3.5600
 2.9030	 3.5300
 2.9050	 3.6570
 2.9070	 3.6900
 2.9080	 3.5550
 2.9100	 3.5020
 2.9120	 3.5060
 2.9130	 3.5130
 2.9150	 3.6100
 2.9160	 3.6060
 2.9180	 3.6380
 2.9200	 3.6390
 2.9210	 3.6540
 2.9230	 3.5490
 2.9250	 3.5820
 2.9260	 3.5300
 2.9280	 3.6070
 2.9300	 3.6590
 2.9310	 3.7600
 2.9330	 3.8070
 2.9350	 3.8180
 2.9360	 3.6370
 2.9380	 3.6430
 2.9400	 3.6190
 2.9410	 3.6150
 2.9430	 3.6540
 2.9450	 3.6790
 2.9460	 3.5980
 2.9480	 3.6490
 2.9500	 3.6650
 2.9510	 3.7070
 2.9530	 3.7160
 2.9550	 3.7140
 2.9560	 3.5890
 2.9580	 3.5520
 2.9600	 3.5460
 2.9610	 3.5890
 2.9630	 3.6370
 2.9650	 3.6620
 2.9660	 3.6430
 2.9680	 3.6420
 2.9700	 3.4980
 2.9720	 3.5370
 2.9730	 3.6080
 2.9750	 3.6840
 2.9770	 3.6240
 2.9780	 3.7550
 2.9800	 3.7460
 2.9820	 3.7120
 2.9840	 3.7530
 2.9850	 3.7750
 2.9870	 3.7920
 2.9890	 3.7790
 2.9900	 3.7500
 2.9920	 3.7340
 2.9940	 3.5780
 2.9960	 3.6970
 2.9970	 3.8410
 2.9990	 3.8030
 3.0010	 3.7160
 3.0030	 3.7710
 3.0040	 3.7620
 3.0060	 3.7400
 3.0080	 3.7960
 3.0100	 3.9390
 3.0110	 3.8310
 3.0130	 3.7770
 3.0150	 3.6950
 3.0170	 3.7330
 3.0180	 3.7760
 3.0200	 3.8030
 3.0220	 3.7790
 3.0240	 3.8310
 3.0250	 3.7630
 3.0270	 3.8150
 3.0290	 3.7200
 3.0310	 3.6260
 3.0320	 3.6690
 3.0340	 3.8000
 3.0360	 3.8010
 3.0380	 3.7750
 3.0400	 3.6770
 3.0410	 3.7320
 3.0430	 3.7410
 3.0450	 3.6580
 3.0470	 3.6560
 3.0480	 3.8020
 3.0500	 3.8450
 3.0520	 3.8150
 3.0540	 3.6850
 3.0560	 3.6820
 3.0570	 3.7900
 3.0590	 3.8010
 3.0610	 3.7090
 3.0630	 3.6610
 3.0650	 3.6640
 3.0660	 3.7620
 3.0680	 3.7880
 3.0700	 3.7790
 3.0720	 3.7380
 3.0740	 3.7010
 3.0760	 3.6270
 3.0770	 3.6750
 3.0790	 3.7040
 3.0810	 3.7880
 3.0830	 3.7900
 3.0850	 3.7890
 3.0870	 3.6940
 3.0880	 3.6930
 3.0900	 3.6840
 3.0920	 3.7270
 3.0940	 3.7830
 3.0960	 3.8370
 3.0980	 3.7820
 3.0990	 3.7400
 3.1010	 3.7210
 3.1030	 3.7880
 3.1050	 3.7820
 3.1070	 3.7980
 3.1090	 3.7830
 3.1110	 3.8630
 3.1120	 3.8810
 3.1140	 3.8100
 3.1160	 3.7240
 3.1180	 3.7720
 3.1200	 3.7930
 3.1220	 3.7700
 3.1240	 3.6930
 3.1260	 3.7790
 3.1270	 3.7230
 3.1290	 3.7480
 3.1310	 3.8030
 3.1330	 3.8390
 3.1350	 3.8780
 3.1370	 3.8880
 3.1390	 3.8640
 3.1410	 3.9320
 3.1430	 3.8430
 3.1450	 3.7840
 3.1460	 3.8360
 3.1480	 4.0190
 3.1500	 4.0300
 3.1520	 3.9470
 3.1540	 3.9470
 3.1560	 3.9480
 3.1580	 3.7890
 3.1600	 3.8260
 3.1620	 3.8690
 3.1640	 3.9050
 3.1660	 3.9350
 3.1680	 3.9670
 3.1700	 3.8970
 3.1710	 3.9060
 3.1730	 3.9560
 3.1750	 4.0050
 3.1770	 3.9850
 3.1790	 4.0010
 3.1810	 3.9230
 3.1830	 3.8890
 3.1850	 3.9040
 3.1870	 3.9720
 3.1890	 3.8890
 3.1910	 3.8580
 3.1930	 3.8350
 3.1950	 3.8890
 3.1970	 3.9020
 3.1990	 4.0030
 3.2010	 4.0510
 3.2030	 4.0320
 3.2050	 3.9320
 3.2070	 3.9550
 3.2090	 4.0220
 3.2110	 4.0170
 3.2130	 3.9710
 3.2150	 4.0620
 3.2170	 4.0840
 3.2190	 4.0420
 3.2210	 3.9620
 3.2230	 4.0780
 3.2250	 4.1400
 3.2270	 4.0980
 3.2290	 4.0220
 3.2310	 4.0400
 3.2330	 4.0710
 3.2350	 4.1100
 3.2370	 4.0430
 3.2390	 4.0830
 3.2410	 4.1580
 3.2430	 4.1980
 3.2450	 4.0270
 3.2470	 4.0400
 3.2490	 4.0810
 3.2510	 4.0450
 3.2530	 3.9800
 3.2550	 3.9980
 3.2570	 4.0290
 3.2590	 4.1150
 3.2610	 4.0960
 3.2630	 4.0930
 3.2650	 4.1110
 3.2670	 4.0710
 3.2690	 4.0610
 3.2720	 4.2020
 3.2740	 4.2040
 3.2760	 4.1470
 3.2780	 4.0790
 3.2800	 4.0990
 3.2820	 4.1260
 3.2840	 4.1040
 3.2860	 4.0630
 3.2880	 4.1640
 3.2900	 4.2130
 3.2920	 4.2180
 3.2940	 4.1660
 3.2960	 4.1690
 3.2990	 4.2340
 3.3010	 4.2910
 3.3030	 4.1850
 3.3050	 4.1700
 3.3070	 4.1110
 3.3090	 4.0940
 3.3110	 4.0900
 3.3130	 4.1420
 3.3150	 4.1530
 3.3180	 4.1980
 3.3200	 4.1290
 3.3220	 4.0690
 3.3240	 4.0160
 3.3260	 4.0420
 3.3280	 4.0770
 3.3300	 4.0910
 3.3330	 4.0900
 3.3350	 4.0840
 3.3370	 4.0270
 3.3390	 3.9800
 3.3410	 3.9140
 3.3430	 3.9290
 3.3450	 3.8800
 3.3480	 3.8610
 3.3500	 3.8470
 3.3520	 3.8430
 3.3540	 3.9120
 3.3560	 3.9820
 3.3580	 3.8680
 3.3610	 3.7790
 3.3630	 3.7320
 3.3650	 3.8020
 3.3670	 3.7480
 3.3690	 3.7610
 3.3720	 3.8370
 3.3740	 3.9220
 3.3760	 3.8620
 3.3780	 3.8480
 3.3800	 3.9050
 3.3830	 3.9500
 3.3850	 3.9070
 3.3870	 3.8000
 3.3890	 3.6760
 3.3910	 3.6840
 3.3940	 3.6340
 3.3960	 3.5980
 3.3980	 3.6520
 3.4000	 3.7160
 3.4020	 3.7650
 3.4050	 3.8710
 3.4070	 3.9400
 3.4090	 4.1560
 3.4110	 4.4370
 3.4140	 4.7100
 3.4160	 4.9520
 3.4180	 5.3490
 3.4200	 5.8350
 3.4230	 6.4130
 3.4250	 7.1190
 3.4270	 7.8860
 3.4290	 8.1670
 3.4320	 7.6900
 3.4340	 6.7880
 3.4360	 6.0820
 3.4390	 5.5660
 3.4410	 5.2650
 3.4430	 5.0290
 3.4450	 5.0420
 3.4480	 5.0720
 3.4500	 5.0150
 3.4520	 4.9530
 3.4550	 4.9010
 3.4570	 4.7850
 3.4590	 4.7590
 3.4620	 4.7440
 3.4640	 4.7410
 3.4660	 4.7390
 3.4680	 4.7420
 3.4710	 4.6950
 3.4730	 4.5430
 3.4750	 4.4820
 3.4780	 4.5180
 3.4800	 4.4410
 3.4820	 4.3800
 3.4850	 4.3180
 3.4870	 4.3210
 3.4890	 4.2770
 3.4920	 4.2920
 3.4940	 4.3340
 3.4970	 4.4800
 3.4990	 4.6520
 3.5010	 4.8440
 3.5040	 5.1220
 3.5060	 5.7530
 3.5080	 6.7880
 3.5110	 7.6160
 3.5130	 7.4340
 3.5160	 6.5470
 3.5180	 5.8040
 3.5200	 5.4910
 3.5230	 5.3160
 3.5250	 5.2380
 3.5270	 5.2020
 3.5300	 5.1800
 3.5320	 5.1380
 3.5350	 5.1270
 3.5370	 5.0460
 3.5400	 4.9440
 3.5420	 4.9570
 3.5440	 5.0570
 3.5470	 5.0620
 3.5490	 5.0340
 3.5520	 4.9690
 3.5540	 5.0260
 3.5570	 5.1000
 3.5590	 5.0850
 3.5610	 5.0140
 3.5640	 5.0430
 3.5660	 5.0360
 3.5690	 4.9860
 3.5710	 4.9460
 3.5740	 4.9860
 3.5760	 5.0130
 3.5790	 5.0290
 3.5810	 5.0150
 3.5840	 5.0760
 3.5860	 5.0870
 3.5890	 5.0550
 3.5910	 5.0220
 3.5930	 5.0920
 3.5960	 5.0970
 3.5980	 5.0540
 3.6010	 5.0270
 3.6030	 5.0180
 3.6060	 5.0840
 3.6080	 5.1240
 3.6110	 5.0920
 3.6140	 5.0830
 3.6160	 4.9970
 3.6190	 4.9960
 3.6210	 4.9780
 3.6240	 4.9800
 3.6260	 4.9510
 3.6290	 4.9700
 3.6310	 4.9390
 3.6340	 4.9530
 3.6360	 4.9120
 3.6390	 4.9160
 3.6410	 4.9370
 3.6440	 4.9580
 3.6470	 4.9600
 3.6490	 4.9600
 3.6520	 4.9550
 3.6540	 5.0080
 3.6570	 5.0130
 3.6590	 5.0150
 3.6620	 5.0530
 3.6650	 4.9840
 3.6670	 4.9650
 3.6700	 5.0220
 3.6720	 5.0380
 3.6750	 5.0510
 3.6780	 4.9760
 3.6800	 4.9530
 3.6830	 5.0000
 3.6850	 5.0190
 3.6880	 5.0000
 3.6910	 5.0150
 3.6930	 4.9900
 3.6960	 5.0070
 3.6990	 5.0470
 3.7010	 5.0450
 3.7040	 5.0360
 3.7060	 5.0650
 3.7090	 5.0590
 3.7120	 5.1080
 3.7140	 5.0830
 3.7170	 5.0050
 3.7200	 4.9580
 3.7220	 4.9790
 3.7250	 4.9940
 3.7280	 5.1270
 3.7300	 5.1900
 3.7330	 5.1650
 3.7360	 5.1060
 3.7390	 5.0950
 3.7410	 5.1210
 3.7440	 5.1640
 3.7470	 5.0960
 3.7490	 5.0730
 3.7520	 5.0850
 3.7550	 5.0730
 3.7580	 5.0770
 3.7600	 5.1240
 3.7630	 5.1450
 3.7660	 5.1700
 3.7680	 5.1310
 3.7710	 5.1440
 3.7740	 5.1980
 3.7770	 5.2150
 3.7790	 5.1680
 3.7820	 5.1190
 3.7850	 5.1380
 3.7880	 5.2270
 3.7900	 5.2370
 3.7930	 5.2200
 3.7960	 5.1860
 3.7990	 5.1880
 3.8020	 5.2360
 3.8040	 5.2430
 3.8070	 5.2250
 3.8100	 5.1960
 3.8130	 5.1830
 3.8160	 5.1890
 3.8180	 5.1860
 3.8210	 5.2520
 3.8240	 5.2450
 3.8270	 5.2150
 3.8300	 5.1860
 3.8330	 5.2210
 3.8350	 5.2510
 3.8380	 5.3110
 3.8410	 5.2990
 3.8440	 5.2530
 3.8470	 5.2270
 3.8500	 5.2340
 3.8520	 5.2350
 3.8550	 5.2520
 3.8580	 5.2660
 3.8610	 5.2420
 3.8640	 5.2040
 3.8670	 5.2330
 3.8700	 5.2120
 3.8730	 5.1940
 3.8750	 5.2110
 3.8780	 5.2730
 3.8810	 5.3270
 3.8840	 5.2640
 3.8870	 5.2390
 3.8900	 5.3270
 3.8930	 5.3210
 3.8960	 5.3180
 3.8990	 5.3320
 3.9020	 5.3290
 3.9050	 5.2790
 3.9080	 5.2730
 3.9110	 5.2520
 3.9140	 5.2320
 3.9160	 5.2420
 3.9190	 5.2910
 3.9220	 5.2750
 3.9250	 5.2680
 3.9280	 5.2730
 3.9310	 5.2620
 3.9340	 5.2540
 3.9370	 5.2820
 3.9400	 5.2760
 3.9430	 5.2910
 3.9460	 5.2840
 3.9490	 5.3100
 3.9520	 5.3400
 3.9550	 5.3120
 3.9580	 5.3110
 3.9610	 5.2740
 3.9640	 5.2860
 3.9670	 5.3260
 3.9700	 5.2830
 3.9730	 5.2490
 3.9770	 5.1590
 3.9800	 5.1600
 3.9830	 5.2770
 3.9860	 5.3080
 3.9890	 5.3590
 3.9920	 5.3880
 3.9950	 5.3300
 3.9980	 5.3340
 4.0010	 5.3950
 4.0040	 5.3770
 4.0070	 5.3190
 4.0100	 5.3300
 4.0130	 5.3210
 4.0170	 5.3590
 4.0200	 5.4040
 4.0230	 5.4490
 4.0260	 5.4280
 4.0290	 5.3410
 4.0320	 5.2940
 4.0350	 5.3390
 4.0380	 5.3660
 4.0420	 5.3410
 4.0450	 5.3330
 4.0480	 5.3570
 4.0510	 5.3560
 4.0540	 5.3300
 4.0570	 5.3000
 4.0610	 5.2730
 4.0640	 5.2720
 4.0670	 5.2570
 4.0700	 5.2700
 4.0730	 5.3600
 4.0770	 5.4180
 4.0800	 5.4230
 4.0830	 5.3850
 4.0860	 5.3790
 4.0890	 5.3760
 4.0930	 5.3870
 4.0960	 5.3910
 4.0990	 5.3780
 4.1020	 5.3700
 4.1060	 5.3980
 4.1090	 5.3730
 4.1120	 5.3650
 4.1150	 5.4040
 4.1190	 5.3770
 4.1220	 5.3850
 4.1250	 5.4340
 4.1280	 5.3970
 4.1320	 5.3500
 4.1350	 5.3590
 4.1380	 5.3910
 4.1420	 5.3770
 4.1450	 5.3830
 4.1480	 5.3930
 4.1520	 5.3820
 4.1550	 5.3930
 4.1580	 5.3900
 4.1620	 5.4130
 4.1650	 5.4420
 4.1680	 5.4180
 4.1720	 5.4010
 4.1750	 5.4130
 4.1780	 5.4340
 4.1820	 5.3850
 4.1850	 5.4260
 4.1890	 5.4970
 4.1920	 5.4510
 4.1950	 5.4070
 4.1990	 5.3950
 4.2020	 5.4430
 4.2060	 5.5970
 4.2090	 5.6080
 4.2120	 5.5660
 4.2160	 5.6260
 4.2190	 5.6990
 4.2230	 5.7470
 4.2260	 5.7670
 4.2300	 5.7240
 4.2330	 5.7790
 4.2360	 5.8400
 4.2400	 5.8790
 4.2430	 5.9120
 4.2470	 5.8270
 4.2500	 5.7310
 4.2540	 5.6930
 4.2570	 5.6340
 4.2610	 5.6720
 4.2640	 5.7680
 4.2680	 5.8550
 4.2710	 5.8290
 4.2750	 5.7190
 4.2780	 5.6740
 4.2820	 5.5640
 4.2850	 5.4890
 4.2890	 5.5750
 4.2930	 5.7040
 4.2960	 5.7500
 4.3000	 5.7490
 4.3030	 5.6970
 4.3070	 5.6240
 4.3100	 5.4810
 4.3140	 5.4950
 4.3180	 5.5600
 4.3210	 5.5370
 4.3250	 5.5140
 4.3280	 5.4630
 4.3320	 5.4550
 4.3360	 5.5060
 4.3390	 5.5980
 4.3430	 5.5620
 4.3470	 5.4690
 4.3500	 5.4030
 4.3540	 5.3550
 4.3570	 5.3720
 4.3610	 5.4020
 4.3650	 5.4140
 4.3680	 5.4290
 4.3720	 5.4320
 4.3760	 5.4000
 4.3800	 5.4010
 4.3830	 5.4010
 4.3870	 5.4090
 4.3910	 5.3880
 4.3940	 5.3450
 4.3980	 5.4020
 4.4020	 5.4720
 4.4060	 5.4270
 4.4090	 5.3430
 4.4130	 5.3080
 4.4170	 5.2990
 4.4210	 5.3280
 4.4240	 5.3610
 4.4280	 5.3940
 4.4320	 5.4300
 4.4360	 5.4160
 4.4400	 5.4020
 4.4430	 5.3230
 4.4470	 5.3340
 4.4510	 5.4070
 4.4550	 5.3700
 4.4590	 5.3370
 4.4620	 5.3830
 4.4660	 5.3660
 4.4700	 5.3530
 4.4740	 5.3180
 4.4780	 5.3650
 4.4820	 5.3350
 4.4860	 5.2300
 4.4900	 5.2780
 4.4930	 5.3900
 4.4970	 5.3480
 4.5010	 5.2490
 4.5050	 5.2680
 4.5090	 5.2630
 4.5130	 5.2260
 4.5170	 5.2940
 4.5210	 5.3530
 4.5250	 5.3020
 4.5290	 5.2190
 4.5330	 5.2700
 4.5370	 5.3160
 4.5410	 5.2660
 4.5450	 5.1870
 4.5490	 5.2160
 4.5530	 5.2290
 4.5570	 5.2630
 4.5610	 5.2910
 4.5650	 5.3240
 4.5690	 5.3020
 4.5730	 5.3050
 4.5770	 5.2560
 4.5810	 5.2190
 4.5850	 5.2520
 4.5890	 5.3240
 4.5930	 5.2560
 4.5970	 5.2320
 4.6010	 5.2460
 4.6050	 5.2380
 4.6090	 5.1980
 4.6130	 5.1540
 4.6170	 5.1050
 4.6220	 5.1890
 4.6260	 5.2190
 4.6300	 5.1820
 4.6340	 5.1680
 4.6380	 5.2090
 4.6420	 5.2470
 4.6460	 5.2120
 4.6510	 5.1620
 4.6550	 5.2020
 4.6590	 5.1950
 4.6630	 5.1420
 4.6670	 5.0850
 4.6720	 5.0640
 4.6760	 5.0880
 4.6800	 5.1710
 4.6840	 5.1770
 4.6880	 5.1500
 4.6930	 5.1050
 4.6970	 5.1200
 4.7010	 5.1580
 4.7050	 5.1650
 4.7100	 5.1630
 4.7140	 5.2260
 4.7180	 5.2250
 4.7230	 5.1780
 4.7270	 5.1760
 4.7310	 5.2080
 4.7360	 5.1670
 4.7400	 5.1660
 4.7440	 5.2530
 4.7490	 5.2600
 4.7530	 5.1950
 4.7570	 5.1900
 4.7620	 5.1820
 4.7660	 5.1810
 4.7700	 5.1320
 4.7750	 5.1450
 4.7790	 5.1770
 4.7840	 5.2120
 4.7880	 5.1670
 4.7920	 5.1410
 4.7970	 5.2020
 4.8010	 5.2370
 4.8060	 5.2550
 4.8100	 5.2360
 4.8150	 5.1750
 4.8190	 5.2100
 4.8240	 5.2660
 4.8280	 5.2800
 4.8330	 5.2730
 4.8370	 5.2480
 4.8420	 5.2010
 4.8460	 5.1990
 4.8510	 5.1930
 4.8550	 5.2110
 4.8600	 5.2040
 4.8640	 5.2270
 4.8690	 5.2670
 4.8730	 5.2780
 4.8780	 5.1850
 4.8830	 5.1460
 4.8870	 5.1730
 4.8920	 5.2450
 4.8960	 5.2680
 4.9010	 5.2890
 4.9060	 5.2020
 4.9100	 5.1460
 4.9150	 5.1380
 4.9200	 5.2250
 4.9240	 5.2130
 4.9290	 5.1670
 4.9340	 5.2220
 4.9380	 5.3370
 4.9430	 5.3040
 4.9480	 5.2160
 4.9530	 5.1640
 4.9570	 5.2140
 4.9620	 5.2440
 4.9670	 5.2650
 4.9720	 5.2700
 4.9760	 5.3360
 4.9810	 5.3060
 4.9860	 5.2960
 4.9910	 5.3300
 4.9960	 5.3690
 5.0000	 5.3090
 5.0050	 5.2980
 5.0100	 5.3650
 5.0150	 5.3820
 5.0200	 5.3160
 5.0250	 5.2640
 5.0290	 5.2590
 5.0340	 5.3600
 5.0390	 5.3740
 5.0440	 5.3740
 5.0490	 5.3580
 5.0540	 5.3540
 5.0590	 5.3030
 5.0640	 5.2750
 5.0690	 5.2590
 5.0740	 5.3010
 5.0790	 5.2660
 5.0840	 5.2910
 5.0890	 5.3120
 5.0940	 5.3360
 5.0990	 5.3150
 5.1040	 5.2800
 5.1090	 5.2980
 5.1140	 5.3640
 5.1190	 5.3000
 5.1240	 5.2680
 5.1290	 5.2780
 5.1340	 5.3520
 5.1390	 5.3850
 5.1440	 5.4340
 5.1490	 5.4010
 5.1540	 5.3440
 5.1600	 5.3070
 5.1650	 5.3650
 5.1700	 5.3600
 5.1750	 5.3420
 5.1800	 5.3020
 5.1850	 5.3430
 5.1910	 5.3260
 5.1960	 5.3570
 5.2010	 5.3320
 5.2060	 5.3160
 5.2110	 5.3340
 5.2170	 5.4050
 5.2220	 5.3710
 5.2270	 5.4200
 5.2320	 5.4150
 5.2380	 5.3690
 5.2430	 5.3400
 5.2480	 5.3850
 5.2540	 5.3330
 5.2590	 5.3300
 5.2640	 5.2860
 5.2700	 5.2660
 5.2750	 5.2790
 5.2800	 5.3400
 5.2860	 5.3370
 5.2910	 5.3360
 5.2970	 5.3160
 5.3020	 5.3000
 5.3070	 5.2500
 5.3130	 5.2950
 5.3180	 5.3120
 5.3240	 5.3330
 5.3290	 5.3250
 5.3350	 5.3640
 5.3400	 5.2900
 5.3460	 5.2500
 5.3510	 5.2380
 5.3570	 5.2200
 5.3620	 5.2380
 5.3680	 5.2710
 5.3730	 5.2270
 5.3790	 5.2100
 5.3850	 5.2430
 5.3900	 5.3250
 5.3960	 5.3180
 5.4010	 5.2680
 5.4070	 5.1890
 5.4130	 5.1690
 5.4180	 5.1500
 5.4240	 5.1850
 5.4300	 5.1480
 5.4350	 5.1400
