Name: Arctostaphylos glandulosa 1
Type: vegetation
Class: Shrub
Genus: Arctostaphylos
Species: glandulosa
Sample No.: VH117
Owner: UCSB
Wavelength Range: VSWIR
Origin: 34.5084; -119.7682; WGS84
Collection Date: 6/3/2013
Description: Samples were collected as part of the HyspIRI Airborne Campaign. 48 individual plants were sampled in three times in 2013 - spring  summer  and fall. The name of the sample includes a 1  2  or 3 which references a different individual of the species. Samples were taken to JPL and processed within 48 hours of collection. The same leaves were processed in the Nicolet and then measured using the ASD.
Measurement: Bidirectional reflectance
First Column: X
Second Column: Y
X Units: Wavelength (micrometers)
Y Units: Reflectance (percentage)
First X Value: 0.35
Last X Value: 2.5
Number of X Values: 2151
Additional Information: vegetation.shrub.arctostaphylos.glandulosa.vswir.vh117.ucsb.asd.ancillary.txt

 0.3500	 4.9590
 0.3510	 4.9610
 0.3520	 4.9230
 0.3530	 4.8870
 0.3540	 4.8840
 0.3550	 4.8510
 0.3560	 4.8130
 0.3570	 4.7360
 0.3580	 4.5900
 0.3590	 4.6160
 0.3600	 4.7420
 0.3610	 4.8530
 0.3620	 4.8170
 0.3630	 4.7600
 0.3640	 4.7090
 0.3650	 4.6860
 0.3660	 4.8010
 0.3670	 4.8240
 0.3680	 4.7480
 0.3690	 4.7180
 0.3700	 4.6480
 0.3710	 4.6390
 0.3720	 4.7190
 0.3730	 4.7700
 0.3740	 4.7200
 0.3750	 4.6190
 0.3760	 4.5560
 0.3770	 4.5770
 0.3780	 4.6050
 0.3790	 4.6330
 0.3800	 4.7070
 0.3810	 4.6740
 0.3820	 4.6420
 0.3830	 4.6660
 0.3840	 4.5830
 0.3850	 4.5810
 0.3860	 4.6250
 0.3870	 4.6240
 0.3880	 4.6940
 0.3890	 4.6700
 0.3900	 4.5580
 0.3910	 4.5470
 0.3920	 4.5850
 0.3930	 4.6240
 0.3940	 4.6330
 0.3950	 4.6140
 0.3960	 4.6020
 0.3970	 4.5890
 0.3980	 4.5570
 0.3990	 4.5680
 0.4000	 4.5920
 0.4010	 4.5990
 0.4020	 4.5670
 0.4030	 4.5670
 0.4040	 4.5730
 0.4050	 4.5550
 0.4060	 4.5550
 0.4070	 4.5680
 0.4080	 4.5790
 0.4090	 4.5680
 0.4100	 4.5480
 0.4110	 4.5250
 0.4120	 4.5130
 0.4130	 4.5430
 0.4140	 4.5500
 0.4150	 4.5430
 0.4160	 4.5470
 0.4170	 4.5450
 0.4180	 4.5490
 0.4190	 4.5640
 0.4200	 4.5850
 0.4210	 4.5910
 0.4220	 4.5990
 0.4230	 4.6200
 0.4240	 4.6330
 0.4250	 4.6460
 0.4260	 4.6650
 0.4270	 4.6950
 0.4280	 4.7260
 0.4290	 4.7610
 0.4300	 4.7980
 0.4310	 4.8380
 0.4320	 4.8750
 0.4330	 4.9120
 0.4340	 4.9520
 0.4350	 4.9890
 0.4360	 5.0310
 0.4370	 5.0750
 0.4380	 5.1070
 0.4390	 5.1480
 0.4400	 5.1990
 0.4410	 5.2530
 0.4420	 5.2840
 0.4430	 5.3130
 0.4440	 5.3480
 0.4450	 5.3910
 0.4460	 5.4330
 0.4470	 5.4750
 0.4480	 5.5140
 0.4490	 5.5400
 0.4500	 5.5650
 0.4510	 5.5920
 0.4520	 5.6230
 0.4530	 5.6660
 0.4540	 5.6890
 0.4550	 5.6980
 0.4560	 5.7220
 0.4570	 5.7330
 0.4580	 5.7420
 0.4590	 5.7570
 0.4600	 5.7770
 0.4610	 5.7900
 0.4620	 5.7990
 0.4630	 5.8110
 0.4640	 5.8070
 0.4650	 5.8060
 0.4660	 5.8130
 0.4670	 5.8160
 0.4680	 5.8220
 0.4690	 5.8280
 0.4700	 5.8330
 0.4710	 5.8400
 0.4720	 5.8410
 0.4730	 5.8380
 0.4740	 5.8420
 0.4750	 5.8460
 0.4760	 5.8470
 0.4770	 5.8490
 0.4780	 5.8650
 0.4790	 5.8730
 0.4800	 5.8700
 0.4810	 5.8660
 0.4820	 5.8760
 0.4830	 5.8850
 0.4840	 5.8930
 0.4850	 5.9100
 0.4860	 5.9140
 0.4870	 5.9200
 0.4880	 5.9390
 0.4890	 5.9500
 0.4900	 5.9650
 0.4910	 5.9850
 0.4920	 6.0040
 0.4930	 6.0270
 0.4940	 6.0510
 0.4950	 6.0730
 0.4960	 6.0990
 0.4970	 6.1300
 0.4980	 6.1690
 0.4990	 6.2160
 0.5000	 6.2630
 0.5010	 6.3060
 0.5020	 6.3530
 0.5030	 6.4180
 0.5040	 6.4820
 0.5050	 6.5510
 0.5060	 6.6300
 0.5070	 6.7120
 0.5080	 6.8060
 0.5090	 6.9100
 0.5100	 7.0200
 0.5110	 7.1350
 0.5120	 7.2610
 0.5130	 7.3980
 0.5140	 7.5420
 0.5150	 7.6930
 0.5160	 7.8560
 0.5170	 8.0320
 0.5180	 8.2070
 0.5190	 8.3820
 0.5200	 8.5620
 0.5210	 8.7510
 0.5220	 8.9380
 0.5230	 9.1230
 0.5240	 9.3060
 0.5250	 9.4820
 0.5260	 9.6560
 0.5270	 9.8240
 0.5280	 9.9780
 0.5290	10.1220
 0.5300	10.2610
 0.5310	10.3940
 0.5320	10.5140
 0.5330	10.6220
 0.5340	10.7210
 0.5350	10.8100
 0.5360	10.8980
 0.5370	10.9820
 0.5380	11.0590
 0.5390	11.1300
 0.5400	11.1970
 0.5410	11.2710
 0.5420	11.3500
 0.5430	11.4190
 0.5440	11.4810
 0.5450	11.5350
 0.5460	11.5810
 0.5470	11.6110
 0.5480	11.6370
 0.5490	11.6680
 0.5500	11.7050
 0.5510	11.7310
 0.5520	11.7470
 0.5530	11.7540
 0.5540	11.7510
 0.5550	11.7350
 0.5560	11.7050
 0.5570	11.6630
 0.5580	11.6150
 0.5590	11.5580
 0.5600	11.4900
 0.5610	11.4190
 0.5620	11.3430
 0.5630	11.2600
 0.5640	11.1720
 0.5650	11.0750
 0.5660	10.9770
 0.5670	10.8780
 0.5680	10.7700
 0.5690	10.6570
 0.5700	10.5400
 0.5710	10.4210
 0.5720	10.3070
 0.5730	10.1940
 0.5740	10.0820
 0.5750	 9.9730
 0.5760	 9.8750
 0.5770	 9.7890
 0.5780	 9.7140
 0.5790	 9.6440
 0.5800	 9.5740
 0.5810	 9.5040
 0.5820	 9.4370
 0.5830	 9.3750
 0.5840	 9.3100
 0.5850	 9.2460
 0.5860	 9.1950
 0.5870	 9.1510
 0.5880	 9.1070
 0.5890	 9.0590
 0.5900	 9.0150
 0.5910	 8.9690
 0.5920	 8.9240
 0.5930	 8.8920
 0.5940	 8.8650
 0.5950	 8.8430
 0.5960	 8.8240
 0.5970	 8.8030
 0.5980	 8.7830
 0.5990	 8.7640
 0.6000	 8.7420
 0.6010	 8.7170
 0.6020	 8.6870
 0.6030	 8.6530
 0.6040	 8.6110
 0.6050	 8.5680
 0.6060	 8.5200
 0.6070	 8.4680
 0.6080	 8.4160
 0.6090	 8.3660
 0.6100	 8.3210
 0.6110	 8.2790
 0.6120	 8.2160
 0.6130	 8.1430
 0.6140	 8.0720
 0.6150	 8.0060
 0.6160	 7.9490
 0.6170	 7.8960
 0.6180	 7.8420
 0.6190	 7.8000
 0.6200	 7.7640
 0.6210	 7.7290
 0.6220	 7.6960
 0.6230	 7.6680
 0.6240	 7.6470
 0.6250	 7.6320
 0.6260	 7.6130
 0.6270	 7.5980
 0.6280	 7.5860
 0.6290	 7.5770
 0.6300	 7.5700
 0.6310	 7.5590
 0.6320	 7.5420
 0.6330	 7.5260
 0.6340	 7.5000
 0.6350	 7.4650
 0.6360	 7.4240
 0.6370	 7.3800
 0.6380	 7.3270
 0.6390	 7.2650
 0.6400	 7.2010
 0.6410	 7.1330
 0.6420	 7.0610
 0.6430	 6.9890
 0.6440	 6.9180
 0.6450	 6.8430
 0.6460	 6.7730
 0.6470	 6.7130
 0.6480	 6.6550
 0.6490	 6.6060
 0.6500	 6.5660
 0.6510	 6.5260
 0.6520	 6.4920
 0.6530	 6.4610
 0.6540	 6.4320
 0.6550	 6.4000
 0.6560	 6.3660
 0.6570	 6.3280
 0.6580	 6.2860
 0.6590	 6.2390
 0.6600	 6.1880
 0.6610	 6.1360
 0.6620	 6.0880
 0.6630	 6.0400
 0.6640	 5.9940
 0.6650	 5.9520
 0.6660	 5.9150
 0.6670	 5.8820
 0.6680	 5.8540
 0.6690	 5.8350
 0.6700	 5.8190
 0.6710	 5.8070
 0.6720	 5.7990
 0.6730	 5.7970
 0.6740	 5.7980
 0.6750	 5.8030
 0.6760	 5.8120
 0.6770	 5.8250
 0.6780	 5.8420
 0.6790	 5.8630
 0.6800	 5.8900
 0.6810	 5.9250
 0.6820	 5.9710
 0.6830	 6.0310
 0.6840	 6.1030
 0.6850	 6.1920
 0.6860	 6.3030
 0.6870	 6.4390
 0.6880	 6.6030
 0.6890	 6.8080
 0.6900	 7.0570
 0.6910	 7.3510
 0.6920	 7.7100
 0.6930	 8.1270
 0.6940	 8.5960
 0.6950	 9.1270
 0.6960	 9.7180
 0.6970	10.3640
 0.6980	11.0610
 0.6990	11.8080
 0.7000	12.5910
 0.7010	13.4040
 0.7020	14.2460
 0.7030	15.1050
 0.7040	15.9750
 0.7050	16.8490
 0.7060	17.7250
 0.7070	18.6020
 0.7080	19.4760
 0.7090	20.3420
 0.7100	21.2010
 0.7110	22.0560
 0.7120	22.9080
 0.7130	23.7490
 0.7140	24.5790
 0.7150	25.4000
 0.7160	26.2110
 0.7170	27.0110
 0.7180	27.7940
 0.7190	28.5640
 0.7200	29.3230
 0.7210	30.0560
 0.7220	30.7680
 0.7230	31.4590
 0.7240	32.1260
 0.7250	32.7700
 0.7260	33.3890
 0.7270	33.9800
 0.7280	34.5390
 0.7290	35.0710
 0.7300	35.5770
 0.7310	36.0550
 0.7320	36.5060
 0.7330	36.9310
 0.7340	37.3290
 0.7350	37.7030
 0.7360	38.0560
 0.7370	38.3870
 0.7380	38.6940
 0.7390	38.9810
 0.7400	39.2500
 0.7410	39.5000
 0.7420	39.7310
 0.7430	39.9420
 0.7440	40.1380
 0.7450	40.3220
 0.7460	40.4920
 0.7470	40.6420
 0.7480	40.7810
 0.7490	40.9130
 0.7500	41.0310
 0.7510	41.1390
 0.7520	41.2390
 0.7530	41.3310
 0.7540	41.4070
 0.7550	41.4800
 0.7560	41.5520
 0.7570	41.6120
 0.7580	41.6640
 0.7590	41.7150
 0.7600	41.7680
 0.7610	41.8120
 0.7620	41.8490
 0.7630	41.8820
 0.7640	41.9120
 0.7650	41.9380
 0.7660	41.9660
 0.7670	41.9930
 0.7680	42.0160
 0.7690	42.0380
 0.7700	42.0570
 0.7710	42.0740
 0.7720	42.0950
 0.7730	42.1140
 0.7740	42.1310
 0.7750	42.1470
 0.7760	42.1630
 0.7770	42.1720
 0.7780	42.1830
 0.7790	42.2040
 0.7800	42.2170
 0.7810	42.2270
 0.7820	42.2400
 0.7830	42.2560
 0.7840	42.2640
 0.7850	42.2720
 0.7860	42.2840
 0.7870	42.2950
 0.7880	42.3050
 0.7890	42.3130
 0.7900	42.3230
 0.7910	42.3310
 0.7920	42.3420
 0.7930	42.3510
 0.7940	42.3530
 0.7950	42.3620
 0.7960	42.3680
 0.7970	42.3720
 0.7980	42.3830
 0.7990	42.3890
 0.8000	42.3920
 0.8010	42.3940
 0.8020	42.3940
 0.8030	42.3960
 0.8040	42.3990
 0.8050	42.3990
 0.8060	42.3980
 0.8070	42.3980
 0.8080	42.4010
 0.8090	42.4050
 0.8100	42.4010
 0.8110	42.3980
 0.8120	42.4010
 0.8130	42.3980
 0.8140	42.3940
 0.8150	42.3900
 0.8160	42.3870
 0.8170	42.3850
 0.8180	42.3840
 0.8190	42.3790
 0.8200	42.3670
 0.8210	42.3710
 0.8220	42.3700
 0.8230	42.3600
 0.8240	42.3560
 0.8250	42.3480
 0.8260	42.3380
 0.8270	42.3290
 0.8280	42.3240
 0.8290	42.3150
 0.8300	42.3050
 0.8310	42.2970
 0.8320	42.2920
 0.8330	42.2870
 0.8340	42.2790
 0.8350	42.2700
 0.8360	42.2630
 0.8370	42.2570
 0.8380	42.2510
 0.8390	42.2470
 0.8400	42.2450
 0.8410	42.2430
 0.8420	42.2400
 0.8430	42.2370
 0.8440	42.2390
 0.8450	42.2400
 0.8460	42.2390
 0.8470	42.2430
 0.8480	42.2450
 0.8490	42.2400
 0.8500	42.2290
 0.8510	42.2370
 0.8520	42.2430
 0.8530	42.2400
 0.8540	42.2370
 0.8550	42.2400
 0.8560	42.2410
 0.8570	42.2400
 0.8580	42.2430
 0.8590	42.2410
 0.8600	42.2390
 0.8610	42.2390
 0.8620	42.2350
 0.8630	42.2390
 0.8640	42.2440
 0.8650	42.2440
 0.8660	42.2380
 0.8670	42.2350
 0.8680	42.2390
 0.8690	42.2490
 0.8700	42.2520
 0.8710	42.2550
 0.8720	42.2600
 0.8730	42.2670
 0.8740	42.2610
 0.8750	42.2630
 0.8760	42.2740
 0.8770	42.2720
 0.8780	42.2680
 0.8790	42.2660
 0.8800	42.2690
 0.8810	42.2700
 0.8820	42.2670
 0.8830	42.2650
 0.8840	42.2680
 0.8850	42.2710
 0.8860	42.2680
 0.8870	42.2620
 0.8880	42.2550
 0.8890	42.2490
 0.8900	42.2480
 0.8910	42.2480
 0.8920	42.2430
 0.8930	42.2370
 0.8940	42.2320
 0.8950	42.2280
 0.8960	42.2250
 0.8970	42.2210
 0.8980	42.2170
 0.8990	42.2140
 0.9000	42.2090
 0.9010	42.2040
 0.9020	42.1970
 0.9030	42.1900
 0.9040	42.1860
 0.9050	42.1810
 0.9060	42.1810
 0.9070	42.1810
 0.9080	42.1580
 0.9090	42.1520
 0.9100	42.1520
 0.9110	42.1420
 0.9120	42.1300
 0.9130	42.1240
 0.9140	42.1230
 0.9150	42.1180
 0.9160	42.1070
 0.9170	42.0960
 0.9180	42.0880
 0.9190	42.0800
 0.9200	42.0600
 0.9210	42.0450
 0.9220	42.0360
 0.9230	42.0240
 0.9240	42.0030
 0.9250	41.9910
 0.9260	41.9820
 0.9270	41.9550
 0.9280	41.9310
 0.9290	41.9100
 0.9300	41.8890
 0.9310	41.8580
 0.9320	41.8330
 0.9330	41.8030
 0.9340	41.7670
 0.9350	41.7390
 0.9360	41.7100
 0.9370	41.6810
 0.9380	41.6510
 0.9390	41.6090
 0.9400	41.5750
 0.9410	41.5360
 0.9420	41.4880
 0.9430	41.4500
 0.9440	41.4020
 0.9450	41.3480
 0.9460	41.2910
 0.9470	41.2240
 0.9480	41.1590
 0.9490	41.0930
 0.9500	41.0230
 0.9510	40.9470
 0.9520	40.8530
 0.9530	40.7490
 0.9540	40.6470
 0.9550	40.5660
 0.9560	40.4830
 0.9570	40.3900
 0.9580	40.2890
 0.9590	40.2010
 0.9600	40.1240
 0.9610	40.0520
 0.9620	39.9800
 0.9630	39.9160
 0.9640	39.8650
 0.9650	39.8210
 0.9660	39.7760
 0.9670	39.7200
 0.9680	39.6810
 0.9690	39.6530
 0.9700	39.6170
 0.9710	39.5890
 0.9720	39.5660
 0.9730	39.5450
 0.9740	39.5250
 0.9750	39.5120
 0.9760	39.5050
 0.9770	39.4980
 0.9780	39.4840
 0.9790	39.4550
 0.9800	39.4570
 0.9810	39.4730
 0.9820	39.4660
 0.9830	39.4700
 0.9840	39.4750
 0.9850	39.4810
 0.9860	39.4920
 0.9870	39.5110
 0.9880	39.5160
 0.9890	39.5250
 0.9900	39.5630
 0.9910	39.5790
 0.9920	39.6290
 0.9930	39.6790
 0.9940	39.7290
 0.9950	39.7790
 0.9960	39.8290
 0.9970	39.8790
 0.9980	39.9290
 0.9990	39.9790
 1.0000	40.0290
 1.0010	40.0800
 1.0020	40.1300
 1.0030	40.1800
 1.0040	40.2300
 1.0050	40.2800
 1.0060	40.3300
 1.0070	40.3800
 1.0080	40.4300
 1.0090	40.4800
 1.0100	40.4800
 1.0110	40.5170
 1.0120	40.5530
 1.0130	40.5880
 1.0140	40.6230
 1.0150	40.6580
 1.0160	40.6920
 1.0170	40.7240
 1.0180	40.7520
 1.0190	40.7790
 1.0200	40.8080
 1.0210	40.8420
 1.0220	40.8760
 1.0230	40.9110
 1.0240	40.9510
 1.0250	40.9820
 1.0260	41.0060
 1.0270	41.0350
 1.0280	41.0590
 1.0290	41.0880
 1.0300	41.1220
 1.0310	41.1520
 1.0320	41.1850
 1.0330	41.2090
 1.0340	41.2330
 1.0350	41.2600
 1.0360	41.2800
 1.0370	41.3010
 1.0380	41.3230
 1.0390	41.3430
 1.0400	41.3640
 1.0410	41.3900
 1.0420	41.4120
 1.0430	41.4310
 1.0440	41.4510
 1.0450	41.4680
 1.0460	41.4860
 1.0470	41.5050
 1.0480	41.5240
 1.0490	41.5450
 1.0500	41.5630
 1.0510	41.5800
 1.0520	41.5970
 1.0530	41.6110
 1.0540	41.6240
 1.0550	41.6360
 1.0560	41.6460
 1.0570	41.6590
 1.0580	41.6730
 1.0590	41.6840
 1.0600	41.6940
 1.0610	41.7050
 1.0620	41.7160
 1.0630	41.7260
 1.0640	41.7400
 1.0650	41.7500
 1.0660	41.7520
 1.0670	41.7590
 1.0680	41.7660
 1.0690	41.7750
 1.0700	41.7800
 1.0710	41.7860
 1.0720	41.7900
 1.0730	41.7900
 1.0740	41.7930
 1.0750	41.7980
 1.0760	41.7990
 1.0770	41.7990
 1.0780	41.7980
 1.0790	41.7950
 1.0800	41.7930
 1.0810	41.7950
 1.0820	41.7920
 1.0830	41.7890
 1.0840	41.7850
 1.0850	41.7810
 1.0860	41.7740
 1.0870	41.7650
 1.0880	41.7550
 1.0890	41.7450
 1.0900	41.7310
 1.0910	41.7200
 1.0920	41.7110
 1.0930	41.6980
 1.0940	41.6830
 1.0950	41.6690
 1.0960	41.6550
 1.0970	41.6390
 1.0980	41.6240
 1.0990	41.6070
 1.1000	41.5890
 1.1010	41.5680
 1.1020	41.5440
 1.1030	41.5220
 1.1040	41.4990
 1.1050	41.4740
 1.1060	41.4490
 1.1070	41.4260
 1.1080	41.3990
 1.1090	41.3720
 1.1100	41.3410
 1.1110	41.3090
 1.1120	41.2750
 1.1130	41.2400
 1.1140	41.2010
 1.1150	41.1630
 1.1160	41.1200
 1.1170	41.0730
 1.1180	41.0220
 1.1190	40.9660
 1.1200	40.9070
 1.1210	40.8460
 1.1220	40.7800
 1.1230	40.7090
 1.1240	40.6360
 1.1250	40.5580
 1.1260	40.4750
 1.1270	40.3850
 1.1280	40.2910
 1.1290	40.1900
 1.1300	40.0830
 1.1310	39.9680
 1.1320	39.8490
 1.1330	39.7220
 1.1340	39.5870
 1.1350	39.4450
 1.1360	39.2960
 1.1370	39.1390
 1.1380	38.9740
 1.1390	38.8040
 1.1400	38.6240
 1.1410	38.4400
 1.1420	38.2500
 1.1430	38.0550
 1.1440	37.8600
 1.1450	37.6600
 1.1460	37.4640
 1.1470	37.2650
 1.1480	37.0740
 1.1490	36.8830
 1.1500	36.7020
 1.1510	36.5250
 1.1520	36.3590
 1.1530	36.2010
 1.1540	36.0540
 1.1550	35.9160
 1.1560	35.7890
 1.1570	35.6730
 1.1580	35.5680
 1.1590	35.4720
 1.1600	35.3850
 1.1610	35.3080
 1.1620	35.2370
 1.1630	35.1750
 1.1640	35.1190
 1.1650	35.0660
 1.1660	35.0170
 1.1670	34.9740
 1.1680	34.9370
 1.1690	34.9020
 1.1700	34.8730
 1.1710	34.8420
 1.1720	34.8100
 1.1730	34.7800
 1.1740	34.7510
 1.1750	34.7200
 1.1760	34.6910
 1.1770	34.6610
 1.1780	34.6290
 1.1790	34.5950
 1.1800	34.5610
 1.1810	34.5280
 1.1820	34.4940
 1.1830	34.4580
 1.1840	34.4230
 1.1850	34.3890
 1.1860	34.3550
 1.1870	34.3260
 1.1880	34.2980
 1.1890	34.2720
 1.1900	34.2470
 1.1910	34.2240
 1.1920	34.2020
 1.1930	34.1800
 1.1940	34.1610
 1.1950	34.1430
 1.1960	34.1290
 1.1970	34.1200
 1.1980	34.1100
 1.1990	34.1050
 1.2000	34.1020
 1.2010	34.1000
 1.2020	34.1020
 1.2030	34.1070
 1.2040	34.1170
 1.2050	34.1310
 1.2060	34.1490
 1.2070	34.1720
 1.2080	34.1960
 1.2090	34.2240
 1.2100	34.2560
 1.2110	34.2910
 1.2120	34.3290
 1.2130	34.3700
 1.2140	34.4150
 1.2150	34.4610
 1.2160	34.5100
 1.2170	34.5610
 1.2180	34.6140
 1.2190	34.6660
 1.2200	34.7210
 1.2210	34.7780
 1.2220	34.8330
 1.2230	34.8900
 1.2240	34.9480
 1.2250	35.0030
 1.2260	35.0580
 1.2270	35.1120
 1.2280	35.1630
 1.2290	35.2120
 1.2300	35.2580
 1.2310	35.3040
 1.2320	35.3500
 1.2330	35.3920
 1.2340	35.4330
 1.2350	35.4730
 1.2360	35.5120
 1.2370	35.5490
 1.2380	35.5860
 1.2390	35.6230
 1.2400	35.6560
 1.2410	35.6880
 1.2420	35.7200
 1.2430	35.7490
 1.2440	35.7770
 1.2450	35.8070
 1.2460	35.8330
 1.2470	35.8590
 1.2480	35.8860
 1.2490	35.9110
 1.2500	35.9340
 1.2510	35.9560
 1.2520	35.9790
 1.2530	35.9990
 1.2540	36.0160
 1.2550	36.0320
 1.2560	36.0460
 1.2570	36.0580
 1.2580	36.0700
 1.2590	36.0810
 1.2600	36.0940
 1.2610	36.1030
 1.2620	36.1090
 1.2630	36.1160
 1.2640	36.1210
 1.2650	36.1250
 1.2660	36.1280
 1.2670	36.1290
 1.2680	36.1280
 1.2690	36.1260
 1.2700	36.1240
 1.2710	36.1210
 1.2720	36.1150
 1.2730	36.1090
 1.2740	36.1010
 1.2750	36.0900
 1.2760	36.0790
 1.2770	36.0670
 1.2780	36.0530
 1.2790	36.0390
 1.2800	36.0260
 1.2810	36.0080
 1.2820	35.9850
 1.2830	35.9640
 1.2840	35.9400
 1.2850	35.9130
 1.2860	35.8870
 1.2870	35.8580
 1.2880	35.8260
 1.2890	35.7900
 1.2900	35.7540
 1.2910	35.7150
 1.2920	35.6740
 1.2930	35.6310
 1.2940	35.5860
 1.2950	35.5380
 1.2960	35.4860
 1.2970	35.4320
 1.2980	35.3730
 1.2990	35.3090
 1.3000	35.2430
 1.3010	35.1710
 1.3020	35.0990
 1.3030	35.0250
 1.3040	34.9470
 1.3050	34.8640
 1.3060	34.7750
 1.3070	34.6840
 1.3080	34.5900
 1.3090	34.4920
 1.3100	34.3910
 1.3110	34.2870
 1.3120	34.1750
 1.3130	34.0610
 1.3140	33.9420
 1.3150	33.8190
 1.3160	33.6910
 1.3170	33.5590
 1.3180	33.4230
 1.3190	33.2810
 1.3200	33.1350
 1.3210	32.9850
 1.3220	32.8320
 1.3230	32.6750
 1.3240	32.5130
 1.3250	32.3500
 1.3260	32.1850
 1.3270	32.0170
 1.3280	31.8470
 1.3290	31.6710
 1.3300	31.4910
 1.3310	31.3110
 1.3320	31.1280
 1.3330	30.9480
 1.3340	30.7660
 1.3350	30.5820
 1.3360	30.3990
 1.3370	30.2140
 1.3380	30.0300
 1.3390	29.8460
 1.3400	29.6620
 1.3410	29.4810
 1.3420	29.3020
 1.3430	29.1240
 1.3440	28.9490
 1.3450	28.7750
 1.3460	28.6010
 1.3470	28.4320
 1.3480	28.2650
 1.3490	28.1010
 1.3500	27.9400
 1.3510	27.7810
 1.3520	27.6230
 1.3530	27.4650
 1.3540	27.3080
 1.3550	27.1530
 1.3560	26.9980
 1.3570	26.8430
 1.3580	26.6900
 1.3590	26.5330
 1.3600	26.3740
 1.3610	26.2130
 1.3620	26.0460
 1.3630	25.8770
 1.3640	25.7040
 1.3650	25.5240
 1.3660	25.3380
 1.3670	25.1440
 1.3680	24.9410
 1.3690	24.7290
 1.3700	24.5050
 1.3710	24.2690
 1.3720	24.0210
 1.3730	23.7580
 1.3740	23.4830
 1.3750	23.1930
 1.3760	22.8840
 1.3770	22.5590
 1.3780	22.2120
 1.3790	21.8480
 1.3800	21.4680
 1.3810	21.0670
 1.3820	20.6560
 1.3830	20.2300
 1.3840	19.7930
 1.3850	19.3410
 1.3860	18.8850
 1.3870	18.4140
 1.3880	17.9480
 1.3890	17.4770
 1.3900	17.0030
 1.3910	16.5360
 1.3920	16.0690
 1.3930	15.6030
 1.3940	15.1480
 1.3950	14.6970
 1.3960	14.2590
 1.3970	13.8360
 1.3980	13.4260
 1.3990	13.0360
 1.4000	12.6610
 1.4010	12.2990
 1.4020	11.9580
 1.4030	11.6310
 1.4040	11.3220
 1.4050	11.0330
 1.4060	10.7610
 1.4070	10.5080
 1.4080	10.2730
 1.4090	10.0530
 1.4100	 9.8510
 1.4110	 9.6620
 1.4120	 9.4870
 1.4130	 9.3260
 1.4140	 9.1780
 1.4150	 9.0440
 1.4160	 8.9220
 1.4170	 8.8090
 1.4180	 8.7060
 1.4190	 8.6120
 1.4200	 8.5250
 1.4210	 8.4470
 1.4220	 8.3750
 1.4230	 8.3100
 1.4240	 8.2510
 1.4250	 8.1970
 1.4260	 8.1500
 1.4270	 8.1070
 1.4280	 8.0680
 1.4290	 8.0330
 1.4300	 8.0020
 1.4310	 7.9750
 1.4320	 7.9520
 1.4330	 7.9300
 1.4340	 7.9130
 1.4350	 7.8960
 1.4360	 7.8820
 1.4370	 7.8700
 1.4380	 7.8600
 1.4390	 7.8530
 1.4400	 7.8470
 1.4410	 7.8440
 1.4420	 7.8430
 1.4430	 7.8410
 1.4440	 7.8420
 1.4450	 7.8430
 1.4460	 7.8450
 1.4470	 7.8480
 1.4480	 7.8530
 1.4490	 7.8580
 1.4500	 7.8630
 1.4510	 7.8690
 1.4520	 7.8760
 1.4530	 7.8850
 1.4540	 7.8930
 1.4550	 7.9040
 1.4560	 7.9150
 1.4570	 7.9260
 1.4580	 7.9390
 1.4590	 7.9530
 1.4600	 7.9690
 1.4610	 7.9870
 1.4620	 8.0060
 1.4630	 8.0280
 1.4640	 8.0520
 1.4650	 8.0760
 1.4660	 8.1040
 1.4670	 8.1340
 1.4680	 8.1660
