Name: Taxodium mucronatum
Type: vegetation
Class: Tree
Genus: Taxodium
Species: mucronatum
Sample No.: JPL213
Owner: JPL
Wavelength Range: TIR
Origin: 34.12492; -118.11108; WGS84
Collection Date: 10/3/2016
Description: Samples were collected at the Huntington Garden in San Marino California as part of a JPL Subcontract studying HyTES imagery. Samples were taken to JPL and processed within 48 hours of collection. The same leaves were processed in the Nicolet and then measured using the ASD.
Measurement: Hemispherical reflectance
First Column: X
Second Column: Y
X Units: Wavelength (micrometer)
Y Units: Reflectance (percentage)
First X Value: 2.501
Last X Value: 15.387
Number of X Values: 1737
Additional Information: vegetation.tree.taxodium.mucronatum.tir.jpl213.jpl.nicolet.ancillary.txt

 2.5010	10.7720
 2.5030	10.8090
 2.5040	10.8470
 2.5050	10.7600
 2.5060	10.6990
 2.5070	10.6840
 2.5090	10.7380
 2.5100	10.6990
 2.5110	10.7150
 2.5120	10.6880
 2.5140	10.6750
 2.5150	10.6830
 2.5160	10.6560
 2.5170	10.5920
 2.5180	10.6470
 2.5200	10.7200
 2.5210	10.7060
 2.5220	10.6290
 2.5230	10.6260
 2.5250	10.6060
 2.5260	10.5770
 2.5270	10.5590
 2.5280	10.6080
 2.5300	10.6090
 2.5310	10.6130
 2.5320	10.5570
 2.5330	10.5720
 2.5340	10.5870
 2.5360	10.5510
 2.5370	10.5830
 2.5380	10.6750
 2.5390	10.6290
 2.5410	10.6300
 2.5420	10.5710
 2.5430	10.4890
 2.5440	10.4450
 2.5460	10.5190
 2.5470	10.5450
 2.5480	10.5140
 2.5490	10.5780
 2.5510	10.6280
 2.5520	10.4840
 2.5530	10.4710
 2.5540	10.6360
 2.5560	10.6770
 2.5570	10.5650
 2.5580	10.6310
 2.5590	10.5940
 2.5610	10.3820
 2.5620	10.1990
 2.5630	10.2110
 2.5650	10.2550
 2.5660	10.4560
 2.5670	10.5760
 2.5680	10.5040
 2.5700	10.3550
 2.5710	10.4780
 2.5720	10.5660
 2.5730	10.3590
 2.5750	10.3920
 2.5760	10.4920
 2.5770	10.3870
 2.5790	10.4720
 2.5800	10.4940
 2.5810	10.3750
 2.5820	10.3270
 2.5840	10.1380
 2.5850	10.1040
 2.5860	10.2800
 2.5880	10.1460
 2.5890	10.2550
 2.5900	10.4290
 2.5910	10.5060
 2.5930	10.3170
 2.5940	 9.7910
 2.5950	 9.3600
 2.5970	 9.8420
 2.5980	10.3210
 2.5990	10.5090
 2.6010	10.4180
 2.6020	10.3370
 2.6030	10.2850
 2.6040	10.1110
 2.6060	 9.7920
 2.6070	 9.8820
 2.6080	10.1240
 2.6100	10.2110
 2.6110	10.2910
 2.6120	10.4010
 2.6140	10.2900
 2.6150	10.2530
 2.6160	 9.9360
 2.6180	 9.8080
 2.6190	10.0490
 2.6200	 9.9130
 2.6220	 9.8610
 2.6230	10.1730
 2.6240	10.2780
 2.6260	10.1580
 2.6270	 9.8460
 2.6280	 9.9950
 2.6300	 9.8850
 2.6310	 9.5760
 2.6320	 9.8200
 2.6340	 9.9800
 2.6350	 9.9340
 2.6360	10.0820
 2.6380	10.0870
 2.6390	10.0950
 2.6400	10.0190
 2.6420	10.0080
 2.6430	10.0140
 2.6440	 9.9820
 2.6460	 9.8370
 2.6470	 9.9030
 2.6480	 9.9350
 2.6500	 9.9530
 2.6510	 9.8910
 2.6520	 9.7360
 2.6540	 9.6730
 2.6550	 9.7080
 2.6570	 9.6590
 2.6580	 9.8070
 2.6590	 9.7030
 2.6610	 9.6030
 2.6620	 9.5650
 2.6630	 9.5430
 2.6650	 9.2290
 2.6660	 9.0050
 2.6670	 8.9800
 2.6690	 9.1760
 2.6700	 8.8410
 2.6720	 8.8350
 2.6730	 9.3750
 2.6740	 9.4990
 2.6760	 9.2890
 2.6770	 9.1270
 2.6780	 9.1870
 2.6800	 9.2420
 2.6810	 9.4450
 2.6830	 9.5240
 2.6840	 9.3880
 2.6850	 9.4030
 2.6870	 9.3730
 2.6880	 9.3880
 2.6900	 9.4100
 2.6910	 9.4570
 2.6920	 9.2860
 2.6940	 9.0460
 2.6950	 9.0400
 2.6970	 9.2060
 2.6980	 9.3640
 2.6990	 9.4020
 2.7010	 9.2450
 2.7020	 9.2220
 2.7040	 9.3310
 2.7050	 9.3460
 2.7060	 9.3300
 2.7080	 9.3230
 2.7090	 9.0480
 2.7110	 8.7510
 2.7120	 8.7980
 2.7130	 9.2500
 2.7150	 9.3440
 2.7160	 9.2250
 2.7180	 9.0960
 2.7190	 9.0100
 2.7210	 8.6460
 2.7220	 8.7750
 2.7230	 8.8780
 2.7250	 8.7250
 2.7260	 8.8670
 2.7280	 9.1330
 2.7290	 9.1620
 2.7310	 9.1480
 2.7320	 9.1680
 2.7340	 9.1790
 2.7350	 8.9780
 2.7360	 8.9590
 2.7380	 8.9260
 2.7390	 8.6520
 2.7410	 8.5410
 2.7420	 8.7700
 2.7440	 9.0040
 2.7450	 9.1140
 2.7470	 9.2110
 2.7480	 9.2430
 2.7490	 9.1860
 2.7510	 9.2090
 2.7520	 9.1900
 2.7540	 9.1770
 2.7550	 8.7730
 2.7570	 8.6870
 2.7580	 8.9540
 2.7600	 9.1170
 2.7610	 9.1130
 2.7630	 8.9960
 2.7640	 8.9940
 2.7660	 9.1340
 2.7670	 9.0310
 2.7690	 8.9700
 2.7700	 8.9560
 2.7720	 8.9720
 2.7730	 9.0320
 2.7740	 9.1310
 2.7760	 9.1460
 2.7770	 9.0920
 2.7790	 9.0650
 2.7800	 9.0600
 2.7820	 9.0120
 2.7830	 9.0650
 2.7850	 9.0870
 2.7860	 8.9940
 2.7880	 8.8920
 2.7890	 9.0570
 2.7910	 9.1710
 2.7920	 9.2050
 2.7940	 9.1800
 2.7950	 9.1820
 2.7970	 9.1800
 2.7980	 9.1860
 2.8000	 9.1140
 2.8010	 9.0700
 2.8030	 8.9830
 2.8040	 9.0450
 2.8060	 9.1030
 2.8080	 9.1610
 2.8090	 9.1420
 2.8110	 9.1500
 2.8120	 9.1420
 2.8140	 9.1670
 2.8150	 9.1300
 2.8170	 9.1500
 2.8180	 9.1110
 2.8200	 9.0940
 2.8210	 9.0670
 2.8230	 9.1170
 2.8240	 9.2190
 2.8260	 9.2770
 2.8270	 9.2090
 2.8290	 9.2150
 2.8310	 9.2360
 2.8320	 9.2130
 2.8340	 9.1180
 2.8350	 9.0790
 2.8370	 9.1090
 2.8380	 9.1430
 2.8400	 9.1230
 2.8410	 9.1990
 2.8430	 9.2580
 2.8440	 9.2700
 2.8460	 9.1580
 2.8480	 9.1120
 2.8490	 9.1040
 2.8510	 9.1750
 2.8520	 9.2000
 2.8540	 9.1990
 2.8550	 9.1520
 2.8570	 9.1810
 2.8590	 9.1870
 2.8600	 9.1740
 2.8620	 9.2440
 2.8630	 9.3630
 2.8650	 9.2990
 2.8660	 9.1950
 2.8680	 9.1810
 2.8700	 9.2770
 2.8710	 9.2430
 2.8730	 9.1870
 2.8740	 9.2010
 2.8760	 9.3130
 2.8780	 9.2630
 2.8790	 9.2500
 2.8810	 9.2520
 2.8820	 9.2590
 2.8840	 9.1930
 2.8860	 9.1750
 2.8870	 9.1510
 2.8890	 9.2490
 2.8900	 9.2800
 2.8920	 9.2740
 2.8940	 9.2630
 2.8950	 9.2440
 2.8970	 9.2280
 2.8990	 9.3080
 2.9000	 9.2130
 2.9020	 9.1870
 2.9030	 9.2280
 2.9050	 9.2630
 2.9070	 9.2790
 2.9080	 9.3130
 2.9100	 9.2490
 2.9120	 9.2510
 2.9130	 9.3140
 2.9150	 9.3670
 2.9160	 9.3560
 2.9180	 9.3630
 2.9200	 9.3020
 2.9210	 9.2850
 2.9230	 9.2180
 2.9250	 9.2890
 2.9260	 9.3800
 2.9280	 9.3790
 2.9300	 9.2680
 2.9310	 9.2710
 2.9330	 9.3030
 2.9350	 9.3280
 2.9360	 9.2820
 2.9380	 9.3250
 2.9400	 9.3680
 2.9410	 9.3460
 2.9430	 9.3040
 2.9450	 9.3470
 2.9460	 9.3230
 2.9480	 9.3250
 2.9500	 9.2750
 2.9510	 9.2620
 2.9530	 9.2590
 2.9550	 9.3000
 2.9560	 9.3200
 2.9580	 9.3660
 2.9600	 9.3960
 2.9610	 9.4200
 2.9630	 9.3170
 2.9650	 9.2480
 2.9670	 9.2040
 2.9680	 9.2480
 2.9700	 9.2770
 2.9720	 9.3130
 2.9730	 9.3470
 2.9750	 9.3660
 2.9770	 9.3460
 2.9780	 9.3580
 2.9800	 9.3240
 2.9820	 9.3200
 2.9840	 9.2390
 2.9850	 9.2750
 2.9870	 9.3190
 2.9890	 9.3460
 2.9900	 9.3510
 2.9920	 9.3910
 2.9940	 9.3380
 2.9960	 9.3120
 2.9970	 9.3020
 2.9990	 9.3430
 3.0010	 9.3080
 3.0030	 9.2750
 3.0040	 9.2980
 3.0060	 9.3870
 3.0080	 9.3870
 3.0100	 9.3970
 3.0110	 9.3820
 3.0130	 9.3190
 3.0150	 9.2580
 3.0170	 9.3200
 3.0180	 9.3300
 3.0200	 9.3580
 3.0220	 9.3350
 3.0240	 9.3120
 3.0250	 9.2630
 3.0270	 9.2580
 3.0290	 9.2700
 3.0310	 9.3200
 3.0320	 9.2630
 3.0340	 9.2570
 3.0360	 9.3180
 3.0380	 9.3750
 3.0400	 9.3340
 3.0410	 9.2940
 3.0430	 9.2500
 3.0450	 9.2860
 3.0470	 9.3120
 3.0480	 9.3360
 3.0500	 9.2930
 3.0520	 9.3020
 3.0540	 9.3260
 3.0560	 9.3410
 3.0570	 9.3340
 3.0590	 9.3610
 3.0610	 9.3290
 3.0630	 9.3430
 3.0650	 9.3070
 3.0670	 9.2720
 3.0680	 9.2650
 3.0700	 9.3140
 3.0720	 9.2950
 3.0740	 9.2940
 3.0760	 9.2740
 3.0770	 9.3420
 3.0790	 9.3500
 3.0810	 9.3020
 3.0830	 9.2660
 3.0850	 9.3100
 3.0870	 9.2660
 3.0880	 9.2390
 3.0900	 9.2430
 3.0920	 9.3200
 3.0940	 9.3020
 3.0960	 9.2830
 3.0980	 9.2570
 3.1000	 9.2100
 3.1010	 9.2040
 3.1030	 9.2460
 3.1050	 9.2410
 3.1070	 9.2610
 3.1090	 9.2070
 3.1110	 9.1990
 3.1130	 9.2440
 3.1140	 9.2750
 3.1160	 9.2650
 3.1180	 9.3240
 3.1200	 9.3060
 3.1220	 9.2940
 3.1240	 9.2300
 3.1260	 9.2660
 3.1280	 9.2840
 3.1290	 9.2840
 3.1310	 9.2750
 3.1330	 9.2780
 3.1350	 9.2790
 3.1370	 9.2660
 3.1390	 9.2170
 3.1410	 9.2690
 3.1430	 9.2850
 3.1450	 9.2760
 3.1470	 9.2190
 3.1480	 9.2570
 3.1500	 9.2960
 3.1520	 9.3110
 3.1540	 9.2910
 3.1560	 9.2890
 3.1580	 9.2380
 3.1600	 9.2110
 3.1620	 9.2230
 3.1640	 9.2260
 3.1660	 9.1520
 3.1680	 9.1770
 3.1700	 9.2170
 3.1720	 9.2620
 3.1730	 9.2580
 3.1750	 9.2340
 3.1770	 9.2240
 3.1790	 9.2660
 3.1810	 9.2330
 3.1830	 9.2450
 3.1850	 9.2660
 3.1870	 9.2560
 3.1890	 9.1870
 3.1910	 9.2260
 3.1930	 9.2350
 3.1950	 9.2080
 3.1970	 9.1480
 3.1990	 9.2270
 3.2010	 9.2750
 3.2030	 9.2570
 3.2050	 9.1860
 3.2070	 9.2020
 3.2090	 9.2010
 3.2110	 9.2360
 3.2130	 9.2370
 3.2150	 9.2560
 3.2170	 9.2600
 3.2190	 9.2670
 3.2210	 9.2160
 3.2230	 9.1990
 3.2250	 9.1830
 3.2270	 9.2010
 3.2290	 9.1980
 3.2310	 9.1920
 3.2330	 9.1630
 3.2350	 9.2000
 3.2370	 9.2250
 3.2390	 9.2510
 3.2410	 9.2330
 3.2430	 9.2340
 3.2450	 9.2150
 3.2470	 9.2330
 3.2490	 9.2400
 3.2510	 9.2120
 3.2530	 9.1580
 3.2550	 9.1720
 3.2570	 9.1890
 3.2590	 9.2220
 3.2610	 9.2280
 3.2630	 9.2120
 3.2650	 9.1750
 3.2670	 9.2020
 3.2700	 9.2260
 3.2720	 9.2320
 3.2740	 9.1980
 3.2760	 9.1920
 3.2780	 9.1420
 3.2800	 9.1590
 3.2820	 9.1630
 3.2840	 9.2090
 3.2860	 9.2410
 3.2880	 9.2100
 3.2900	 9.1640
 3.2920	 9.2230
 3.2940	 9.2040
 3.2970	 9.1980
 3.2990	 9.1860
 3.3010	 9.1840
 3.3030	 9.1860
 3.3050	 9.1680
 3.3070	 9.1060
 3.3090	 9.1580
 3.3110	 9.1580
 3.3130	 9.1610
 3.3160	 9.1390
 3.3180	 9.1360
 3.3200	 9.1660
 3.3220	 9.2390
 3.3240	 9.2060
 3.3260	 9.1440
 3.3280	 9.1070
 3.3300	 9.1380
 3.3330	 9.1240
 3.3350	 9.1100
 3.3370	 9.0940
 3.3390	 9.0900
 3.3410	 9.0570
 3.3430	 9.0880
 3.3450	 9.0830
 3.3480	 9.0960
 3.3500	 9.0940
 3.3520	 9.1380
 3.3540	 9.1300
 3.3560	 9.1170
 3.3580	 9.0910
 3.3610	 9.0820
 3.3630	 9.0750
 3.3650	 9.1310
 3.3670	 9.1110
 3.3690	 9.1070
 3.3720	 9.1040
 3.3740	 9.1050
 3.3760	 9.0850
 3.3780	 9.0880
 3.3800	 9.0670
 3.3830	 9.0830
 3.3850	 9.0970
 3.3870	 9.1240
 3.3890	 9.0600
 3.3910	 9.0310
 3.3940	 9.0410
 3.3960	 9.0280
 3.3980	 8.9620
 3.4000	 8.9850
 3.4030	 8.9680
 3.4050	 8.9690
 3.4070	 9.0090
 3.4090	 9.1060
 3.4110	 9.1350
 3.4140	 9.2030
 3.4160	 9.2480
 3.4180	 9.3480
 3.4200	 9.4990
 3.4230	 9.7340
 3.4250	 9.9580
 3.4270	10.1540
 3.4300	10.2920
 3.4320	10.3590
 3.4340	10.2180
 3.4360	10.0570
 3.4390	 9.9330
 3.4410	 9.8710
 3.4430	 9.8060
 3.4450	 9.7320
 3.4480	 9.6840
 3.4500	 9.6780
 3.4520	 9.6420
 3.4550	 9.6180
 3.4570	 9.5910
 3.4590	 9.5540
 3.4620	 9.5340
 3.4640	 9.5230
 3.4660	 9.5060
 3.4690	 9.5160
 3.4710	 9.5090
 3.4730	 9.4630
 3.4760	 9.4120
 3.4780	 9.4110
 3.4800	 9.3930
 3.4830	 9.4120
 3.4850	 9.3720
 3.4870	 9.3850
 3.4900	 9.3570
 3.4920	 9.3150
 3.4940	 9.3150
 3.4970	 9.3140
 3.4990	 9.2710
 3.5010	 9.3050
 3.5040	 9.3500
 3.5060	 9.5380
 3.5080	 9.8700
 3.5110	10.1920
 3.5130	10.2480
 3.5160	10.1570
 3.5180	10.0150
 3.5200	 9.8920
 3.5230	 9.7910
 3.5250	 9.7540
 3.5280	 9.7450
 3.5300	 9.7140
 3.5320	 9.6320
 3.5350	 9.5850
 3.5370	 9.6010
 3.5400	 9.6140
 3.5420	 9.5710
 3.5440	 9.5620
 3.5470	 9.5410
 3.5490	 9.5330
 3.5520	 9.5030
 3.5540	 9.5490
 3.5570	 9.5620
 3.5590	 9.5520
 3.5610	 9.5500
 3.5640	 9.5520
 3.5660	 9.5020
 3.5690	 9.5100
 3.5710	 9.5090
 3.5740	 9.5070
 3.5760	 9.4880
 3.5790	 9.5070
 3.5810	 9.5220
 3.5840	 9.5290
 3.5860	 9.4940
 3.5890	 9.4850
 3.5910	 9.4770
 3.5940	 9.4940
 3.5960	 9.5100
 3.5990	 9.5010
 3.6010	 9.4860
 3.6040	 9.4710
 3.6060	 9.4430
 3.6090	 9.4330
 3.6110	 9.4440
 3.6140	 9.4900
 3.6160	 9.4930
 3.6190	 9.4950
 3.6210	 9.4690
 3.6240	 9.4600
 3.6260	 9.4760
 3.6290	 9.5010
 3.6310	 9.4660
 3.6340	 9.4710
 3.6360	 9.4800
 3.6390	 9.4990
 3.6410	 9.4710
 3.6440	 9.4620
 3.6470	 9.4370
 3.6490	 9.4550
 3.6520	 9.4850
 3.6540	 9.5170
 3.6570	 9.4680
 3.6590	 9.4580
 3.6620	 9.4800
 3.6650	 9.4780
 3.6670	 9.4720
 3.6700	 9.4830
 3.6720	 9.4670
 3.6750	 9.4630
 3.6780	 9.4500
 3.6800	 9.4670
 3.6830	 9.4490
 3.6850	 9.4740
 3.6880	 9.4520
 3.6910	 9.4540
 3.6930	 9.4810
 3.6960	 9.4800
 3.6990	 9.4890
 3.7010	 9.5080
 3.7040	 9.4840
 3.7070	 9.4710
 3.7090	 9.4640
 3.7120	 9.5000
 3.7150	 9.4970
 3.7170	 9.5210
 3.7200	 9.5070
 3.7230	 9.5030
 3.7250	 9.4930
 3.7280	 9.4940
 3.7310	 9.4600
 3.7330	 9.4670
 3.7360	 9.4990
 3.7390	 9.4970
 3.7410	 9.4520
 3.7440	 9.4530
 3.7470	 9.4840
 3.7490	 9.5200
 3.7520	 9.5230
 3.7550	 9.5330
 3.7580	 9.5380
 3.7600	 9.5610
 3.7630	 9.5600
 3.7660	 9.5560
 3.7690	 9.5410
 3.7710	 9.5650
 3.7740	 9.5610
 3.7770	 9.5370
 3.7790	 9.5080
 3.7820	 9.5000
 3.7850	 9.5100
 3.7880	 9.5400
 3.7910	 9.5490
 3.7930	 9.5870
 3.7960	 9.5650
 3.7990	 9.5400
 3.8020	 9.5340
 3.8040	 9.5600
 3.8070	 9.5310
 3.8100	 9.5290
 3.8130	 9.5390
 3.8160	 9.5700
 3.8180	 9.5720
 3.8210	 9.5750
 3.8240	 9.6030
 3.8270	 9.6390
 3.8300	 9.6160
 3.8330	 9.5950
 3.8350	 9.5890
 3.8380	 9.5820
 3.8410	 9.5400
 3.8440	 9.5210
 3.8470	 9.5260
 3.8500	 9.5350
 3.8520	 9.5410
 3.8550	 9.5760
 3.8580	 9.5660
 3.8610	 9.5860
 3.8640	 9.5640
 3.8670	 9.5470
 3.8700	 9.5600
 3.8730	 9.5710
 3.8760	 9.5710
 3.8780	 9.5900
 3.8810	 9.5860
 3.8840	 9.6110
 3.8870	 9.5970
 3.8900	 9.6200
 3.8930	 9.6160
 3.8960	 9.5960
 3.8990	 9.5850
 3.9020	 9.5940
 3.9050	 9.5970
 3.9080	 9.6080
 3.9110	 9.6050
 3.9140	 9.6250
 3.9170	 9.6340
 3.9190	 9.6280
 3.9220	 9.6110
 3.9250	 9.6390
 3.9280	 9.6280
 3.9310	 9.6090
 3.9340	 9.5960
 3.9370	 9.6060
 3.9400	 9.6050
 3.9430	 9.6090
 3.9460	 9.6060
 3.9490	 9.6080
 3.9520	 9.6120
 3.9550	 9.6130
 3.9580	 9.6050
 3.9610	 9.6120
 3.9640	 9.6050
 3.9670	 9.6210
 3.9700	 9.6470
 3.9740	 9.6660
 3.9770	 9.6440
 3.9800	 9.6290
 3.9830	 9.6060
 3.9860	 9.6070
 3.9890	 9.5940
 3.9920	 9.5890
 3.9950	 9.5890
 3.9980	 9.6230
 4.0010	 9.6520
 4.0040	 9.6470
 4.0070	 9.6150
 4.0100	 9.6320
 4.0140	 9.6340
 4.0170	 9.5970
 4.0200	 9.5870
 4.0230	 9.6030
 4.0260	 9.5780
 4.0290	 9.6020
 4.0320	 9.6170
 4.0350	 9.6120
 4.0390	 9.6260
 4.0420	 9.6420
 4.0450	 9.6310
 4.0480	 9.6360
 4.0510	 9.6150
 4.0540	 9.6040
 4.0570	 9.6280
 4.0610	 9.6440
 4.0640	 9.6290
 4.0670	 9.6110
 4.0700	 9.6010
 4.0730	 9.5970
 4.0770	 9.5810
 4.0800	 9.6110
 4.0830	 9.6220
 4.0860	 9.6120
 4.0890	 9.6050
 4.0930	 9.6000
 4.0960	 9.5790
 4.0990	 9.5810
 4.1020	 9.6120
 4.1060	 9.6060
 4.1090	 9.5710
 4.1120	 9.5980
 4.1150	 9.6100
 4.1190	 9.5950
 4.1220	 9.6050
 4.1250	 9.6200
 4.1290	 9.6060
 4.1320	 9.5900
 4.1350	 9.5790
 4.1380	 9.5650
 4.1420	 9.5550
 4.1450	 9.5640
 4.1480	 9.5330
 4.1520	 9.5340
 4.1550	 9.5630
 4.1580	 9.5850
 4.1620	 9.5980
 4.1650	 9.6010
 4.1680	 9.5720
 4.1720	 9.5690
 4.1750	 9.6020
 4.1780	 9.5910
 4.1820	 9.5470
 4.1850	 9.5390
 4.1890	 9.5460
 4.1920	 9.5710
 4.1950	 9.6030
 4.1990	 9.6300
 4.2020	 9.6880
 4.2060	 9.7430
 4.2090	 9.7500
 4.2120	 9.8130
 4.2160	 9.8780
 4.2190	 9.9550
 4.2230	10.0600
 4.2260	10.0980
 4.2300	10.0740
 4.2330	10.0880
 4.2360	10.0860
 4.2400	10.0380
 4.2430	10.0220
 4.2470	10.0160
 4.2500	 9.9250
 4.2540	 9.8370
 4.2570	 9.7840
 4.2610	 9.8730
 4.2640	10.0090
 4.2680	10.0380
 4.2710	 9.9750
 4.2750	 9.9180
 4.2780	 9.9180
 4.2820	 9.9390
 4.2850	 9.9280
 4.2890	 9.8800
 4.2930	 9.8250
 4.2960	 9.8700
 4.3000	 9.8870
 4.3030	 9.8310
 4.3070	 9.7980
 4.3100	 9.7480
 4.3140	 9.6990
 4.3180	 9.7020
 4.3210	 9.6900
 4.3250	 9.6370
 4.3280	 9.6330
 4.3320	 9.6310
 4.3360	 9.5880
 4.3390	 9.5780
 4.3430	 9.5460
 4.3470	 9.4780
 4.3500	 9.4460
 4.3540	 9.4890
 4.3580	 9.5350
 4.3610	 9.5250
 4.3650	 9.5100
 4.3690	 9.5010
 4.3720	 9.4790
 4.3760	 9.4530
 4.3800	 9.4830
 4.3830	 9.4940
 4.3870	 9.4620
 4.3910	 9.4730
 4.3940	 9.4570
 4.3980	 9.4270
 4.4020	 9.4440
 4.4060	 9.4490
 4.4090	 9.4650
 4.4130	 9.4600
 4.4170	 9.4440
 4.4210	 9.4100
 4.4240	 9.3900
 4.4280	 9.4070
 4.4320	 9.4670
 4.4360	 9.4980
 4.4400	 9.4670
 4.4430	 9.4490
 4.4470	 9.4150
 4.4510	 9.3980
 4.4550	 9.4150
 4.4590	 9.4340
 4.4630	 9.4480
 4.4660	 9.4230
 4.4700	 9.4100
 4.4740	 9.4190
 4.4780	 9.4230
 4.4820	 9.3930
 4.4860	 9.3780
 4.4900	 9.3880
 4.4930	 9.3950
 4.4970	 9.3940
 4.5010	 9.4040
 4.5050	 9.4250
 4.5090	 9.3900
 4.5130	 9.3820
 4.5170	 9.4130
 4.5210	 9.4170
 4.5250	 9.3930
 4.5290	 9.3750
 4.5330	 9.3640
 4.5370	 9.3610
 4.5410	 9.3800
 4.5450	 9.3640
 4.5490	 9.3810
 4.5530	 9.4100
 4.5570	 9.3720
 4.5610	 9.3630
 4.5650	 9.3750
 4.5690	 9.3390
 4.5730	 9.3370
 4.5770	 9.3240
 4.5810	 9.3150
 4.5850	 9.3190
 4.5890	 9.3160
 4.5930	 9.3220
 4.5970	 9.3460
 4.6010	 9.3730
 4.6050	 9.3750
 4.6090	 9.3510
 4.6130	 9.3550
 4.6170	 9.3410
 4.6220	 9.3370
 4.6260	 9.3420
 4.6300	 9.3550
 4.6340	 9.3710
 4.6380	 9.3510
 4.6420	 9.3120
 4.6460	 9.2980
 4.6510	 9.2990
 4.6550	 9.3180
 4.6590	 9.3290
 4.6630	 9.3150
 4.6670	 9.3140
 4.6720	 9.3400
 4.6760	 9.3480
 4.6800	 9.3120
 4.6840	 9.3240
 4.6880	 9.3300
 4.6930	 9.3110
 4.6970	 9.3250
 4.7010	 9.3410
 4.7050	 9.3470
 4.7100	 9.3190
 4.7140	 9.2930
 4.7180	 9.2520
 4.7230	 9.2500
 4.7270	 9.2830
 4.7310	 9.3280
 4.7360	 9.3570
 4.7400	 9.3690
 4.7440	 9.3230
 4.7490	 9.3200
 4.7530	 9.3360
 4.7570	 9.3470
 4.7620	 9.3480
 4.7660	 9.3590
 4.7700	 9.3570
 4.7750	 9.3770
 4.7790	 9.3550
 4.7840	 9.3270
 4.7880	 9.3280
 4.7920	 9.3740
 4.7970	 9.3770
 4.8010	 9.3610
 4.8060	 9.3440
 4.8100	 9.3460
 4.8150	 9.3580
 4.8190	 9.3510
 4.8240	 9.3430
 4.8280	 9.3520
 4.8330	 9.3270
 4.8370	 9.3000
 4.8420	 9.2770
 4.8460	 9.3310
 4.8510	 9.3570
 4.8550	 9.3630
 4.8600	 9.3480
 4.8640	 9.3320
 4.8690	 9.3280
 4.8740	 9.3210
 4.8780	 9.3130
 4.8830	 9.3270
 4.8870	 9.3320
 4.8920	 9.3600
 4.8970	 9.3550
 4.9010	 9.3390
 4.9060	 9.3380
 4.9100	 9.3700
 4.9150	 9.3580
 4.9200	 9.3370
 4.9240	 9.3400
 4.9290	 9.3650
 4.9340	 9.3910
 4.9390	 9.3870
 4.9430	 9.3640
 4.9480	 9.3980
 4.9530	 9.4150
 4.9570	 9.3690
 4.9620	 9.3040
 4.9670	 9.3350
 4.9720	 9.3810
 4.9760	 9.4090
 4.9810	 9.4100
 4.9860	 9.4060
 4.9910	 9.3740
 4.9960	 9.4000
 5.0000	 9.4470
 5.0050	 9.4480
 5.0100	 9.3940
 5.0150	 9.3870
 5.0200	 9.3860
 5.0250	 9.4230
 5.0300	 9.4070
 5.0340	 9.3990
 5.0390	 9.4080
 5.0440	 9.4180
 5.0490	 9.4260
 5.0540	 9.4440
 5.0590	 9.4010
 5.0640	 9.3930
 5.0690	 9.4320
 5.0740	 9.4800
 5.0790	 9.4470
 5.0840	 9.4390
 5.0890	 9.4540
 5.0940	 9.4550
 5.0990	 9.4350
 5.1040	 9.4570
 5.1090	 9.4790
 5.1140	 9.4590
 5.1190	 9.4060
 5.1240	 9.4060
 5.1290	 9.4100
 5.1340	 9.4270
 5.1390	 9.4220
 5.1440	 9.4190
 5.1490	 9.3690
 5.1550	 9.4460
 5.1600	 9.4780
 5.1650	 9.4520
 5.1700	 9.4420
 5.1750	 9.4890
 5.1800	 9.4330
 5.1850	 9.4360
 5.1910	 9.4420
 5.1960	 9.4170
 5.2010	 9.3800
 5.2060	 9.4430
 5.2110	 9.3850
 5.2170	 9.3550
 5.2220	 9.4240
 5.2270	 9.4630
 5.2330	 9.4390
 5.2380	 9.4160
 5.2430	 9.4510
 5.2480	 9.4550
 5.2540	 9.4430
 5.2590	 9.4930
 5.2640	 9.5180
 5.2700	 9.4820
 5.2750	 9.4030
 5.2800	 9.4270
 5.2860	 9.4330
 5.2910	 9.3750
 5.2970	 9.3970
 5.3020	 9.4830
 5.3080	 9.4650
 5.3130	 9.4590
 5.3180	 9.4620
 5.3240	 9.4700
 5.3290	 9.4450
 5.3350	 9.4390
 5.3400	 9.4070
 5.3460	 9.3200
 5.3510	 9.2340
 5.3570	 9.3320
 5.3620	 9.4090
 5.3680	 9.4630
 5.3740	 9.4310
 5.3790	 9.4210
 5.3850	 9.4440
 5.3900	 9.4730
 5.3960	 9.4280
 5.4010	 9.4450
 5.4070	 9.4230
 5.4130	 9.4170
 5.4180	 9.2530
 5.4240	 9.1520
 5.4300	 9.3400
 5.4350	 9.4280
 5.4410	 9.3810
 5.4470	 9.4000
 5.4530	 9.4170
 5.4580	 9.3390
 5.4640	 9.1870
 5.4700	 9.2620
 5.4760	 9.2950
 5.4810	 9.2910
