Name: Taxodium mucronatum
Type: vegetation
Class: Tree
Genus: Taxodium
Species: mucronatum
Sample No.: JPL213
Owner: JPL
Wavelength Range: VSWIR
Origin: 34.12492; -118.11108; WGS84
Collection Date: 10/3/2016
Description: Samples were collected at the Huntington Garden in San Marino California as part of a JPL Subcontract studying HyTES imagery. Samples were taken to JPL and processed within 48 hours of collection. The same leaves were processed in the Nicolet and then measured using the ASD.
Measurement: Bidirectional reflectance
First Column: X
Second Column: Y
X Units: Wavelength (micrometer)
Y Units: Reflectance (percentage)
First X Value: 0.35
Last X Value: 2.5
Number of X Values: 2151
Additional Information: vegetation.tree.taxodium.mucronatum.vswir.jpl213.jpl.asd.ancillary.txt

 0.3500	 2.4070
 0.3510	 2.5390
 0.3520	 2.6120
 0.3530	 2.5470
 0.3540	 2.3860
 0.3550	 2.3680
 0.3560	 2.4050
 0.3570	 2.4130
 0.3580	 2.3410
 0.3590	 2.3190
 0.3600	 2.3010
 0.3610	 2.2800
 0.3620	 2.3220
 0.3630	 2.3320
 0.3640	 2.2850
 0.3650	 2.2070
 0.3660	 2.2420
 0.3670	 2.2820
 0.3680	 2.2920
 0.3690	 2.2910
 0.3700	 2.2560
 0.3710	 2.2390
 0.3720	 2.2530
 0.3730	 2.2210
 0.3740	 2.2280
 0.3750	 2.2470
 0.3760	 2.2350
 0.3770	 2.2240
 0.3780	 2.2300
 0.3790	 2.2460
 0.3800	 2.2470
 0.3810	 2.2270
 0.3820	 2.2090
 0.3830	 2.2090
 0.3840	 2.2160
 0.3850	 2.2380
 0.3860	 2.2370
 0.3870	 2.1870
 0.3880	 2.1950
 0.3890	 2.1970
 0.3900	 2.1980
 0.3910	 2.2830
 0.3920	 2.2930
 0.3930	 2.2630
 0.3940	 2.2480
 0.3950	 2.2480
 0.3960	 2.2530
 0.3970	 2.2460
 0.3980	 2.2210
 0.3990	 2.2590
 0.4000	 2.2860
 0.4010	 2.2890
 0.4020	 2.3510
 0.4030	 2.3520
 0.4040	 2.3390
 0.4050	 2.3630
 0.4060	 2.3650
 0.4070	 2.3900
 0.4080	 2.4270
 0.4090	 2.4290
 0.4100	 2.4250
 0.4110	 2.4510
 0.4120	 2.5080
 0.4130	 2.5270
 0.4140	 2.5390
 0.4150	 2.5750
 0.4160	 2.6450
 0.4170	 2.6630
 0.4180	 2.6760
 0.4190	 2.7090
 0.4200	 2.7540
 0.4210	 2.7830
 0.4220	 2.8120
 0.4230	 2.8550
 0.4240	 2.9030
 0.4250	 2.9390
 0.4260	 2.9590
 0.4270	 2.9750
 0.4280	 3.0100
 0.4290	 3.0440
 0.4300	 3.0680
 0.4310	 3.1040
 0.4320	 3.1300
 0.4330	 3.1540
 0.4340	 3.1850
 0.4350	 3.2030
 0.4360	 3.2210
 0.4370	 3.2420
 0.4380	 3.2620
 0.4390	 3.2910
 0.4400	 3.3120
 0.4410	 3.3180
 0.4420	 3.3310
 0.4430	 3.3520
 0.4440	 3.3770
 0.4450	 3.4050
 0.4460	 3.4260
 0.4470	 3.4410
 0.4480	 3.4540
 0.4490	 3.4730
 0.4500	 3.4980
 0.4510	 3.5190
 0.4520	 3.5310
 0.4530	 3.5480
 0.4540	 3.5610
 0.4550	 3.5720
 0.4560	 3.5920
 0.4570	 3.6060
 0.4580	 3.6190
 0.4590	 3.6330
 0.4600	 3.6260
 0.4610	 3.6300
 0.4620	 3.6380
 0.4630	 3.6350
 0.4640	 3.6380
 0.4650	 3.6480
 0.4660	 3.6580
 0.4670	 3.6580
 0.4680	 3.6520
 0.4690	 3.6510
 0.4700	 3.6590
 0.4710	 3.6570
 0.4720	 3.6600
 0.4730	 3.6640
 0.4740	 3.6620
 0.4750	 3.6580
 0.4760	 3.6590
 0.4770	 3.6660
 0.4780	 3.6650
 0.4790	 3.6660
 0.4800	 3.6660
 0.4810	 3.6630
 0.4820	 3.6680
 0.4830	 3.6760
 0.4840	 3.6820
 0.4850	 3.6870
 0.4860	 3.6950
 0.4870	 3.7030
 0.4880	 3.7120
 0.4890	 3.7310
 0.4900	 3.7570
 0.4910	 3.7830
 0.4920	 3.8000
 0.4930	 3.8240
 0.4940	 3.8570
 0.4950	 3.8970
 0.4960	 3.9390
 0.4970	 3.9800
 0.4980	 4.0250
 0.4990	 4.0780
 0.5000	 4.1320
 0.5010	 4.1950
 0.5020	 4.2630
 0.5030	 4.3320
 0.5040	 4.4160
 0.5050	 4.5070
 0.5060	 4.5990
 0.5070	 4.6960
 0.5080	 4.8010
 0.5090	 4.9130
 0.5100	 5.0310
 0.5110	 5.1560
 0.5120	 5.2860
 0.5130	 5.4230
 0.5140	 5.5650
 0.5150	 5.7140
 0.5160	 5.8680
 0.5170	 6.0240
 0.5180	 6.1830
 0.5190	 6.3410
 0.5200	 6.4980
 0.5210	 6.6570
 0.5220	 6.8110
 0.5230	 6.9600
 0.5240	 7.1020
 0.5250	 7.2410
 0.5260	 7.3660
 0.5270	 7.4800
 0.5280	 7.5930
 0.5290	 7.6970
 0.5300	 7.7900
 0.5310	 7.8740
 0.5320	 7.9530
 0.5330	 8.0230
 0.5340	 8.0850
 0.5350	 8.1370
 0.5360	 8.1840
 0.5370	 8.2270
 0.5380	 8.2670
 0.5390	 8.3040
 0.5400	 8.3440
 0.5410	 8.3900
 0.5420	 8.4380
 0.5430	 8.4760
 0.5440	 8.5020
 0.5450	 8.5160
 0.5460	 8.5220
 0.5470	 8.5230
 0.5480	 8.5230
 0.5490	 8.5270
 0.5500	 8.5370
 0.5510	 8.5410
 0.5520	 8.5370
 0.5530	 8.5260
 0.5540	 8.5050
 0.5550	 8.4770
 0.5560	 8.4410
 0.5570	 8.3970
 0.5580	 8.3450
 0.5590	 8.2890
 0.5600	 8.2320
 0.5610	 8.1690
 0.5620	 8.1060
 0.5630	 8.0400
 0.5640	 7.9670
 0.5650	 7.8920
 0.5660	 7.8120
 0.5670	 7.7280
 0.5680	 7.6410
 0.5690	 7.5500
 0.5700	 7.4550
 0.5710	 7.3610
 0.5720	 7.2700
 0.5730	 7.1830
 0.5740	 7.1000
 0.5750	 7.0210
 0.5760	 6.9490
 0.5770	 6.8820
 0.5780	 6.8170
 0.5790	 6.7510
 0.5800	 6.6910
 0.5810	 6.6380
 0.5820	 6.5900
 0.5830	 6.5480
 0.5840	 6.5050
 0.5850	 6.4610
 0.5860	 6.4250
 0.5870	 6.3900
 0.5880	 6.3540
 0.5890	 6.3140
 0.5900	 6.2780
 0.5910	 6.2520
 0.5920	 6.2320
 0.5930	 6.2100
 0.5940	 6.1880
 0.5950	 6.1690
 0.5960	 6.1530
 0.5970	 6.1380
 0.5980	 6.1220
 0.5990	 6.1060
 0.6000	 6.0900
 0.6010	 6.0670
 0.6020	 6.0390
 0.6030	 6.0090
 0.6040	 5.9760
 0.6050	 5.9380
 0.6060	 5.8970
 0.6070	 5.8550
 0.6080	 5.8090
 0.6090	 5.7660
 0.6100	 5.7270
 0.6110	 5.6920
 0.6120	 5.6430
 0.6130	 5.5840
 0.6140	 5.5240
 0.6150	 5.4700
 0.6160	 5.4210
 0.6170	 5.3750
 0.6180	 5.3310
 0.6190	 5.2950
 0.6200	 5.2650
 0.6210	 5.2350
 0.6220	 5.2050
 0.6230	 5.1810
 0.6240	 5.1650
 0.6250	 5.1550
 0.6260	 5.1370
 0.6270	 5.1250
 0.6280	 5.1190
 0.6290	 5.1150
 0.6300	 5.1140
 0.6310	 5.1110
 0.6320	 5.1040
 0.6330	 5.0940
 0.6340	 5.0790
 0.6350	 5.0600
 0.6360	 5.0340
 0.6370	 5.0020
 0.6380	 4.9640
 0.6390	 4.9220
 0.6400	 4.8770
 0.6410	 4.8290
 0.6420	 4.7770
 0.6430	 4.7200
 0.6440	 4.6630
 0.6450	 4.6030
 0.6460	 4.5410
 0.6470	 4.4830
 0.6480	 4.4270
 0.6490	 4.3760
 0.6500	 4.3300
 0.6510	 4.2900
 0.6520	 4.2520
 0.6530	 4.2170
 0.6540	 4.1840
 0.6550	 4.1490
 0.6560	 4.1100
 0.6570	 4.0710
 0.6580	 4.0310
 0.6590	 3.9860
 0.6600	 3.9370
 0.6610	 3.8870
 0.6620	 3.8390
 0.6630	 3.7910
 0.6640	 3.7470
 0.6650	 3.7090
 0.6660	 3.6730
 0.6670	 3.6410
 0.6680	 3.6140
 0.6690	 3.5900
 0.6700	 3.5750
 0.6710	 3.5660
 0.6720	 3.5620
 0.6730	 3.5650
 0.6740	 3.5730
 0.6750	 3.5830
 0.6760	 3.5980
 0.6770	 3.6190
 0.6780	 3.6470
 0.6790	 3.6810
 0.6800	 3.7240
 0.6810	 3.7720
 0.6820	 3.8310
 0.6830	 3.9060
 0.6840	 3.9930
 0.6850	 4.0930
 0.6860	 4.2130
 0.6870	 4.3590
 0.6880	 4.5300
 0.6890	 4.7300
 0.6900	 4.9630
 0.6910	 5.2310
 0.6920	 5.5340
 0.6930	 5.8730
 0.6940	 6.2470
 0.6950	 6.6540
 0.6960	 7.0880
 0.6970	 7.5470
 0.6980	 8.0300
 0.6990	 8.5340
 0.7000	 9.0550
 0.7010	 9.5890
 0.7020	10.1330
 0.7030	10.6900
 0.7040	11.2570
 0.7050	11.8300
 0.7060	12.4040
 0.7070	12.9870
 0.7080	13.5760
 0.7090	14.1710
 0.7100	14.7720
 0.7110	15.3810
 0.7120	15.9970
 0.7130	16.6210
 0.7140	17.2450
 0.7150	17.8750
 0.7160	18.5140
 0.7170	19.1480
 0.7180	19.7870
 0.7190	20.4250
 0.7200	21.0550
 0.7210	21.6840
 0.7220	22.3050
 0.7230	22.9130
 0.7240	23.5100
 0.7250	24.0900
 0.7260	24.6540
 0.7270	25.2010
 0.7280	25.7260
 0.7290	26.2280
 0.7300	26.7080
 0.7310	27.1680
 0.7320	27.6040
 0.7330	28.0160
 0.7340	28.4050
 0.7350	28.7710
 0.7360	29.1150
 0.7370	29.4380
 0.7380	29.7410
 0.7390	30.0220
 0.7400	30.2830
 0.7410	30.5260
 0.7420	30.7480
 0.7430	30.9520
 0.7440	31.1400
 0.7450	31.3110
 0.7460	31.4650
 0.7470	31.6060
 0.7480	31.7350
 0.7490	31.8490
 0.7500	31.9520
 0.7510	32.0420
 0.7520	32.1230
 0.7530	32.1960
 0.7540	32.2610
 0.7550	32.3220
 0.7560	32.3770
 0.7570	32.4220
 0.7580	32.4630
 0.7590	32.5030
 0.7600	32.5400
 0.7610	32.5690
 0.7620	32.5930
 0.7630	32.6160
 0.7640	32.6350
 0.7650	32.6510
 0.7660	32.6690
 0.7670	32.6860
 0.7680	32.6970
 0.7690	32.7050
 0.7700	32.7130
 0.7710	32.7210
 0.7720	32.7300
 0.7730	32.7360
 0.7740	32.7420
 0.7750	32.7470
 0.7760	32.7520
 0.7770	32.7570
 0.7780	32.7620
 0.7790	32.7690
 0.7800	32.7760
 0.7810	32.7810
 0.7820	32.7840
 0.7830	32.7890
 0.7840	32.7950
 0.7850	32.8020
 0.7860	32.8070
 0.7870	32.8080
 0.7880	32.8100
 0.7890	32.8140
 0.7900	32.8180
 0.7910	32.8180
 0.7920	32.8180
 0.7930	32.8190
 0.7940	32.8200
 0.7950	32.8200
 0.7960	32.8190
 0.7970	32.8170
 0.7980	32.8140
 0.7990	32.8110
 0.8000	32.8080
 0.8010	32.8060
 0.8020	32.8040
 0.8030	32.7990
 0.8040	32.7910
 0.8050	32.7830
 0.8060	32.7790
 0.8070	32.7720
 0.8080	32.7650
 0.8090	32.7610
 0.8100	32.7540
 0.8110	32.7480
 0.8120	32.7440
 0.8130	32.7360
 0.8140	32.7260
 0.8150	32.7150
 0.8160	32.7060
 0.8170	32.6940
 0.8180	32.6830
 0.8190	32.6740
 0.8200	32.6670
 0.8210	32.6590
 0.8220	32.6500
 0.8230	32.6400
 0.8240	32.6360
 0.8250	32.6280
 0.8260	32.6170
 0.8270	32.6060
 0.8280	32.5940
 0.8290	32.5820
 0.8300	32.5740
 0.8310	32.5680
 0.8320	32.5560
 0.8330	32.5470
 0.8340	32.5420
 0.8350	32.5380
 0.8360	32.5340
 0.8370	32.5280
 0.8380	32.5230
 0.8390	32.5210
 0.8400	32.5180
 0.8410	32.5150
 0.8420	32.5110
 0.8430	32.5050
 0.8440	32.5030
 0.8450	32.5040
 0.8460	32.5070
 0.8470	32.5090
 0.8480	32.5070
 0.8490	32.5040
 0.8500	32.5050
 0.8510	32.5100
 0.8520	32.5140
 0.8530	32.5160
 0.8540	32.5220
 0.8550	32.5240
 0.8560	32.5260
 0.8570	32.5290
 0.8580	32.5280
 0.8590	32.5300
 0.8600	32.5340
 0.8610	32.5380
 0.8620	32.5410
 0.8630	32.5440
 0.8640	32.5480
 0.8650	32.5530
 0.8660	32.5590
 0.8670	32.5620
 0.8680	32.5660
 0.8690	32.5740
 0.8700	32.5800
 0.8710	32.5850
 0.8720	32.5890
 0.8730	32.5890
 0.8740	32.5930
 0.8750	32.6000
 0.8760	32.6080
 0.8770	32.6140
 0.8780	32.6170
 0.8790	32.6210
 0.8800	32.6290
 0.8810	32.6360
 0.8820	32.6380
 0.8830	32.6420
 0.8840	32.6500
 0.8850	32.6530
 0.8860	32.6590
 0.8870	32.6640
 0.8880	32.6660
 0.8890	32.6750
 0.8900	32.6810
 0.8910	32.6840
 0.8920	32.6890
 0.8930	32.6910
 0.8940	32.6940
 0.8950	32.6980
 0.8960	32.6980
 0.8970	32.7040
 0.8980	32.7100
 0.8990	32.7110
 0.9000	32.7100
 0.9010	32.7110
 0.9020	32.7130
 0.9030	32.7160
 0.9040	32.7210
 0.9050	32.7240
 0.9060	32.7230
 0.9070	32.7220
 0.9080	32.7250
 0.9090	32.7320
 0.9100	32.7330
 0.9110	32.7270
 0.9120	32.7300
 0.9130	32.7360
 0.9140	32.7380
 0.9150	32.7330
 0.9160	32.7300
 0.9170	32.7220
 0.9180	32.7140
 0.9190	32.7150
 0.9200	32.7050
 0.9210	32.6980
 0.9220	32.6940
 0.9230	32.6840
 0.9240	32.6710
 0.9250	32.6580
 0.9260	32.6470
 0.9270	32.6360
 0.9280	32.6190
 0.9290	32.5980
 0.9300	32.5800
 0.9310	32.5660
 0.9320	32.5490
 0.9330	32.5290
 0.9340	32.5060
 0.9350	32.4800
 0.9360	32.4530
 0.9370	32.4240
 0.9380	32.3930
 0.9390	32.3650
 0.9400	32.3320
 0.9410	32.2980
 0.9420	32.2640
 0.9430	32.2290
 0.9440	32.1920
 0.9450	32.1540
 0.9460	32.1130
 0.9470	32.0560
 0.9480	32.0030
 0.9490	31.9490
 0.9500	31.8870
 0.9510	31.8270
 0.9520	31.7620
 0.9530	31.6950
 0.9540	31.6330
 0.9550	31.5680
 0.9560	31.4990
 0.9570	31.4370
 0.9580	31.3890
 0.9590	31.3450
 0.9600	31.2990
 0.9610	31.2520
 0.9620	31.2120
 0.9630	31.1720
 0.9640	31.1390
 0.9650	31.1120
 0.9660	31.0890
 0.9670	31.0670
 0.9680	31.0410
 0.9690	31.0220
 0.9700	31.0190
 0.9710	31.0010
 0.9720	30.9840
 0.9730	30.9750
 0.9740	30.9790
 0.9750	30.9740
 0.9760	30.9550
 0.9770	30.9370
 0.9780	30.9360
 0.9790	30.9350
 0.9800	30.9310
 0.9810	30.9270
 0.9820	30.9240
 0.9830	30.9260
 0.9840	30.9370
 0.9850	30.9520
 0.9860	30.9650
 0.9870	30.9620
 0.9880	30.9720
 0.9890	30.9880
 0.9900	30.9880
 0.9910	31.0080
 0.9920	31.0290
 0.9930	31.0430
 0.9940	31.0520
 0.9950	31.0810
 0.9960	31.0950
 0.9970	31.1020
 0.9980	31.1220
 0.9990	31.1270
 1.0000	31.1400
 1.0010	32.0110
 1.0020	32.0300
 1.0030	32.0510
 1.0040	32.0740
 1.0050	32.0960
 1.0060	32.1180
 1.0070	32.1380
 1.0080	32.1610
 1.0090	32.1830
 1.0100	32.2050
 1.0110	32.2300
 1.0120	32.2530
 1.0130	32.2740
 1.0140	32.2960
 1.0150	32.3180
 1.0160	32.3410
 1.0170	32.3640
 1.0180	32.3850
 1.0190	32.4070
 1.0200	32.4310
 1.0210	32.4540
 1.0220	32.4760
 1.0230	32.4980
 1.0240	32.5210
 1.0250	32.5420
 1.0260	32.5620
 1.0270	32.5850
 1.0280	32.6100
 1.0290	32.6330
 1.0300	32.6560
 1.0310	32.6780
 1.0320	32.6980
 1.0330	32.7190
 1.0340	32.7420
 1.0350	32.7630
 1.0360	32.7810
 1.0370	32.8000
 1.0380	32.8170
 1.0390	32.8300
 1.0400	32.8470
 1.0410	32.8660
 1.0420	32.8830
 1.0430	32.9010
 1.0440	32.9170
 1.0450	32.9290
 1.0460	32.9440
 1.0470	32.9600
 1.0480	32.9740
 1.0490	32.9890
 1.0500	33.0020
 1.0510	33.0110
 1.0520	33.0180
 1.0530	33.0280
 1.0540	33.0370
 1.0550	33.0460
 1.0560	33.0580
 1.0570	33.0650
 1.0580	33.0700
 1.0590	33.0760
 1.0600	33.0800
 1.0610	33.0860
 1.0620	33.0930
 1.0630	33.0990
 1.0640	33.1020
 1.0650	33.1060
 1.0660	33.1100
 1.0670	33.1130
 1.0680	33.1150
 1.0690	33.1190
 1.0700	33.1200
 1.0710	33.1210
 1.0720	33.1210
 1.0730	33.1200
 1.0740	33.1190
 1.0750	33.1160
 1.0760	33.1130
 1.0770	33.1100
 1.0780	33.1050
 1.0790	33.0990
 1.0800	33.0930
 1.0810	33.0880
 1.0820	33.0820
 1.0830	33.0770
 1.0840	33.0710
 1.0850	33.0650
 1.0860	33.0560
 1.0870	33.0470
 1.0880	33.0360
 1.0890	33.0260
 1.0900	33.0150
 1.0910	33.0060
 1.0920	33.0000
 1.0930	32.9900
 1.0940	32.9790
 1.0950	32.9680
 1.0960	32.9540
 1.0970	32.9410
 1.0980	32.9270
 1.0990	32.9140
 1.1000	32.9000
 1.1010	32.8870
 1.1020	32.8740
 1.1030	32.8620
 1.1040	32.8520
 1.1050	32.8370
 1.1060	32.8220
 1.1070	32.8040
 1.1080	32.7880
 1.1090	32.7690
 1.1100	32.7520
 1.1110	32.7360
 1.1120	32.7180
 1.1130	32.7000
 1.1140	32.6800
 1.1150	32.6580
 1.1160	32.6360
 1.1170	32.6140
 1.1180	32.5890
 1.1190	32.5630
 1.1200	32.5360
 1.1210	32.5030
 1.1220	32.4660
 1.1230	32.4270
 1.1240	32.3840
 1.1250	32.3360
 1.1260	32.2870
 1.1270	32.2280
 1.1280	32.1620
 1.1290	32.0920
 1.1300	32.0150
 1.1310	31.9310
 1.1320	31.8430
 1.1330	31.7460
 1.1340	31.6410
 1.1350	31.5290
 1.1360	31.4090
 1.1370	31.2820
 1.1380	31.1500
 1.1390	31.0130
 1.1400	30.8710
 1.1410	30.7290
 1.1420	30.5830
 1.1430	30.4350
 1.1440	30.2900
 1.1450	30.1430
 1.1460	30.0020
 1.1470	29.8620
 1.1480	29.7290
 1.1490	29.5970
 1.1500	29.4750
 1.1510	29.3560
 1.1520	29.2470
 1.1530	29.1460
 1.1540	29.0510
 1.1550	28.9640
 1.1560	28.8840
 1.1570	28.8090
 1.1580	28.7420
 1.1590	28.6810
 1.1600	28.6250
 1.1610	28.5770
 1.1620	28.5330
 1.1630	28.4910
 1.1640	28.4520
 1.1650	28.4160
 1.1660	28.3810
 1.1670	28.3500
 1.1680	28.3230
 1.1690	28.2970
 1.1700	28.2740
 1.1710	28.2500
 1.1720	28.2270
 1.1730	28.2040
 1.1740	28.1810
 1.1750	28.1580
 1.1760	28.1380
 1.1770	28.1160
 1.1780	28.0940
 1.1790	28.0710
 1.1800	28.0460
 1.1810	28.0220
 1.1820	28.0010
 1.1830	27.9780
 1.1840	27.9570
 1.1850	27.9350
 1.1860	27.9120
 1.1870	27.8930
 1.1880	27.8740
 1.1890	27.8560
 1.1900	27.8390
 1.1910	27.8230
 1.1920	27.8080
 1.1930	27.7930
 1.1940	27.7810
 1.1950	27.7710
 1.1960	27.7630
 1.1970	27.7560
 1.1980	27.7530
 1.1990	27.7510
 1.2000	27.7510
 1.2010	27.7540
 1.2020	27.7570
 1.2030	27.7620
 1.2040	27.7710
 1.2050	27.7820
 1.2060	27.7950
 1.2070	27.8110
 1.2080	27.8280
 1.2090	27.8430
 1.2100	27.8600
 1.2110	27.8790
 1.2120	27.8990
 1.2130	27.9200
 1.2140	27.9420
 1.2150	27.9660
 1.2160	27.9900
 1.2170	28.0150
 1.2180	28.0420
 1.2190	28.0690
 1.2200	28.0920
 1.2210	28.1160
 1.2220	28.1410
 1.2230	28.1670
 1.2240	28.1950
 1.2250	28.2230
 1.2260	28.2480
 1.2270	28.2730
 1.2280	28.2950
 1.2290	28.3190
 1.2300	28.3420
 1.2310	28.3640
 1.2320	28.3880
 1.2330	28.4100
 1.2340	28.4310
 1.2350	28.4520
 1.2360	28.4720
 1.2370	28.4890
 1.2380	28.5070
 1.2390	28.5240
 1.2400	28.5410
 1.2410	28.5590
 1.2420	28.5760
 1.2430	28.5930
 1.2440	28.6090
 1.2450	28.6240
 1.2460	28.6380
 1.2470	28.6520
 1.2480	28.6670
 1.2490	28.6800
 1.2500	28.6930
 1.2510	28.7060
 1.2520	28.7170
 1.2530	28.7280
 1.2540	28.7390
 1.2550	28.7480
 1.2560	28.7570
 1.2570	28.7640
 1.2580	28.7710
 1.2590	28.7760
 1.2600	28.7800
 1.2610	28.7840
 1.2620	28.7870
 1.2630	28.7890
 1.2640	28.7910
 1.2650	28.7920
 1.2660	28.7920
 1.2670	28.7890
 1.2680	28.7850
 1.2690	28.7800
 1.2700	28.7740
 1.2710	28.7700
 1.2720	28.7660
 1.2730	28.7600
 1.2740	28.7510
 1.2750	28.7400
 1.2760	28.7270
 1.2770	28.7140
 1.2780	28.7010
 1.2790	28.6840
 1.2800	28.6660
 1.2810	28.6470
 1.2820	28.6250
 1.2830	28.6010
 1.2840	28.5760
 1.2850	28.5480
 1.2860	28.5190
 1.2870	28.4880
 1.2880	28.4560
 1.2890	28.4230
 1.2900	28.3880
 1.2910	28.3490
 1.2920	28.3080
 1.2930	28.2630
 1.2940	28.2170
 1.2950	28.1710
 1.2960	28.1230
 1.2970	28.0740
 1.2980	28.0220
 1.2990	27.9650
 1.3000	27.9080
 1.3010	27.8480
 1.3020	27.7860
 1.3030	27.7240
 1.3040	27.6580
 1.3050	27.5890
 1.3060	27.5190
 1.3070	27.4460
 1.3080	27.3700
 1.3090	27.2930
 1.3100	27.2140
 1.3110	27.1310
 1.3120	27.0440
 1.3130	26.9560
 1.3140	26.8650
 1.3150	26.7700
 1.3160	26.6740
 1.3170	26.5790
 1.3180	26.4800
 1.3190	26.3770
 1.3200	26.2720
 1.3210	26.1620
 1.3220	26.0500
 1.3230	25.9370
 1.3240	25.8240
 1.3250	25.7100
 1.3260	25.5940
 1.3270	25.4760
 1.3280	25.3560
 1.3290	25.2330
 1.3300	25.1100
 1.3310	24.9870
 1.3320	24.8610
 1.3330	24.7380
 1.3340	24.6130
 1.3350	24.4870
 1.3360	24.3620
 1.3370	24.2370
 1.3380	24.1140
 1.3390	23.9910
 1.3400	23.8690
 1.3410	23.7490
 1.3420	23.6290
 1.3430	23.5120
 1.3440	23.3970
 1.3450	23.2820
 1.3460	23.1680
 1.3470	23.0570
 1.3480	22.9470
 1.3490	22.8390
 1.3500	22.7340
 1.3510	22.6290
 1.3520	22.5230
 1.3530	22.4200
 1.3540	22.3170
 1.3550	22.2130
 1.3560	22.1100
 1.3570	22.0050
 1.3580	21.8980
 1.3590	21.7910
 1.3600	21.6830
 1.3610	21.5710
 1.3620	21.4550
 1.3630	21.3350
 1.3640	21.2090
 1.3650	21.0780
 1.3660	20.9420
 1.3670	20.7980
 1.3680	20.6470
 1.3690	20.4870
 1.3700	20.3150
 1.3710	20.1350
 1.3720	19.9430
 1.3730	19.7380
 1.3740	19.5230
 1.3750	19.2940
 1.3760	19.0500
 1.3770	18.7900
 1.3780	18.5130
 1.3790	18.2200
 1.3800	17.9140
 1.3810	17.5910
 1.3820	17.2570
 1.3830	16.9120
 1.3840	16.5550
 1.3850	16.1850
 1.3860	15.8110
 1.3870	15.4250
 1.3880	15.0430
 1.3890	14.6570
 1.3900	14.2690
 1.3910	13.8860
 1.3920	13.5050
 1.3930	13.1260
 1.3940	12.7550
 1.3950	12.3890
 1.3960	12.0330
 1.3970	11.6880
 1.3980	11.3550
 1.3990	11.0380
 1.4000	10.7340
 1.4010	10.4420
 1.4020	10.1670
 1.4030	 9.9050
 1.4040	 9.6560
 1.4050	 9.4220
 1.4060	 9.2010
 1.4070	 8.9960
 1.4080	 8.8040
 1.4090	 8.6230
 1.4100	 8.4550
 1.4110	 8.2970
 1.4120	 8.1490
 1.4130	 8.0120
 1.4140	 7.8850
 1.4150	 7.7680
 1.4160	 7.6590
 1.4170	 7.5580
 1.4180	 7.4630
 1.4190	 7.3740
 1.4200	 7.2910
 1.4210	 7.2140
 1.4220	 7.1430
 1.4230	 7.0770
 1.4240	 7.0170
 1.4250	 6.9600
 1.4260	 6.9080
 1.4270	 6.8590
 1.4280	 6.8130
 1.4290	 6.7710
 1.4300	 6.7320
 1.4310	 6.6960
 1.4320	 6.6640
 1.4330	 6.6340
 1.4340	 6.6060
 1.4350	 6.5810
 1.4360	 6.5590
 1.4370	 6.5380
 1.4380	 6.5200
 1.4390	 6.5030
 1.4400	 6.4890
 1.4410	 6.4750
 1.4420	 6.4650
 1.4430	 6.4550
 1.4440	 6.4470
 1.4450	 6.4410
 1.4460	 6.4350
 1.4470	 6.4310
 1.4480	 6.4290
 1.4490	 6.4270
 1.4500	 6.4280
 1.4510	 6.4280
 1.4520	 6.4300
 1.4530	 6.4320
 1.4540	 6.4370
 1.4550	 6.4430
 1.4560	 6.4500
 1.4570	 6.4580
 1.4580	 6.4680
 1.4590	 6.4790
 1.4600	 6.4930
 1.4610	 6.5080
 1.4620	 6.5250
 1.4630	 6.5450
 1.4640	 6.5670
 1.4650	 6.5910
 1.4660	 6.6180
 1.4670	 6.6460
 1.4680	 6.6770
 1.4690	 6.7110
 1.4700	 6.7470
 1.4710	 6.7840
 1.4720	 6.8240
 1.4730	 6.8660
 1.4740	 6.9090
 1.4750	 6.9540
 1.4760	 7.0010
 1.4770	 7.0500
