Name: Rubus occidentalis
Type: Vegetation
Class: Tree
Genus: Rubus
Species: occidentalis
Sample No.: RUOC-1-73
Owner: UCSB
Wavelength Range: TIR
Origin: USA; Massachusetts; Harvard Forest
Collection Date: 7/8/2013
Description: Samples were collected as part of NSF Macrosystem Biology proposal titled: Collaborative Research: Thermal controls on ecosystem metabolism and function: scaling from leaves to canopies to regions. Samples were collected and overnighted to JPL facilities for processing. The same leaves were processed in the Nicolet and then measured using the ASD.
Measurement: Hemispherical reflectance
First Column: X
Second Column: Y
X Units: Wavelength (micrometers)
Y Units: Reflectance (percentage)
First X Value: 2.501
Last X Value: 15.387
Number of X Values: 1737
Additional Information: vegetation.tree.rubus.occidentalis.tir.ruoc-1-73.ucsb.nicolet.ancillary.txt

 2.5010	15.2410
 2.5030	15.3430
 2.5040	15.5830
 2.5050	15.5280
 2.5060	15.2060
 2.5070	14.9950
 2.5090	15.1100
 2.5100	14.9940
 2.5110	14.8910
 2.5120	14.7420
 2.5140	14.8130
 2.5150	14.7260
 2.5160	14.6740
 2.5170	14.5680
 2.5180	14.6370
 2.5200	14.5910
 2.5210	14.3800
 2.5220	14.1930
 2.5230	14.3240
 2.5250	14.3300
 2.5260	14.6910
 2.5270	14.6800
 2.5280	14.5040
 2.5290	14.3840
 2.5310	14.4360
 2.5320	14.3080
 2.5330	14.2080
 2.5340	14.1880
 2.5360	14.1270
 2.5370	14.1040
 2.5380	14.4570
 2.5390	14.5150
 2.5410	14.4720
 2.5420	14.3290
 2.5430	14.0820
 2.5440	14.1620
 2.5460	14.5430
 2.5470	14.4330
 2.5480	14.2640
 2.5490	14.1740
 2.5510	13.9430
 2.5520	13.8990
 2.5530	14.0370
 2.5540	14.3480
 2.5560	14.7010
 2.5570	14.5650
 2.5580	14.4200
 2.5590	14.3230
 2.5610	14.0840
 2.5620	13.7080
 2.5630	13.6760
 2.5640	13.6440
 2.5660	13.9290
 2.5670	14.2380
 2.5680	14.3340
 2.5700	14.0690
 2.5710	14.1060
 2.5720	14.2150
 2.5730	13.7350
 2.5750	13.8700
 2.5760	14.0020
 2.5770	13.5590
 2.5790	13.9450
 2.5800	14.0330
 2.5810	13.7040
 2.5820	13.5160
 2.5840	13.0660
 2.5850	13.1720
 2.5860	13.5070
 2.5880	13.1250
 2.5890	13.3540
 2.5900	13.2360
 2.5910	13.0660
 2.5930	13.1500
 2.5940	12.4130
 2.5950	11.5680
 2.5970	12.3130
 2.5980	13.0570
 2.5990	13.1710
 2.6000	12.9040
 2.6020	12.8410
 2.6030	12.7870
 2.6040	12.3470
 2.6060	11.7620
 2.6070	11.9820
 2.6080	12.1100
 2.6100	11.9920
 2.6110	11.9940
 2.6120	11.9910
 2.6140	11.5310
 2.6150	11.5090
 2.6160	11.2590
 2.6180	10.9700
 2.6190	10.9070
 2.6200	10.6620
 2.6220	10.8690
 2.6230	11.3410
 2.6240	11.1150
 2.6260	10.7540
 2.6270	10.1450
 2.6280	10.3480
 2.6300	10.1830
 2.6310	 9.6060
 2.6320	 9.3520
 2.6340	 9.4330
 2.6350	 9.5970
 2.6360	 9.7380
 2.6380	 9.4760
 2.6390	 9.1630
 2.6400	 9.0670
 2.6420	 9.1030
 2.6430	 8.9010
 2.6440	 8.8850
 2.6460	 8.7360
 2.6470	 8.6740
 2.6480	 8.5260
 2.6500	 8.3270
 2.6510	 8.0640
 2.6520	 7.8850
 2.6540	 7.8150
 2.6550	 7.6820
 2.6560	 7.3700
 2.6580	 7.4740
 2.6590	 7.3090
 2.6610	 6.7690
 2.6620	 6.4860
 2.6630	 6.7510
 2.6650	 6.5040
 2.6660	 6.2040
 2.6670	 5.8930
 2.6690	 6.1480
 2.6700	 5.7370
 2.6720	 5.4950
 2.6730	 5.7400
 2.6740	 5.6390
 2.6760	 5.1960
 2.6770	 4.8870
 2.6780	 4.6880
 2.6800	 4.7040
 2.6810	 4.8280
 2.6830	 4.8190
 2.6840	 4.5880
 2.6850	 4.7030
 2.6870	 4.6540
 2.6880	 4.6010
 2.6900	 4.3460
 2.6910	 3.9990
 2.6920	 3.7820
 2.6940	 3.7810
 2.6950	 3.5970
 2.6970	 3.5460
 2.6980	 3.4660
 2.6990	 3.5810
 2.7010	 3.5300
 2.7020	 3.4070
 2.7040	 3.3670
 2.7050	 3.5530
 2.7060	 3.6460
 2.7080	 3.6630
 2.7090	 3.3030
 2.7110	 3.1440
 2.7120	 3.0610
 2.7130	 3.0450
 2.7150	 3.0190
 2.7160	 3.0920
 2.7180	 2.8800
 2.7190	 2.8940
 2.7210	 2.9590
 2.7220	 3.0400
 2.7230	 2.6960
 2.7250	 2.5020
 2.7260	 2.8090
 2.7280	 3.2210
 2.7290	 3.1650
 2.7310	 3.1080
 2.7320	 2.8260
 2.7330	 2.4870
 2.7350	 2.4300
 2.7360	 2.6230
 2.7380	 2.5150
 2.7390	 2.2650
 2.7410	 2.3930
 2.7420	 3.0150
 2.7440	 3.2020
 2.7450	 3.2810
 2.7470	 3.2490
 2.7480	 2.8960
 2.7490	 2.8530
 2.7510	 3.0880
 2.7520	 2.9230
 2.7540	 2.8050
 2.7550	 2.4150
 2.7570	 2.3860
 2.7580	 2.0690
 2.7600	 2.1360
 2.7610	 2.6010
 2.7630	 2.6610
 2.7640	 2.3600
 2.7660	 2.4880
 2.7670	 2.3730
 2.7680	 2.4820
 2.7700	 2.8510
 2.7710	 3.0400
 2.7730	 2.7170
 2.7740	 2.3860
 2.7760	 2.1480
 2.7770	 2.2170
 2.7790	 2.2700
 2.7800	 2.4420
 2.7820	 2.1060
 2.7830	 2.1080
 2.7850	 2.4770
 2.7860	 2.7160
 2.7880	 2.6010
 2.7890	 2.3900
 2.7910	 2.2620
 2.7920	 2.5100
 2.7940	 2.5870
 2.7950	 2.5380
 2.7970	 2.3770
 2.7980	 2.3220
 2.8000	 2.3610
 2.8010	 2.4950
 2.8030	 2.2050
 2.8040	 2.2230
 2.8060	 2.4010
 2.8070	 2.4320
 2.8090	 2.4050
 2.8110	 2.7590
 2.8120	 2.5280
 2.8140	 2.1860
 2.8150	 2.2200
 2.8170	 2.5410
 2.8180	 2.5540
 2.8200	 2.6060
 2.8210	 2.4790
 2.8230	 2.4950
 2.8240	 2.3190
 2.8260	 2.0730
 2.8270	 2.2710
 2.8290	 2.4380
 2.8300	 1.9460
 2.8320	 1.7900
 2.8340	 1.5880
 2.8350	 1.6580
 2.8370	 2.1070
 2.8380	 2.5920
 2.8400	 2.6230
 2.8410	 2.3860
 2.8430	 2.1970
 2.8440	 2.5100
 2.8460	 2.5460
 2.8480	 2.4490
 2.8490	 2.2510
 2.8510	 2.1450
 2.8520	 2.1700
 2.8540	 2.1610
 2.8550	 1.8740
 2.8570	 2.0350
 2.8590	 2.1130
 2.8600	 2.2650
 2.8620	 2.2480
 2.8630	 2.1840
 2.8650	 2.1660
 2.8660	 2.1280
 2.8680	 1.9720
 2.8700	 2.2770
 2.8710	 2.3410
 2.8730	 2.2270
 2.8740	 2.0770
 2.8760	 1.9100
 2.8780	 1.7120
 2.8790	 1.9890
 2.8810	 2.4150
 2.8820	 2.3200
 2.8840	 2.1040
 2.8860	 2.7260
 2.8870	 3.0410
 2.8890	 2.8800
 2.8900	 2.4950
 2.8920	 2.2400
 2.8940	 2.3950
 2.8950	 2.8520
 2.8970	 2.8130
 2.8980	 2.5990
 2.9000	 2.3790
 2.9020	 2.2570
 2.9030	 2.1060
 2.9050	 2.1890
 2.9070	 2.2970
 2.9080	 2.4200
 2.9100	 2.3420
 2.9120	 2.3580
 2.9130	 2.4350
 2.9150	 2.3700
 2.9160	 2.0970
 2.9180	 2.2120
 2.9200	 2.3210
 2.9210	 2.5850
 2.9230	 2.6650
 2.9250	 2.8320
 2.9260	 2.5320
 2.9280	 2.2720
 2.9300	 2.2540
 2.9310	 2.4730
 2.9330	 2.5770
 2.9350	 2.5720
 2.9360	 2.3770
 2.9380	 2.7530
 2.9400	 2.7950
 2.9410	 2.5850
 2.9430	 2.4830
 2.9450	 2.3870
 2.9460	 2.3070
 2.9480	 2.5700
 2.9500	 2.7700
 2.9510	 2.7460
 2.9530	 2.1130
 2.9550	 2.5190
 2.9560	 2.7160
 2.9580	 2.2210
 2.9600	 2.4630
 2.9610	 3.4420
 2.9630	 2.9400
 2.9650	 3.9120
 2.9660	 4.2160
 2.9680	 4.4770
 2.9700	 3.5320
 2.9720	 0.2470
 2.9730	 0.7360
 2.9750	 4.5580
 2.9770	 4.2330
 2.9780	 3.5070
 2.9800	 4.5140
 2.9820	 2.6280
 2.9840	 1.6500
 2.9850	 3.0920
 2.9870	 3.8580
 2.9890	 3.8320
 2.9900	 2.8630
 2.9920	 1.5110
 2.9940	 1.5400
 2.9960	 2.4000
 2.9970	 2.2820
 2.9990	 3.2150
 3.0010	 3.2190
 3.0030	 3.6310
 3.0040	 4.5130
 3.0060	 3.9790
 3.0080	 3.1320
 3.0100	 3.3650
 3.0110	 4.0610
 3.0130	 3.9600
 3.0150	 2.4980
 3.0170	 3.0070
 3.0180	 2.7240
 3.0200	 2.4710
 3.0220	 3.6880
 3.0240	 3.2650
 3.0250	 2.6710
 3.0270	 3.2350
 3.0290	 3.4650
 3.0310	 3.8590
 3.0320	 3.9670
 3.0340	 3.2660
 3.0360	 3.7830
 3.0380	 3.9230
 3.0400	 2.5280
 3.0410	 3.7000
 3.0430	 4.3010
 3.0450	 4.8510
 3.0470	 2.9710
 3.0480	 -0.121
 3.0500	 1.7920
 3.0520	 1.7850
 3.0540	 2.7440
 3.0560	 4.3050
 3.0570	 4.0470
 3.0590	 5.0440
 3.0610	 5.4410
 3.0630	 4.0970
 3.0650	 2.5030
 3.0660	 3.5320
 3.0680	 4.9840
 3.0700	 5.0570
 3.0720	 4.8620
 3.0740	 4.3000
 3.0760	 3.9000
 3.0770	 3.5980
 3.0790	 3.5610
 3.0810	 3.9210
 3.0830	 3.8220
 3.0850	 3.7610
 3.0870	 3.8150
 3.0880	 3.8750
 3.0900	 3.8630
 3.0920	 3.7900
 3.0940	 3.5650
 3.0960	 3.5580
 3.0980	 3.7250
 3.0990	 3.6950
 3.1010	 3.8230
 3.1030	 3.7730
 3.1050	 3.4450
 3.1070	 3.5760
 3.1090	 3.5650
 3.1110	 3.6680
 3.1120	 3.9200
 3.1140	 4.1390
 3.1160	 4.1250
 3.1180	 4.0680
 3.1200	 3.9420
 3.1220	 3.9020
 3.1240	 3.6140
 3.1260	 3.8470
 3.1270	 3.3150
 3.1290	 3.5650
 3.1310	 4.5640
 3.1330	 4.8350
 3.1350	 4.2140
 3.1370	 3.1790
 3.1390	 3.0800
 3.1410	 4.3350
 3.1430	 4.0330
 3.1450	 3.2110
 3.1460	 4.4250
 3.1480	 5.5310
 3.1500	 4.6590
 3.1520	 3.9690
 3.1540	 4.0530
 3.1560	 5.7000
 3.1580	 6.2740
 3.1600	 5.9940
 3.1620	 6.6920
 3.1640	 5.3190
 3.1660	 3.2180
 3.1680	 1.6940
 3.1700	 2.3410
 3.1710	 4.1230
 3.1730	 5.9870
 3.1750	 7.7120
 3.1770	 6.7260
 3.1790	 5.2400
 3.1810	 4.1850
 3.1830	 3.4840
 3.1850	 3.9640
 3.1870	 5.0230
 3.1890	 5.4590
 3.1910	 5.1910
 3.1930	 4.3420
 3.1950	 4.0170
 3.1970	 4.1470
 3.1990	 4.3610
 3.2010	 4.2900
 3.2030	 4.0410
 3.2050	 4.0530
 3.2070	 4.2160
 3.2090	 4.3460
 3.2110	 4.4760
 3.2130	 4.4880
 3.2150	 4.3080
 3.2170	 3.9700
 3.2190	 4.0420
 3.2210	 3.9910
 3.2230	 3.8530
 3.2250	 3.8660
 3.2270	 3.7530
 3.2290	 3.7640
 3.2310	 3.6300
 3.2330	 3.5010
 3.2350	 3.9590
 3.2370	 3.8410
 3.2390	 3.9370
 3.2410	 4.2400
 3.2430	 4.2650
 3.2450	 4.2210
 3.2470	 4.0590
 3.2490	 3.9730
 3.2510	 4.0470
 3.2530	 4.1370
 3.2550	 3.9900
 3.2570	 3.8650
 3.2590	 4.1790
 3.2610	 4.3450
 3.2630	 4.5030
 3.2650	 4.4140
 3.2670	 3.9830
 3.2690	 3.8350
 3.2720	 3.8440
 3.2740	 3.9190
 3.2760	 4.2670
 3.2780	 4.2900
 3.2800	 4.2590
 3.2820	 4.1780
 3.2840	 4.1350
 3.2860	 4.1290
 3.2880	 4.4500
 3.2900	 4.5080
 3.2920	 4.4400
 3.2940	 4.2840
 3.2960	 4.2890
 3.2990	 3.8510
 3.3010	 3.1870
 3.3030	 3.2490
 3.3050	 3.5450
 3.3070	 3.7530
 3.3090	 4.0960
 3.3110	 4.0250
 3.3130	 3.8900
 3.3150	 3.7970
 3.3180	 3.9600
 3.3200	 3.9900
 3.3220	 4.3250
 3.3240	 4.5620
 3.3260	 4.2600
 3.3280	 4.0700
 3.3300	 4.1700
 3.3330	 4.3790
 3.3350	 4.2170
 3.3370	 4.0530
 3.3390	 4.2730
 3.3410	 4.3890
 3.3430	 4.2850
 3.3450	 4.0910
 3.3480	 4.0240
 3.3500	 3.9790
 3.3520	 4.0640
 3.3540	 4.0770
 3.3560	 4.0180
 3.3580	 3.8270
 3.3610	 3.8940
 3.3630	 4.1000
 3.3650	 4.1930
 3.3670	 4.0700
 3.3690	 3.9620
 3.3720	 3.8730
 3.3740	 3.8750
 3.3760	 4.0600
 3.3780	 4.3220
 3.3800	 4.4320
 3.3830	 4.4060
 3.3850	 4.1580
 3.3870	 3.9290
 3.3890	 3.8950
 3.3910	 3.9570
 3.3940	 3.9960
 3.3960	 4.1200
 3.3980	 4.0210
 3.4000	 4.2350
 3.4020	 4.5160
 3.4050	 4.6330
 3.4070	 4.5390
 3.4090	 4.4670
 3.4110	 4.5500
 3.4140	 4.7750
 3.4160	 5.0330
 3.4180	 5.2970
 3.4200	 5.5060
 3.4230	 5.7290
 3.4250	 6.1310
 3.4270	 6.7300
 3.4290	 6.9720
 3.4320	 6.7930
 3.4340	 6.3400
 3.4360	 5.8740
 3.4390	 5.4160
 3.4410	 5.1740
 3.4430	 4.8830
 3.4450	 4.7690
 3.4480	 4.8630
 3.4500	 5.0500
 3.4520	 4.9770
 3.4550	 5.1800
 3.4570	 5.0800
 3.4590	 4.8510
 3.4620	 4.8080
 3.4640	 4.8270
 3.4660	 4.8090
 3.4680	 4.7750
 3.4710	 4.6280
 3.4730	 4.5690
 3.4750	 4.6260
 3.4780	 4.7080
 3.4800	 4.6540
 3.4820	 4.5770
 3.4850	 4.4380
 3.4870	 4.3420
 3.4890	 4.4110
 3.4920	 4.5030
 3.4940	 4.5360
 3.4970	 4.6510
 3.4990	 4.7620
 3.5010	 4.7830
 3.5040	 4.9240
 3.5060	 5.2910
 3.5080	 5.8840
 3.5110	 6.3980
 3.5130	 6.2960
 3.5160	 5.8560
 3.5180	 5.5800
 3.5200	 5.2780
 3.5230	 4.7980
 3.5250	 4.8770
 3.5270	 4.9060
 3.5300	 4.9210
 3.5320	 4.9690
 3.5350	 4.9550
 3.5370	 4.9000
 3.5400	 4.7740
 3.5420	 4.8030
 3.5440	 4.9770
 3.5470	 4.9840
 3.5490	 5.0390
 3.5520	 4.8500
 3.5540	 4.6980
 3.5570	 4.7120
 3.5590	 4.8390
 3.5610	 4.9250
 3.5640	 4.9240
 3.5660	 4.9150
 3.5690	 4.9500
 3.5710	 5.0030
 3.5740	 4.9510
 3.5760	 5.0110
 3.5790	 5.0920
 3.5810	 5.0390
 3.5840	 5.1040
 3.5860	 5.1950
 3.5890	 5.3160
 3.5910	 5.3230
 3.5930	 5.3860
 3.5960	 5.4580
 3.5980	 5.4170
 3.6010	 5.2660
 3.6030	 5.1170
 3.6060	 4.9920
 3.6080	 5.2550
 3.6110	 5.2220
 3.6140	 5.2200
 3.6160	 5.3630
 3.6190	 5.4980
 3.6210	 5.4470
 3.6240	 5.4240
 3.6260	 5.3700
 3.6290	 5.4560
 3.6310	 5.6120
 3.6340	 5.7670
 3.6360	 5.6760
 3.6390	 5.7510
 3.6410	 5.8680
 3.6440	 5.8300
 3.6470	 5.6920
 3.6490	 5.6660
 3.6520	 5.7030
 3.6540	 5.9010
 3.6570	 5.9670
 3.6590	 5.8820
 3.6620	 5.7630
 3.6650	 5.8560
 3.6670	 5.9560
 3.6700	 6.1040
 3.6720	 6.1780
 3.6750	 6.1600
 3.6780	 6.1380
 3.6800	 6.1980
 3.6830	 6.1400
 3.6850	 6.0990
 3.6880	 6.2030
 3.6910	 6.2890
 3.6930	 6.2930
 3.6960	 6.3500
 3.6990	 6.2860
 3.7010	 6.2770
 3.7040	 6.3190
 3.7060	 6.3990
 3.7090	 6.5080
 3.7120	 6.5850
 3.7140	 6.5580
 3.7170	 6.6630
 3.7200	 6.5260
 3.7220	 6.3870
 3.7250	 6.5590
 3.7280	 6.8210
 3.7300	 6.8610
 3.7330	 6.8300
 3.7360	 6.8060
 3.7390	 6.8690
 3.7410	 7.0190
 3.7440	 6.9850
 3.7470	 7.1520
 3.7490	 7.1470
 3.7520	 7.0150
 3.7550	 7.0050
 3.7580	 6.9670
 3.7600	 7.1080
 3.7630	 7.2120
 3.7660	 7.2990
 3.7680	 7.4220
 3.7710	 7.5010
 3.7740	 7.3890
 3.7770	 7.3970
 3.7790	 7.4330
 3.7820	 7.4810
 3.7850	 7.4380
 3.7880	 7.3350
 3.7900	 7.2460
 3.7930	 7.3170
 3.7960	 7.2550
 3.7990	 7.2440
 3.8020	 7.3880
 3.8040	 7.5260
 3.8070	 7.4370
 3.8100	 7.4760
 3.8130	 7.6370
 3.8160	 7.7740
 3.8180	 7.6840
 3.8210	 7.6270
 3.8240	 7.7600
 3.8270	 7.7300
 3.8300	 7.7590
 3.8330	 7.8610
 3.8350	 7.8230
 3.8380	 7.7680
 3.8410	 8.0460
 3.8440	 8.0800
 3.8470	 7.8520
 3.8500	 7.9060
 3.8520	 7.9250
 3.8550	 7.9260
 3.8580	 7.8870
 3.8610	 7.9840
 3.8640	 8.0540
 3.8670	 8.0900
 3.8700	 8.0340
 3.8730	 8.0180
 3.8750	 8.0380
 3.8780	 8.1070
 3.8810	 8.0560
 3.8840	 8.0380
 3.8870	 7.9460
 3.8900	 7.9970
 3.8930	 7.8670
 3.8960	 7.7790
 3.8990	 7.8480
 3.9020	 7.9960
 3.9050	 8.0360
 3.9080	 8.0020
 3.9110	 7.8330
 3.9140	 7.7930
 3.9160	 7.8710
 3.9190	 7.9810
 3.9220	 8.0400
 3.9250	 8.0410
 3.9280	 8.0220
 3.9310	 7.9620
 3.9340	 7.7270
 3.9370	 7.7690
 3.9400	 7.9410
 3.9430	 7.9870
 3.9460	 7.8910
 3.9490	 7.9490
 3.9520	 8.0440
 3.9550	 8.0590
 3.9580	 7.9560
 3.9610	 7.8830
 3.9640	 7.7420
 3.9670	 7.6550
 3.9700	 7.7710
 3.9730	 7.8210
 3.9770	 7.7090
 3.9800	 7.7000
 3.9830	 7.7000
 3.9860	 7.6670
 3.9890	 7.5620
 3.9920	 7.6700
 3.9950	 7.7260
 3.9980	 7.6020
 4.0010	 7.4970
 4.0040	 7.5400
 4.0070	 7.4530
 4.0100	 7.3870
 4.0130	 7.4550
 4.0170	 7.4650
 4.0200	 7.3120
 4.0230	 7.4100
 4.0260	 7.3920
 4.0290	 7.3110
 4.0320	 7.3590
 4.0350	 7.4230
 4.0380	 7.3920
 4.0420	 7.4020
 4.0450	 7.2880
 4.0480	 7.1950
 4.0510	 7.1700
 4.0540	 7.1830
 4.0570	 7.1850
 4.0610	 7.1770
 4.0640	 7.2170
 4.0670	 7.0760
 4.0700	 7.0100
 4.0730	 7.0620
 4.0770	 7.0530
 4.0800	 7.0230
 4.0830	 6.9910
 4.0860	 6.9920
 4.0890	 6.9380
 4.0930	 7.0070
 4.0960	 6.9300
 4.0990	 6.8300
 4.1020	 6.8460
 4.1060	 7.0400
 4.1090	 7.0800
 4.1120	 6.8740
 4.1150	 6.6900
 4.1190	 6.6430
 4.1220	 6.6660
 4.1250	 6.6690
 4.1280	 6.5710
 4.1320	 6.5550
 4.1350	 6.5280
 4.1380	 6.4860
 4.1420	 6.3920
 4.1450	 6.4010
 4.1480	 6.5500
 4.1520	 6.6290
 4.1550	 6.5050
 4.1580	 6.3910
 4.1620	 6.3510
 4.1650	 6.2990
 4.1680	 6.3240
 4.1720	 6.3660
 4.1750	 6.2870
 4.1780	 6.1590
 4.1820	 6.1300
 4.1850	 6.1230
 4.1890	 6.1360
 4.1920	 6.2070
 4.1950	 6.2260
 4.1990	 6.1870
 4.2020	 6.2510
 4.2060	 6.3880
 4.2090	 6.3370
 4.2120	 6.3310
 4.2160	 6.4050
 4.2190	 6.4900
 4.2230	 6.5170
 4.2260	 6.6860
 4.2300	 6.6860
 4.2330	 6.1330
 4.2360	 6.1440
 4.2400	 6.6460
 4.2430	 6.3260
 4.2470	 6.2200
 4.2500	 6.2690
 4.2540	 5.9820
 4.2570	 5.9330
 4.2610	 6.0690
 4.2640	 6.1360
 4.2680	 6.0930
 4.2710	 6.4560
 4.2750	 6.5370
 4.2780	 5.9400
 4.2820	 5.6920
 4.2850	 5.5990
 4.2890	 5.5330
 4.2930	 5.4700
 4.2960	 5.3780
 4.3000	 5.3850
 4.3030	 5.4860
 4.3070	 5.6040
 4.3100	 5.6080
 4.3140	 5.3820
 4.3180	 5.3170
 4.3210	 5.3480
 4.3250	 5.2430
 4.3280	 5.1200
 4.3320	 5.2640
 4.3360	 5.2970
 4.3390	 5.1990
 4.3430	 5.1070
 4.3470	 5.0920
 4.3500	 5.0420
 4.3540	 5.0370
 4.3570	 4.9530
 4.3610	 4.9380
 4.3650	 4.9540
 4.3680	 4.8270
 4.3720	 4.6940
 4.3760	 4.6860
 4.3800	 4.5980
 4.3830	 4.6300
 4.3870	 4.8290
 4.3910	 4.8740
 4.3940	 4.7790
 4.3980	 4.7450
 4.4020	 4.6330
 4.4060	 4.5860
 4.4090	 4.5910
 4.4130	 4.6290
 4.4170	 4.6190
 4.4210	 4.5700
 4.4240	 4.5440
 4.4280	 4.5490
 4.4320	 4.5030
 4.4360	 4.4840
 4.4400	 4.5570
 4.4430	 4.4870
 4.4470	 4.3140
 4.4510	 4.3270
 4.4550	 4.4190
 4.4590	 4.3690
 4.4620	 4.3070
 4.4660	 4.3550
 4.4700	 4.3410
 4.4740	 4.3260
 4.4780	 4.3220
 4.4820	 4.3460
 4.4860	 4.3570
 4.4900	 4.3490
 4.4930	 4.3080
 4.4970	 4.2320
 4.5010	 4.1290
 4.5050	 4.1410
 4.5090	 4.1870
 4.5130	 4.1260
 4.5170	 4.0300
 4.5210	 4.0980
 4.5250	 4.1680
 4.5290	 4.1960
 4.5330	 4.2470
 4.5370	 4.1940
 4.5410	 3.9750
 4.5450	 3.9640
 4.5490	 4.1100
 4.5530	 4.0850
 4.5570	 4.0260
 4.5610	 4.0650
 4.5650	 4.0990
 4.5690	 4.1050
 4.5730	 4.1170
 4.5770	 4.1910
 4.5810	 4.1540
 4.5850	 4.1110
 4.5890	 4.0570
 4.5930	 4.0000
 4.5970	 4.0890
 4.6010	 4.1420
 4.6050	 4.1460
 4.6090	 4.1840
 4.6130	 4.3000
 4.6170	 4.3180
 4.6220	 4.2560
 4.6260	 4.1500
 4.6300	 4.0760
 4.6340	 4.0330
 4.6380	 3.9840
 4.6420	 3.9710
 4.6460	 3.9020
 4.6510	 3.8620
 4.6550	 3.8190
 4.6590	 3.8260
 4.6630	 3.8770
 4.6670	 3.8970
 4.6720	 3.8900
 4.6760	 3.9900
 4.6800	 3.9600
 4.6840	 3.8670
 4.6880	 3.9430
 4.6930	 3.9000
 4.6970	 3.8630
 4.7010	 3.8300
 4.7050	 3.8350
 4.7100	 3.8560
 4.7140	 3.9530
 4.7180	 4.0270
 4.7230	 3.9660
 4.7270	 3.9240
 4.7310	 4.0010
 4.7360	 4.0530
 4.7400	 4.1280
 4.7440	 4.1120
 4.7490	 4.0160
 4.7530	 4.0640
 4.7570	 4.1030
 4.7620	 4.0040
 4.7660	 3.8690
 4.7700	 3.9600
 4.7750	 4.1320
 4.7790	 4.2240
 4.7840	 3.9680
 4.7880	 3.9240
 4.7920	 4.3320
 4.7970	 4.2400
 4.8010	 3.7630
 4.8060	 3.6920
 4.8100	 3.9380
 4.8150	 4.0400
 4.8190	 4.0140
 4.8240	 4.0270
 4.8280	 3.9850
 4.8330	 4.0520
 4.8370	 4.0030
 4.8420	 3.9200
 4.8460	 4.0090
 4.8510	 4.1420
 4.8550	 4.2490
 4.8600	 4.1630
 4.8640	 4.1330
 4.8690	 4.1500
 4.8730	 4.1460
 4.8780	 4.1750
 4.8830	 4.2220
 4.8870	 4.1320
 4.8920	 4.0320
 4.8960	 4.0600
 4.9010	 4.1760
 4.9060	 4.2030
 4.9100	 4.1780
 4.9150	 4.1600
 4.9200	 4.1770
 4.9240	 4.1420
 4.9290	 4.1660
 4.9340	 4.2630
 4.9380	 4.3360
 4.9430	 4.3170
 4.9480	 4.2900
 4.9530	 4.2350
 4.9570	 4.2870
 4.9620	 4.4430
 4.9670	 4.4510
 4.9720	 4.4520
 4.9760	 4.4090
 4.9810	 4.3240
 4.9860	 4.3400
 4.9910	 4.4470
 4.9960	 4.5510
 5.0000	 4.5550
 5.0050	 4.5480
 5.0100	 4.4810
 5.0150	 4.5850
 5.0200	 4.6430
 5.0250	 4.6790
 5.0290	 4.6580
 5.0340	 4.6710
 5.0390	 4.6930
 5.0440	 4.6770
 5.0490	 4.6270
 5.0540	 4.7030
 5.0590	 4.7870
 5.0640	 4.7950
 5.0690	 4.7280
 5.0740	 4.6490
 5.0790	 4.7500
 5.0840	 4.8900
 5.0890	 4.8810
 5.0940	 4.8400
 5.0990	 4.8110
 5.1040	 4.8210
 5.1090	 4.8760
 5.1140	 4.8710
 5.1190	 4.8510
 5.1240	 4.9540
 5.1290	 5.0790
 5.1340	 5.0610
 5.1390	 5.1410
 5.1440	 5.2550
 5.1490	 5.1760
 5.1540	 5.1440
 5.1600	 5.1180
 5.1650	 5.2210
 5.1700	 5.2670
 5.1750	 5.1150
 5.1800	 5.0950
 5.1850	 5.1920
 5.1910	 5.1840
 5.1960	 5.2600
 5.2010	 5.3170
 5.2060	 5.2710
 5.2110	 5.1310
 5.2170	 5.1200
 5.2220	 5.2670
 5.2270	 5.3430
 5.2320	 5.2720
 5.2380	 5.2460
 5.2430	 5.3910
 5.2480	 5.4440
 5.2540	 5.4690
 5.2590	 5.4990
 5.2640	 5.4190
 5.2700	 5.4270
 5.2750	 5.4780
 5.2800	 5.5400
 5.2860	 5.4560
 5.2910	 5.2260
 5.2970	 5.1760
 5.3020	 5.3090
 5.3070	 5.3370
 5.3130	 5.3470
 5.3180	 5.2830
 5.3240	 5.1920
 5.3290	 5.1630
 5.3350	 5.2250
 5.3400	 5.2770
 5.3460	 5.2490
 5.3510	 5.1720
 5.3570	 5.2180
 5.3620	 5.1730
 5.3680	 5.1200
 5.3730	 5.0670
 5.3790	 5.1270
 5.3850	 5.0520
 5.3900	 4.9340
 5.3960	 4.9870
 5.4010	 5.1300
 5.4070	 5.0710
 5.4130	 5.0290
 5.4180	 4.8750
 5.4240	 4.7920
 5.4300	 4.8170
 5.4350	 4.7740
 5.4410	 4.7290
 5.4470	 4.8250
 5.4530	 4.9060
