Name: Heteromeles arbutifolia 3
Type: vegetation
Class: Shrub
Genus: Heteromeles
Species: arbutifolia
Sample No.: VH017
Owner: UCSB
Wavelength Range: TIR
Origin: 34.4908; -119.7912; WGS84
Collection Date: 4/1/2013
Description: Samples were collected as part of the HyspIRI Airborne Campaign. 48 individual plants were sampled in three times in 2013 - spring  summer  and fall. The name of the sample includes a 1  2  or 3 which references a different individual of the species. Samples were taken to JPL and processed within 48 hours of collection. The same leaves were processed in the Nicolet and then measured using the ASD.
Measurement: Hemispherical reflectance
First Column: X
Second Column: Y
X Units: Wavelength (micrometers)
Y Units: Reflectance (percentage)
First X Value: 2.501
Last X Value: 15.387
Number of X Values: 1737
Additional Information: vegetation.shrub.heteromeles.arbutifolia.tir.vh017.ucsb.nicolet.ancillary.txt

 2.5010	 6.3240
 2.5030	 6.1860
 2.5040	 6.1650
 2.5050	 6.2330
 2.5060	 6.2670
 2.5070	 6.1280
 2.5090	 6.1800
 2.5100	 6.2560
 2.5110	 6.3770
 2.5120	 6.3530
 2.5140	 6.2920
 2.5150	 6.2200
 2.5160	 6.2420
 2.5170	 6.2380
 2.5180	 6.2330
 2.5200	 6.3330
 2.5210	 6.4290
 2.5220	 6.2980
 2.5230	 6.2850
 2.5250	 6.2780
 2.5260	 6.2380
 2.5270	 6.1490
 2.5280	 6.1880
 2.5290	 6.1530
 2.5310	 6.1890
 2.5320	 6.1800
 2.5330	 6.2830
 2.5340	 6.2410
 2.5360	 6.2560
 2.5370	 6.2770
 2.5380	 6.2950
 2.5390	 6.1890
 2.5410	 6.1880
 2.5420	 6.2450
 2.5430	 6.2400
 2.5440	 6.1100
 2.5460	 6.0890
 2.5470	 6.1990
 2.5480	 6.2340
 2.5490	 6.2290
 2.5510	 6.2310
 2.5520	 6.0260
 2.5530	 6.1020
 2.5540	 6.1480
 2.5560	 6.2150
 2.5570	 6.2540
 2.5580	 6.3090
 2.5590	 6.3470
 2.5610	 6.4300
 2.5620	 6.3430
 2.5630	 6.2820
 2.5640	 6.2520
 2.5660	 6.2170
 2.5670	 6.2090
 2.5680	 6.3350
 2.5700	 6.3340
 2.5710	 6.2610
 2.5720	 6.2040
 2.5730	 6.2810
 2.5750	 6.2800
 2.5760	 6.2520
 2.5770	 6.1650
 2.5790	 6.1930
 2.5800	 6.2560
 2.5810	 6.2810
 2.5820	 6.1340
 2.5840	 6.1700
 2.5850	 6.2290
 2.5860	 6.3390
 2.5880	 6.2530
 2.5890	 6.1840
 2.5900	 6.0700
 2.5910	 6.1240
 2.5930	 6.1350
 2.5940	 6.1370
 2.5950	 6.1360
 2.5970	 6.2470
 2.5980	 6.3040
 2.5990	 6.2660
 2.6000	 6.1350
 2.6020	 6.1600
 2.6030	 6.1660
 2.6040	 6.1540
 2.6060	 6.0640
 2.6070	 6.0490
 2.6080	 6.0480
 2.6100	 6.0700
 2.6110	 6.0760
 2.6120	 6.0280
 2.6140	 5.8310
 2.6150	 5.8340
 2.6160	 5.8680
 2.6180	 6.0310
 2.6190	 6.0190
 2.6200	 5.8820
 2.6220	 5.8040
 2.6230	 5.8810
 2.6240	 5.7900
 2.6260	 5.8090
 2.6270	 5.7470
 2.6280	 5.7500
 2.6300	 5.8270
 2.6310	 5.8240
 2.6320	 5.6660
 2.6340	 5.6240
 2.6350	 5.6250
 2.6360	 5.7410
 2.6380	 5.6990
 2.6390	 5.6200
 2.6400	 5.5880
 2.6420	 5.5700
 2.6430	 5.5720
 2.6440	 5.6070
 2.6460	 5.6020
 2.6470	 5.5080
 2.6480	 5.3400
 2.6500	 5.3820
 2.6510	 5.3440
 2.6520	 5.2770
 2.6540	 5.2890
 2.6550	 5.4010
 2.6560	 5.3730
 2.6580	 5.3690
 2.6590	 5.2450
 2.6610	 5.2830
 2.6620	 5.2960
 2.6630	 5.3200
 2.6650	 5.2920
 2.6660	 5.2940
 2.6670	 5.2600
 2.6690	 5.1850
 2.6700	 5.1310
 2.6720	 5.2850
 2.6730	 5.2930
 2.6740	 5.1790
 2.6760	 5.0800
 2.6770	 5.1080
 2.6780	 5.1010
 2.6800	 5.1320
 2.6810	 5.0320
 2.6830	 5.0740
 2.6840	 5.0290
 2.6850	 4.9860
 2.6870	 4.9370
 2.6880	 4.9430
 2.6900	 4.9140
 2.6910	 4.8990
 2.6920	 4.8710
 2.6940	 4.9230
 2.6950	 4.8820
 2.6970	 4.8990
 2.6980	 4.9880
 2.6990	 5.0600
 2.7010	 4.9620
 2.7020	 4.9110
 2.7040	 4.8790
 2.7050	 4.9370
 2.7060	 4.8840
 2.7080	 4.7890
 2.7090	 4.7390
 2.7110	 4.7530
 2.7120	 4.7320
 2.7130	 4.8630
 2.7150	 4.8730
 2.7160	 4.8670
 2.7180	 4.7940
 2.7190	 4.7410
 2.7210	 4.6140
 2.7220	 4.6420
 2.7230	 4.6970
 2.7250	 4.8470
 2.7260	 4.9140
 2.7280	 4.8770
 2.7290	 4.7360
 2.7310	 4.6840
 2.7320	 4.6690
 2.7330	 4.7700
 2.7350	 4.6760
 2.7360	 4.7690
 2.7380	 4.7800
 2.7390	 4.7570
 2.7410	 4.6690
 2.7420	 4.6250
 2.7440	 4.5990
 2.7450	 4.6450
 2.7470	 4.6470
 2.7480	 4.7570
 2.7490	 4.6170
 2.7510	 4.5520
 2.7520	 4.5520
 2.7540	 4.6080
 2.7550	 4.6020
 2.7570	 4.6420
 2.7580	 4.5080
 2.7600	 4.5720
 2.7610	 4.6430
 2.7630	 4.6510
 2.7640	 4.6200
 2.7660	 4.6740
 2.7670	 4.6190
 2.7680	 4.5980
 2.7700	 4.5700
 2.7710	 4.6270
 2.7730	 4.6070
 2.7740	 4.6370
 2.7760	 4.5870
 2.7770	 4.6640
 2.7790	 4.5620
 2.7800	 4.5140
 2.7820	 4.5820
 2.7830	 4.6480
 2.7850	 4.5480
 2.7860	 4.6510
 2.7880	 4.6270
 2.7890	 4.5620
 2.7910	 4.5250
 2.7920	 4.5510
 2.7940	 4.5590
 2.7950	 4.7030
 2.7970	 4.7020
 2.7980	 4.6510
 2.8000	 4.5120
 2.8010	 4.5660
 2.8030	 4.5880
 2.8040	 4.6840
 2.8060	 4.7210
 2.8070	 4.7100
 2.8090	 4.6400
 2.8110	 4.7430
 2.8120	 4.7300
 2.8140	 4.7420
 2.8150	 4.6290
 2.8170	 4.6200
 2.8180	 4.5830
 2.8200	 4.6400
 2.8210	 4.5780
 2.8230	 4.5880
 2.8240	 4.5340
 2.8260	 4.5860
 2.8270	 4.5580
 2.8290	 4.6050
 2.8300	 4.6170
 2.8320	 4.6710
 2.8340	 4.5800
 2.8350	 4.6620
 2.8370	 4.7260
 2.8380	 4.6780
 2.8400	 4.7080
 2.8410	 4.7450
 2.8430	 4.6630
 2.8440	 4.6740
 2.8460	 4.5740
 2.8480	 4.7090
 2.8490	 4.6960
 2.8510	 4.6260
 2.8520	 4.6210
 2.8540	 4.7240
 2.8550	 4.6350
 2.8570	 4.5970
 2.8590	 4.5400
 2.8600	 4.6020
 2.8620	 4.6280
 2.8630	 4.6490
 2.8650	 4.5670
 2.8660	 4.6210
 2.8680	 4.6720
 2.8700	 4.7450
 2.8710	 4.5740
 2.8730	 4.5410
 2.8740	 4.6010
 2.8760	 4.6890
 2.8780	 4.7170
 2.8790	 4.7200
 2.8810	 4.6550
 2.8820	 4.6030
 2.8840	 4.5530
 2.8860	 4.7160
 2.8870	 4.7210
 2.8890	 4.6910
 2.8900	 4.6080
 2.8920	 4.7430
 2.8940	 4.7340
 2.8950	 4.6190
 2.8970	 4.5500
 2.8980	 4.6730
 2.9000	 4.7350
 2.9020	 4.7560
 2.9030	 4.6650
 2.9050	 4.6990
 2.9070	 4.7330
 2.9080	 4.6820
 2.9100	 4.6140
 2.9120	 4.6990
 2.9130	 4.6290
 2.9150	 4.7030
 2.9160	 4.7000
 2.9180	 4.6590
 2.9200	 4.5890
 2.9210	 4.6770
 2.9230	 4.6640
 2.9250	 4.7040
 2.9260	 4.6640
 2.9280	 4.6850
 2.9300	 4.6540
 2.9310	 4.6840
 2.9330	 4.5640
 2.9350	 4.5710
 2.9360	 4.6650
 2.9380	 4.7430
 2.9400	 4.5980
 2.9410	 4.6220
 2.9430	 4.6580
 2.9450	 4.7000
 2.9460	 4.6480
 2.9480	 4.6670
 2.9500	 4.6600
 2.9510	 4.8020
 2.9530	 4.8930
 2.9550	 4.9060
 2.9560	 4.6140
 2.9580	 4.6320
 2.9600	 4.5530
 2.9610	 4.4400
 2.9630	 4.5180
 2.9650	 4.9100
 2.9660	 4.9570
 2.9680	 4.8380
 2.9700	 4.7520
 2.9720	 4.8320
 2.9730	 4.7600
 2.9750	 4.7910
 2.9770	 4.9210
 2.9780	 4.8180
 2.9800	 4.3580
 2.9820	 4.2140
 2.9840	 4.4020
 2.9850	 4.4400
 2.9870	 4.6270
 2.9890	 5.0570
 2.9900	 5.0600
 2.9920	 4.9220
 2.9940	 4.2680
 2.9960	 4.1020
 2.9970	 4.6150
 2.9990	 5.1310
 3.0010	 5.2440
 3.0030	 5.0650
 3.0040	 4.7280
 3.0060	 4.7330
 3.0080	 4.7000
 3.0100	 4.6180
 3.0110	 4.9790
 3.0130	 5.1160
 3.0150	 5.0080
 3.0170	 5.0610
 3.0180	 4.4810
 3.0200	 4.4990
 3.0220	 4.5730
 3.0240	 4.6060
 3.0250	 4.6750
 3.0270	 4.4900
 3.0290	 4.2970
 3.0310	 4.4520
 3.0320	 4.6910
 3.0340	 4.8480
 3.0360	 4.7920
 3.0380	 4.9640
 3.0400	 4.9480
 3.0410	 4.7450
 3.0430	 4.5380
 3.0450	 4.7010
 3.0470	 4.5770
 3.0480	 4.2880
 3.0500	 3.9940
 3.0520	 4.2860
 3.0540	 4.6200
 3.0560	 4.8930
 3.0570	 4.6440
 3.0590	 4.5420
 3.0610	 4.4480
 3.0630	 4.6790
 3.0650	 4.8470
 3.0660	 4.8480
 3.0680	 5.0650
 3.0700	 5.0960
 3.0720	 4.6900
 3.0740	 4.6360
 3.0760	 4.7360
 3.0770	 4.6680
 3.0790	 4.5710
 3.0810	 4.5600
 3.0830	 4.6070
 3.0850	 4.9380
 3.0870	 5.1640
 3.0880	 4.9850
 3.0900	 4.7440
 3.0920	 4.9270
 3.0940	 5.0190
 3.0960	 4.6130
 3.0980	 4.6290
 3.0990	 4.7030
 3.1010	 4.5990
 3.1030	 4.6710
 3.1050	 4.8440
 3.1070	 4.9920
 3.1090	 4.9860
 3.1110	 4.9190
 3.1120	 4.8420
 3.1140	 4.9460
 3.1160	 4.8070
 3.1180	 4.7080
 3.1200	 4.6730
 3.1220	 4.7100
 3.1240	 4.7320
 3.1260	 4.7090
 3.1270	 4.7520
 3.1290	 4.9220
 3.1310	 4.7150
 3.1330	 4.6260
 3.1350	 4.7030
 3.1370	 4.7830
 3.1390	 4.5100
 3.1410	 4.2610
 3.1430	 4.5620
 3.1450	 4.8540
 3.1460	 4.8180
 3.1480	 4.8210
 3.1500	 4.8160
 3.1520	 4.8610
 3.1540	 4.7900
 3.1560	 4.8600
 3.1580	 4.9690
 3.1600	 4.9990
 3.1620	 4.5050
 3.1640	 4.2500
 3.1660	 4.6530
 3.1680	 4.7130
 3.1700	 4.5000
 3.1710	 4.6820
 3.1730	 4.6630
 3.1750	 4.6430
 3.1770	 4.7980
 3.1790	 5.1520
 3.1810	 4.8870
 3.1830	 4.5440
 3.1850	 4.6860
 3.1870	 4.4570
 3.1890	 4.1680
 3.1910	 4.4900
 3.1930	 4.6950
 3.1950	 4.6070
 3.1970	 4.5660
 3.1990	 4.5730
 3.2010	 4.4840
 3.2030	 4.5110
 3.2050	 4.5640
 3.2070	 4.5620
 3.2090	 4.4710
 3.2110	 4.5940
 3.2130	 4.6000
 3.2150	 4.6210
 3.2170	 4.6530
 3.2190	 4.6910
 3.2210	 4.6640
 3.2230	 4.6460
 3.2250	 4.5930
 3.2270	 4.5930
 3.2290	 4.5360
 3.2310	 4.5150
 3.2330	 4.4860
 3.2350	 4.4840
 3.2370	 4.5530
 3.2390	 4.6110
 3.2410	 4.5730
 3.2430	 4.6220
 3.2450	 4.6290
 3.2470	 4.6840
 3.2490	 4.5540
 3.2510	 4.4960
 3.2530	 4.4490
 3.2550	 4.4610
 3.2570	 4.4910
 3.2590	 4.5150
 3.2610	 4.4480
 3.2630	 4.4470
 3.2650	 4.4760
 3.2670	 4.4960
 3.2690	 4.5410
 3.2720	 4.5300
 3.2740	 4.4590
 3.2760	 4.4950
 3.2780	 4.4880
 3.2800	 4.5290
 3.2820	 4.5160
 3.2840	 4.4680
 3.2860	 4.3970
 3.2880	 4.4390
 3.2900	 4.4500
 3.2920	 4.2800
 3.2940	 4.2400
 3.2960	 4.3760
 3.2990	 4.3140
 3.3010	 4.3330
 3.3030	 4.3170
 3.3050	 4.3470
 3.3070	 4.3590
 3.3090	 4.3560
 3.3110	 4.3330
 3.3130	 4.3250
 3.3150	 4.2910
 3.3180	 4.2990
 3.3200	 4.2470
 3.3220	 4.2310
 3.3240	 4.1860
 3.3260	 4.2070
 3.3280	 4.1730
 3.3300	 4.2050
 3.3330	 4.2170
 3.3350	 4.1760
 3.3370	 4.0910
 3.3390	 4.1210
 3.3410	 4.0630
 3.3430	 4.0370
 3.3450	 3.9650
 3.3480	 4.0850
 3.3500	 4.1280
 3.3520	 4.1400
 3.3540	 4.0960
 3.3560	 3.9550
 3.3580	 3.8000
 3.3610	 3.8510
 3.3630	 3.9310
 3.3650	 3.9400
 3.3670	 3.9130
 3.3690	 3.9250
 3.3720	 3.9350
 3.3740	 3.9840
 3.3760	 3.9410
 3.3780	 4.0030
 3.3800	 4.0360
 3.3830	 4.0680
 3.3850	 4.0890
 3.3870	 4.1290
 3.3890	 4.0440
 3.3910	 4.0200
 3.3940	 4.0650
 3.3960	 4.0390
 3.3980	 4.0070
 3.4000	 4.0560
 3.4020	 4.0740
 3.4050	 4.2130
 3.4070	 4.3080
 3.4090	 4.4670
 3.4110	 4.6220
 3.4140	 4.8180
 3.4160	 5.0830
 3.4180	 5.4740
 3.4200	 5.9900
 3.4230	 6.7270
 3.4250	 7.5430
 3.4270	 8.5730
 3.4290	 9.2160
 3.4320	 8.9850
 3.4340	 8.0960
 3.4360	 7.3350
 3.4390	 6.8050
 3.4410	 6.5520
 3.4430	 6.2970
 3.4450	 6.1400
 3.4480	 6.0750
 3.4500	 5.9920
 3.4520	 5.7830
 3.4550	 5.7670
 3.4570	 5.7350
 3.4590	 5.7010
 3.4620	 5.7240
 3.4640	 5.7260
 3.4660	 5.6840
 3.4680	 5.5750
 3.4710	 5.4570
 3.4730	 5.4150
 3.4750	 5.2530
 3.4780	 5.1560
 3.4800	 5.0780
 3.4820	 5.0900
 3.4850	 4.9890
 3.4870	 4.9590
 3.4890	 5.0270
 3.4920	 5.1200
 3.4940	 5.0400
 3.4970	 5.0990
 3.4990	 5.2220
 3.5010	 5.3260
 3.5040	 5.4960
 3.5060	 6.1260
 3.5080	 7.2880
 3.5110	 8.3920
 3.5130	 8.3190
 3.5160	 7.5870
 3.5180	 6.8710
 3.5200	 6.4790
 3.5230	 6.3140
 3.5250	 6.1870
 3.5270	 5.9580
 3.5300	 5.8150
 3.5320	 5.7150
 3.5350	 5.6970
 3.5370	 5.6130
 3.5400	 5.5890
 3.5420	 5.5610
 3.5440	 5.5170
 3.5470	 5.4610
 3.5490	 5.4310
 3.5520	 5.3920
 3.5540	 5.4280
 3.5570	 5.4360
 3.5590	 5.4620
 3.5610	 5.4610
 3.5640	 5.4120
 3.5660	 5.3170
 3.5690	 5.2290
 3.5710	 5.3550
 3.5740	 5.6850
 3.5760	 5.4700
 3.5790	 5.2160
 3.5810	 5.2300
 3.5840	 5.2980
 3.5860	 5.2820
 3.5890	 5.4820
 3.5910	 5.4330
 3.5930	 5.2020
 3.5960	 5.0670
 3.5980	 5.1370
 3.6010	 5.1690
 3.6030	 5.2070
 3.6060	 5.2390
 3.6080	 5.2890
 3.6110	 5.2540
 3.6140	 5.2340
 3.6160	 5.1350
 3.6190	 5.0880
 3.6210	 5.0780
 3.6240	 5.0850
 3.6260	 5.0870
 3.6290	 5.1950
 3.6310	 5.1800
 3.6340	 5.1420
 3.6360	 5.1000
 3.6390	 5.1490
 3.6410	 5.0910
 3.6440	 5.0770
 3.6470	 5.1260
 3.6490	 5.1450
 3.6520	 5.0740
 3.6540	 5.0390
 3.6570	 5.0100
 3.6590	 5.0910
 3.6620	 5.0650
 3.6650	 5.0580
 3.6670	 5.0900
 3.6700	 5.0920
 3.6720	 5.0600
 3.6750	 5.1130
 3.6780	 5.0760
 3.6800	 5.0730
 3.6830	 5.0610
 3.6850	 5.0770
 3.6880	 5.0620
 3.6910	 5.0910
 3.6930	 5.0870
 3.6960	 5.0620
 3.6990	 5.0120
 3.7010	 5.0230
 3.7040	 5.0540
 3.7060	 5.1180
 3.7090	 5.0530
 3.7120	 5.0040
 3.7140	 5.0260
 3.7170	 5.0710
 3.7200	 5.0640
 3.7220	 5.0390
 3.7250	 5.0060
 3.7280	 5.1080
 3.7300	 5.1580
 3.7330	 5.1090
 3.7360	 5.0280
 3.7390	 5.0060
 3.7410	 4.9780
 3.7440	 4.9390
 3.7470	 4.8890
 3.7490	 4.9740
 3.7520	 4.9510
 3.7550	 4.9570
 3.7580	 4.9950
 3.7600	 5.0000
 3.7630	 5.0160
 3.7660	 5.0630
 3.7680	 5.0380
 3.7710	 5.0740
 3.7740	 5.0570
 3.7770	 5.0260
 3.7790	 4.9720
 3.7820	 5.0060
 3.7850	 5.0300
 3.7880	 5.0340
 3.7900	 5.0140
 3.7930	 5.0350
 3.7960	 5.0060
 3.7990	 4.9960
 3.8020	 5.0140
 3.8040	 5.0540
 3.8070	 5.0130
 3.8100	 5.0050
 3.8130	 4.9980
 3.8160	 4.9900
 3.8180	 4.9730
 3.8210	 5.0320
 3.8240	 5.0360
 3.8270	 5.0680
 3.8300	 5.0630
 3.8330	 5.0700
 3.8350	 5.0480
 3.8380	 5.0150
 3.8410	 4.9860
 3.8440	 5.0080
 3.8470	 5.0070
 3.8500	 5.0360
 3.8520	 5.0180
 3.8550	 5.0650
 3.8580	 5.0290
 3.8610	 5.0150
 3.8640	 4.9850
 3.8670	 4.9990
 3.8700	 5.0300
 3.8730	 5.0950
 3.8750	 5.0290
 3.8780	 5.0670
 3.8810	 5.1170
 3.8840	 5.1510
 3.8870	 5.1180
 3.8900	 5.1150
 3.8930	 5.0240
 3.8960	 4.9730
 3.8990	 4.9840
 3.9020	 5.0300
 3.9050	 4.9860
 3.9080	 5.0020
 3.9110	 5.0120
 3.9140	 5.0310
 3.9160	 5.0040
 3.9190	 5.0140
 3.9220	 4.9800
 3.9250	 4.9680
 3.9280	 4.9820
 3.9310	 5.0290
 3.9340	 5.0280
 3.9370	 5.0610
 3.9400	 5.1000
 3.9430	 5.0750
 3.9460	 5.0050
 3.9490	 4.9770
 3.9520	 4.9770
 3.9550	 4.9650
 3.9580	 4.9390
 3.9610	 5.0140
 3.9640	 5.0000
 3.9670	 4.9830
 3.9700	 4.9980
 3.9730	 5.0430
 3.9770	 5.0380
 3.9800	 5.0050
 3.9830	 5.0250
 3.9860	 4.9880
 3.9890	 4.9420
 3.9920	 5.0390
 3.9950	 5.0520
 3.9980	 5.0170
 4.0010	 5.0340
 4.0040	 5.0370
 4.0070	 4.9760
 4.0100	 4.9770
 4.0130	 4.9370
 4.0170	 4.9950
 4.0200	 5.0120
 4.0230	 5.0110
 4.0260	 5.0410
 4.0290	 5.0540
 4.0320	 4.9990
 4.0350	 4.9810
 4.0380	 4.9420
 4.0420	 4.9310
 4.0450	 4.9830
 4.0480	 5.0260
 4.0510	 5.0100
 4.0540	 5.0330
 4.0570	 4.9690
 4.0610	 5.0030
 4.0640	 5.0280
 4.0670	 5.0000
 4.0700	 4.9730
 4.0730	 4.9920
 4.0770	 4.9880
 4.0800	 4.9830
 4.0830	 4.9630
 4.0860	 5.0050
 4.0890	 5.0180
 4.0930	 4.9570
 4.0960	 4.8920
 4.0990	 4.9460
 4.1020	 5.0140
 4.1060	 5.0090
 4.1090	 4.9990
 4.1120	 5.0350
 4.1150	 5.0120
 4.1190	 5.0500
 4.1220	 5.0540
 4.1250	 5.0280
 4.1280	 5.0160
 4.1320	 5.0410
 4.1350	 5.0260
 4.1380	 4.9950
 4.1420	 4.9740
 4.1450	 4.9650
 4.1480	 4.9720
 4.1520	 5.0130
 4.1550	 4.9990
 4.1580	 4.9640
 4.1620	 4.9620
 4.1650	 5.0140
 4.1680	 5.0260
 4.1720	 5.0500
 4.1750	 5.0340
 4.1780	 4.9500
 4.1820	 4.8960
 4.1850	 4.9530
 4.1890	 4.9720
 4.1920	 4.9590
 4.1950	 4.9040
 4.1990	 4.9450
 4.2020	 4.9680
 4.2060	 4.9250
 4.2090	 4.9130
 4.2120	 4.9920
 4.2160	 4.9380
 4.2190	 4.9520
 4.2230	 4.9230
 4.2260	 4.8770
 4.2300	 4.6840
 4.2330	 4.6120
 4.2360	 4.7020
 4.2400	 4.8310
 4.2430	 4.7370
 4.2470	 4.7210
 4.2500	 4.7390
 4.2540	 4.7730
 4.2570	 4.7850
 4.2610	 4.8590
 4.2640	 5.0390
 4.2680	 5.1750
 4.2710	 4.8650
 4.2750	 4.7040
 4.2780	 4.7390
 4.2820	 4.7530
 4.2850	 4.7620
 4.2890	 4.8380
 4.2930	 4.7480
 4.2960	 4.8440
 4.3000	 4.8690
 4.3030	 4.8250
 4.3070	 4.7090
 4.3100	 4.7320
 4.3140	 4.7530
 4.3180	 4.7950
 4.3210	 4.8480
 4.3250	 4.9440
 4.3280	 4.9670
 4.3320	 4.9310
 4.3360	 4.8760
 4.3390	 4.8270
 4.3430	 4.8190
 4.3470	 4.8810
 4.3500	 4.9190
 4.3540	 4.8890
 4.3570	 4.9180
 4.3610	 4.9560
 4.3650	 4.9230
 4.3680	 4.9010
 4.3720	 4.8470
 4.3760	 4.8520
 4.3800	 4.9050
 4.3830	 4.8880
 4.3870	 4.8570
 4.3910	 4.8800
 4.3940	 4.8730
 4.3980	 4.8990
 4.4020	 4.8860
 4.4060	 4.8810
 4.4090	 4.8560
 4.4130	 4.8750
 4.4170	 4.8920
 4.4210	 4.8920
 4.4240	 4.8670
 4.4280	 4.8460
 4.4320	 4.8100
 4.4360	 4.7900
 4.4400	 4.7930
 4.4430	 4.7750
 4.4470	 4.7560
 4.4510	 4.8070
 4.4550	 4.8340
 4.4590	 4.8410
 4.4620	 4.8040
 4.4660	 4.7870
 4.4700	 4.8210
 4.4740	 4.8560
 4.4780	 4.8130
 4.4820	 4.7790
 4.4860	 4.8090
 4.4900	 4.8270
 4.4930	 4.8660
 4.4970	 4.8810
 4.5010	 4.9060
 4.5050	 4.9200
 4.5090	 4.8610
 4.5130	 4.8340
 4.5170	 4.8150
 4.5210	 4.8160
 4.5250	 4.8360
 4.5290	 4.8370
 4.5330	 4.8480
 4.5370	 4.9030
 4.5410	 4.8830
 4.5450	 4.7800
 4.5490	 4.7540
 4.5530	 4.8290
 4.5570	 4.8390
 4.5610	 4.8010
 4.5650	 4.7900
 4.5690	 4.8320
 4.5730	 4.8660
 4.5770	 4.8370
 4.5810	 4.7810
 4.5850	 4.7580
 4.5890	 4.7680
 4.5930	 4.7520
 4.5970	 4.7530
 4.6010	 4.8000
 4.6050	 4.8360
 4.6090	 4.8780
 4.6130	 4.8200
 4.6170	 4.7490
 4.6220	 4.7890
 4.6260	 4.7980
 4.6300	 4.8040
 4.6340	 4.8170
 4.6380	 4.8040
 4.6420	 4.7860
 4.6460	 4.8040
 4.6510	 4.7780
 4.6550	 4.7400
 4.6590	 4.7520
 4.6630	 4.7530
 4.6670	 4.7700
 4.6720	 4.7810
 4.6760	 4.7560
 4.6800	 4.7510
 4.6840	 4.7790
 4.6880	 4.7610
 4.6930	 4.7480
 4.6970	 4.7600
 4.7010	 4.7960
 4.7050	 4.8160
 4.7100	 4.8130
 4.7140	 4.8210
 4.7180	 4.7420
 4.7230	 4.7150
 4.7270	 4.7260
 4.7310	 4.7510
 4.7360	 4.7660
 4.7400	 4.7660
 4.7440	 4.7900
 4.7490	 4.7820
 4.7530	 4.7270
 4.7570	 4.7830
 4.7620	 4.8010
 4.7660	 4.7270
 4.7700	 4.7150
 4.7750	 4.7440
 4.7790	 4.7400
 4.7840	 4.7400
 4.7880	 4.7830
 4.7920	 4.7690
 4.7970	 4.7170
 4.8010	 4.7520
 4.8060	 4.7360
 4.8100	 4.7030
 4.8150	 4.7030
 4.8190	 4.7210
 4.8240	 4.7580
 4.8280	 4.7580
 4.8330	 4.7520
 4.8370	 4.7500
 4.8420	 4.7530
 4.8460	 4.7670
 4.8510	 4.7840
 4.8550	 4.7940
 4.8600	 4.7930
 4.8640	 4.7790
 4.8690	 4.7410
 4.8730	 4.7120
 4.8780	 4.7440
 4.8830	 4.7860
 4.8870	 4.7550
 4.8920	 4.7510
 4.8960	 4.7380
 4.9010	 4.7020
 4.9060	 4.7210
 4.9100	 4.7780
 4.9150	 4.7730
 4.9200	 4.7590
 4.9240	 4.7150
 4.9290	 4.7030
 4.9340	 4.7400
 4.9380	 4.7970
 4.9430	 4.8200
 4.9480	 4.7800
 4.9530	 4.7470
 4.9570	 4.7600
 4.9620	 4.7160
 4.9670	 4.7200
 4.9720	 4.7340
 4.9760	 4.7500
 4.9810	 4.7270
 4.9860	 4.7520
 4.9910	 4.7580
 4.9960	 4.7690
 5.0000	 4.7710
 5.0050	 4.7680
 5.0100	 4.7590
 5.0150	 4.7720
 5.0200	 4.7530
 5.0250	 4.7000
 5.0290	 4.7090
 5.0340	 4.7840
 5.0390	 4.7870
 5.0440	 4.8260
 5.0490	 4.8070
 5.0540	 4.7700
 5.0590	 4.7090
 5.0640	 4.6920
 5.0690	 4.7080
 5.0740	 4.7350
 5.0790	 4.7420
 5.0840	 4.7490
 5.0890	 4.7010
 5.0940	 4.6980
 5.0990	 4.7270
 5.1040	 4.7740
 5.1090	 4.6830
 5.1140	 4.6130
 5.1190	 4.6660
 5.1240	 4.7650
 5.1290	 4.7500
 5.1340	 4.7130
 5.1390	 4.6930
 5.1440	 4.7670
 5.1490	 4.8000
 5.1540	 4.8070
 5.1600	 4.7420
 5.1650	 4.7490
 5.1700	 4.8110
 5.1750	 4.8260
 5.1800	 4.7410
 5.1850	 4.6970
 5.1910	 4.7300
 5.1960	 4.7850
 5.2010	 4.7710
 5.2060	 4.7410
 5.2110	 4.7280
 5.2170	 4.7200
 5.2220	 4.7170
 5.2270	 4.7520
 5.2320	 4.7350
 5.2380	 4.8000
 5.2430	 4.7750
 5.2480	 4.6680
 5.2540	 4.6190
 5.2590	 4.6980
 5.2640	 4.7500
 5.2700	 4.7880
 5.2750	 4.7480
 5.2800	 4.7750
 5.2860	 4.6890
 5.2910	 4.6600
 5.2970	 4.7500
 5.3020	 4.8130
 5.3070	 4.7970
 5.3130	 4.7440
 5.3180	 4.7170
 5.3240	 4.7060
 5.3290	 4.6940
 5.3350	 4.6890
 5.3400	 4.7090
 5.3460	 4.7270
 5.3510	 4.6570
 5.3570	 4.6290
 5.3620	 4.6480
 5.3680	 4.6660
 5.3730	 4.6970
 5.3790	 4.7390
 5.3850	 4.7340
 5.3900	 4.7540
 5.3960	 4.6640
 5.4010	 4.6130
 5.4070	 4.6160
 5.4130	 4.6300
 5.4180	 4.6130
 5.4240	 4.6390
 5.4300	 4.6420
 5.4350	 4.6880
