Name: Quercus lobata 1
Type: vegetation
Class: Tree
Genus: Quercus
Species: lobata
Sample No.: VH282
Owner: UCSB
Wavelength Range: VSWIR
Origin: 34.7139; -120.0598; WGS84
Collection Date: 11/2/2013
Description: Samples were collected as part of the HyspIRI Airborne Campaign. 48 individual plants were sampled in three times in 2013 - spring  summer  and fall. The name of the sample includes a 1  2  or 3 which references a different individual of the species. Samples were taken to JPL and processed within 48 hours of collection. The same leaves were processed in the Nicolet and then measured using the ASD.
Measurement: Bidirectional reflectance
First Column: X
Second Column: Y
X Units: Wavelength (micrometers)
Y Units: Reflectance (percentage)
First X Value: 0.35
Last X Value: 2.5
Number of X Values: 2151
Additional Information: vegetation.tree.quercus.lobata.vswir.vh282.ucsb.asd.ancillary.txt

 0.3500	 7.8510
 0.3510	 7.8240
 0.3520	 7.7880
 0.3530	 7.7850
 0.3540	 7.8120
 0.3550	 7.7890
 0.3560	 7.6580
 0.3570	 7.5710
 0.3580	 7.7080
 0.3590	 7.5490
 0.3600	 7.4620
 0.3610	 7.5690
 0.3620	 7.5330
 0.3630	 7.5330
 0.3640	 7.5900
 0.3650	 7.6700
 0.3660	 7.6810
 0.3670	 7.6560
 0.3680	 7.6140
 0.3690	 7.5680
 0.3700	 7.6480
 0.3710	 7.7250
 0.3720	 7.7280
 0.3730	 7.7400
 0.3740	 7.8280
 0.3750	 7.8910
 0.3760	 7.8280
 0.3770	 7.8010
 0.3780	 7.8210
 0.3790	 7.8650
 0.3800	 7.8900
 0.3810	 7.9300
 0.3820	 7.9910
 0.3830	 8.0540
 0.3840	 8.0620
 0.3850	 8.0540
 0.3860	 8.0990
 0.3870	 8.2330
 0.3880	 8.2750
 0.3890	 8.3020
 0.3900	 8.3470
 0.3910	 8.3870
 0.3920	 8.4820
 0.3930	 8.5830
 0.3940	 8.6450
 0.3950	 8.7010
 0.3960	 8.7680
 0.3970	 8.8290
 0.3980	 8.8680
 0.3990	 8.9730
 0.4000	 9.0640
 0.4010	 9.1220
 0.4020	 9.2310
 0.4030	 9.3640
 0.4040	 9.4710
 0.4050	 9.5280
 0.4060	 9.6080
 0.4070	 9.7160
 0.4080	 9.8310
 0.4090	 9.9220
 0.4100	10.0330
 0.4110	10.1400
 0.4120	10.2320
 0.4130	10.3280
 0.4140	10.4290
 0.4150	10.5220
 0.4160	10.6040
 0.4170	10.7160
 0.4180	10.8100
 0.4190	10.8830
 0.4200	10.9820
 0.4210	11.0570
 0.4220	11.1240
 0.4230	11.2010
 0.4240	11.2820
 0.4250	11.3480
 0.4260	11.4120
 0.4270	11.4920
 0.4280	11.5650
 0.4290	11.6190
 0.4300	11.6650
 0.4310	11.7350
 0.4320	11.7800
 0.4330	11.8120
 0.4340	11.8520
 0.4350	11.8900
 0.4360	11.9310
 0.4370	11.9790
 0.4380	12.0330
 0.4390	12.0780
 0.4400	12.1220
 0.4410	12.1680
 0.4420	12.2060
 0.4430	12.2410
 0.4440	12.2740
 0.4450	12.3020
 0.4460	12.3340
 0.4470	12.3730
 0.4480	12.4130
 0.4490	12.4370
 0.4500	12.4500
 0.4510	12.4720
 0.4520	12.5120
 0.4530	12.5390
 0.4540	12.5630
 0.4550	12.5940
 0.4560	12.6380
 0.4570	12.6590
 0.4580	12.6810
 0.4590	12.7160
 0.4600	12.7410
 0.4610	12.7610
 0.4620	12.7910
 0.4630	12.8400
 0.4640	12.8680
 0.4650	12.8950
 0.4660	12.9240
 0.4670	12.9420
 0.4680	12.9770
 0.4690	13.0030
 0.4700	13.0070
 0.4710	13.0390
 0.4720	13.0680
 0.4730	13.0870
 0.4740	13.1000
 0.4750	13.1110
 0.4760	13.1230
 0.4770	13.1400
 0.4780	13.1640
 0.4790	13.1730
 0.4800	13.1800
 0.4810	13.2010
 0.4820	13.2260
 0.4830	13.2460
 0.4840	13.2650
 0.4850	13.2970
 0.4860	13.3240
 0.4870	13.3550
 0.4880	13.3970
 0.4890	13.4490
 0.4900	13.5010
 0.4910	13.5530
 0.4920	13.6110
 0.4930	13.6750
 0.4940	13.7500
 0.4950	13.8340
 0.4960	13.9260
 0.4970	14.0280
 0.4980	14.1400
 0.4990	14.2620
 0.5000	14.3990
 0.5010	14.5530
 0.5020	14.7250
 0.5030	14.9080
 0.5040	15.1100
 0.5050	15.3350
 0.5060	15.5820
 0.5070	15.8480
 0.5080	16.1400
 0.5090	16.4610
 0.5100	16.8120
 0.5110	17.1820
 0.5120	17.5770
 0.5130	18.0000
 0.5140	18.4410
 0.5150	18.9040
 0.5160	19.3870
 0.5170	19.8850
 0.5180	20.3940
 0.5190	20.9130
 0.5200	21.4370
 0.5210	21.9620
 0.5220	22.4820
 0.5230	22.9920
 0.5240	23.4940
 0.5250	23.9880
 0.5260	24.4660
 0.5270	24.9240
 0.5280	25.3620
 0.5290	25.7860
 0.5300	26.1930
 0.5310	26.5810
 0.5320	26.9460
 0.5330	27.2950
 0.5340	27.6260
 0.5350	27.9390
 0.5360	28.2360
 0.5370	28.5200
 0.5380	28.7900
 0.5390	29.0420
 0.5400	29.2790
 0.5410	29.4990
 0.5420	29.7080
 0.5430	29.9170
 0.5440	30.1330
 0.5450	30.3510
 0.5460	30.5650
 0.5470	30.7930
 0.5480	31.0140
 0.5490	31.2120
 0.5500	31.3860
 0.5510	31.5560
 0.5520	31.7150
 0.5530	31.8540
 0.5540	31.9870
 0.5550	32.1090
 0.5560	32.2200
 0.5570	32.3180
 0.5580	32.4130
 0.5590	32.4960
 0.5600	32.5630
 0.5610	32.6280
 0.5620	32.6830
 0.5630	32.7290
 0.5640	32.7710
 0.5650	32.8030
 0.5660	32.8300
 0.5670	32.8480
 0.5680	32.8460
 0.5690	32.8410
 0.5700	32.8360
 0.5710	32.8270
 0.5720	32.8130
 0.5730	32.7940
 0.5740	32.7760
 0.5750	32.7680
 0.5760	32.7710
 0.5770	32.7700
 0.5780	32.7560
 0.5790	32.7390
 0.5800	32.7280
 0.5810	32.7260
 0.5820	32.7350
 0.5830	32.7610
 0.5840	32.7760
 0.5850	32.7760
 0.5860	32.7840
 0.5870	32.7860
 0.5880	32.7890
 0.5890	32.8040
 0.5900	32.8390
 0.5910	32.8910
 0.5920	32.9520
 0.5930	33.0070
 0.5940	33.0590
 0.5950	33.1030
 0.5960	33.1350
 0.5970	33.1610
 0.5980	33.1810
 0.5990	33.1960
 0.6000	33.2070
 0.6010	33.2230
 0.6020	33.2260
 0.6030	33.2100
 0.6040	33.1850
 0.6050	33.1510
 0.6060	33.1040
 0.6070	33.0440
 0.6080	32.9810
 0.6090	32.8990
 0.6100	32.7930
 0.6110	32.6720
 0.6120	32.6000
 0.6130	32.5570
 0.6140	32.5200
 0.6150	32.4730
 0.6160	32.4270
 0.6170	32.3800
 0.6180	32.3320
 0.6190	32.3010
 0.6200	32.2780
 0.6210	32.2650
 0.6220	32.2660
 0.6230	32.2740
 0.6240	32.2890
 0.6250	32.3110
 0.6260	32.3530
 0.6270	32.3990
 0.6280	32.4450
 0.6290	32.4920
 0.6300	32.5440
 0.6310	32.5940
 0.6320	32.6440
 0.6330	32.6990
 0.6340	32.7290
 0.6350	32.7380
 0.6360	32.7330
 0.6370	32.7010
 0.6380	32.6460
 0.6390	32.5680
 0.6400	32.4650
 0.6410	32.3400
 0.6420	32.1880
 0.6430	32.0160
 0.6440	31.8430
 0.6450	31.6440
 0.6460	31.4340
 0.6470	31.2290
 0.6480	31.0160
 0.6490	30.8130
 0.6500	30.6210
 0.6510	30.4230
 0.6520	30.2210
 0.6530	30.0170
 0.6540	29.8060
 0.6550	29.5730
 0.6560	29.3200
 0.6570	29.0460
 0.6580	28.7490
 0.6590	28.4290
 0.6600	28.0990
 0.6610	27.7620
 0.6620	27.4160
 0.6630	27.0710
 0.6640	26.7490
 0.6650	26.4670
 0.6660	26.2140
 0.6670	25.9850
 0.6680	25.7890
 0.6690	25.6360
 0.6700	25.5270
 0.6710	25.4630
 0.6720	25.4430
 0.6730	25.4580
 0.6740	25.5120
 0.6750	25.6000
 0.6760	25.7200
 0.6770	25.8830
 0.6780	26.0890
 0.6790	26.3360
 0.6800	26.6250
 0.6810	26.9840
 0.6820	27.4040
 0.6830	27.8910
 0.6840	28.4800
 0.6850	29.1540
 0.6860	29.9140
 0.6870	30.7610
 0.6880	31.6770
 0.6890	32.6680
 0.6900	33.7250
 0.6910	34.8230
 0.6920	35.9350
 0.6930	37.0670
 0.6940	38.2170
 0.6950	39.3410
 0.6960	40.4490
 0.6970	41.5360
 0.6980	42.5870
 0.6990	43.5830
 0.7000	44.5400
 0.7010	45.4550
 0.7020	46.3040
 0.7030	47.0950
 0.7040	47.8330
 0.7050	48.5180
 0.7060	49.1510
 0.7070	49.7370
 0.7080	50.2820
 0.7090	50.7960
 0.7100	51.2690
 0.7110	51.7060
 0.7120	52.1170
 0.7130	52.5140
 0.7140	52.8860
 0.7150	53.2320
 0.7160	53.5500
 0.7170	53.8510
 0.7180	54.1350
 0.7190	54.4020
 0.7200	54.6570
 0.7210	54.9050
 0.7220	55.1350
 0.7230	55.3500
 0.7240	55.5620
 0.7250	55.7570
 0.7260	55.9430
 0.7270	56.1270
 0.7280	56.2820
 0.7290	56.4330
 0.7300	56.5880
 0.7310	56.7440
 0.7320	56.8770
 0.7330	57.0040
 0.7340	57.1310
 0.7350	57.2430
 0.7360	57.3610
 0.7370	57.4780
 0.7380	57.5820
 0.7390	57.6650
 0.7400	57.7600
 0.7410	57.8600
 0.7420	57.9450
 0.7430	58.0170
 0.7440	58.0910
 0.7450	58.1650
 0.7460	58.2260
 0.7470	58.3030
 0.7480	58.3750
 0.7490	58.4280
 0.7500	58.4870
 0.7510	58.5430
 0.7520	58.5950
 0.7530	58.6450
 0.7540	58.6950
 0.7550	58.7440
 0.7560	58.7890
 0.7570	58.8230
 0.7580	58.8550
 0.7590	58.8950
 0.7600	58.9420
 0.7610	58.9750
 0.7620	59.0210
 0.7630	59.0670
 0.7640	59.0960
 0.7650	59.1260
 0.7660	59.1570
 0.7670	59.1930
 0.7680	59.2330
 0.7690	59.2480
 0.7700	59.2700
 0.7710	59.3110
 0.7720	59.3550
 0.7730	59.3870
 0.7740	59.4110
 0.7750	59.4370
 0.7760	59.4570
 0.7770	59.5000
 0.7780	59.5480
 0.7790	59.5660
 0.7800	59.5860
 0.7810	59.6100
 0.7820	59.6410
 0.7830	59.6810
 0.7840	59.7240
 0.7850	59.7580
 0.7860	59.7820
 0.7870	59.8200
 0.7880	59.8620
 0.7890	59.8940
 0.7900	59.9090
 0.7910	59.9340
 0.7920	59.9580
 0.7930	59.9850
 0.7940	60.0250
 0.7950	60.0760
 0.7960	60.1170
 0.7970	60.1430
 0.7980	60.1810
 0.7990	60.2100
 0.8000	60.2400
 0.8010	60.2790
 0.8020	60.3190
 0.8030	60.3550
 0.8040	60.3840
 0.8050	60.4050
 0.8060	60.4380
 0.8070	60.4800
 0.8080	60.5200
 0.8090	60.5470
 0.8100	60.5840
 0.8110	60.6210
 0.8120	60.6580
 0.8130	60.7140
 0.8140	60.7450
 0.8150	60.7650
 0.8160	60.7950
 0.8170	60.8310
 0.8180	60.8810
 0.8190	60.9270
 0.8200	60.9510
 0.8210	60.9810
 0.8220	61.0140
 0.8230	61.0440
 0.8240	61.0640
 0.8250	61.1060
 0.8260	61.1560
 0.8270	61.1960
 0.8280	61.2110
 0.8290	61.2470
 0.8300	61.2780
 0.8310	61.2820
 0.8320	61.3230
 0.8330	61.3560
 0.8340	61.3800
 0.8350	61.4120
 0.8360	61.4360
 0.8370	61.4650
 0.8380	61.5030
 0.8390	61.5450
 0.8400	61.5730
 0.8410	61.5980
 0.8420	61.6260
 0.8430	61.6540
 0.8440	61.6930
 0.8450	61.7240
 0.8460	61.7390
 0.8470	61.7720
 0.8480	61.8130
 0.8490	61.8390
 0.8500	61.8420
 0.8510	61.8820
 0.8520	61.9170
 0.8530	61.9390
 0.8540	61.9670
 0.8550	61.9910
 0.8560	62.0170
 0.8570	62.0430
 0.8580	62.0580
 0.8590	62.0650
 0.8600	62.0740
 0.8610	62.0940
 0.8620	62.1190
 0.8630	62.1460
 0.8640	62.1760
 0.8650	62.2050
 0.8660	62.2260
 0.8670	62.2310
 0.8680	62.2390
 0.8690	62.2650
 0.8700	62.2720
 0.8710	62.2770
 0.8720	62.2900
 0.8730	62.3100
 0.8740	62.3310
 0.8750	62.3530
 0.8760	62.3720
 0.8770	62.3830
 0.8780	62.3850
 0.8790	62.3850
 0.8800	62.3940
 0.8810	62.4310
 0.8820	62.4440
 0.8830	62.4430
 0.8840	62.4450
 0.8850	62.4560
 0.8860	62.4600
 0.8870	62.4590
 0.8880	62.4580
 0.8890	62.4670
 0.8900	62.4600
 0.8910	62.4520
 0.8920	62.4680
 0.8930	62.4990
 0.8940	62.5070
 0.8950	62.4950
 0.8960	62.4960
 0.8970	62.5110
 0.8980	62.5190
 0.8990	62.5190
 0.9000	62.5240
 0.9010	62.5370
 0.9020	62.5360
 0.9030	62.5230
 0.9040	62.5240
 0.9050	62.5100
 0.9060	62.5060
 0.9070	62.5250
 0.9080	62.5410
 0.9090	62.5470
 0.9100	62.5340
 0.9110	62.5120
 0.9120	62.5270
 0.9130	62.5300
 0.9140	62.5250
 0.9150	62.5260
 0.9160	62.5260
 0.9170	62.5140
 0.9180	62.5100
 0.9190	62.5330
 0.9200	62.5260
 0.9210	62.5190
 0.9220	62.5190
 0.9230	62.5180
 0.9240	62.5100
 0.9250	62.4970
 0.9260	62.4760
 0.9270	62.4510
 0.9280	62.4360
 0.9290	62.4230
 0.9300	62.4140
 0.9310	62.4140
 0.9320	62.4030
 0.9330	62.3920
 0.9340	62.3780
 0.9350	62.3380
 0.9360	62.3120
 0.9370	62.2920
 0.9380	62.2710
 0.9390	62.2560
 0.9400	62.2270
 0.9410	62.2150
 0.9420	62.2220
 0.9430	62.1820
 0.9440	62.1560
 0.9450	62.1300
 0.9460	62.0870
 0.9470	62.0390
 0.9480	62.0030
 0.9490	61.9740
 0.9500	61.9380
 0.9510	61.8870
 0.9520	61.8290
 0.9530	61.7620
 0.9540	61.6910
 0.9550	61.6380
 0.9560	61.5970
 0.9570	61.5590
 0.9580	61.5140
 0.9590	61.4330
 0.9600	61.3690
 0.9610	61.3310
 0.9620	61.3080
 0.9630	61.2980
 0.9640	61.2660
 0.9650	61.2310
 0.9660	61.2260
 0.9670	61.2230
 0.9680	61.2280
 0.9690	61.2320
 0.9700	61.2320
 0.9710	61.2590
 0.9720	61.2450
 0.9730	61.2110
 0.9740	61.2150
 0.9750	61.2360
 0.9760	61.2540
 0.9770	61.2680
 0.9780	61.2850
 0.9790	61.3070
 0.9800	61.3240
 0.9810	61.3550
 0.9820	61.4150
 0.9830	61.4130
 0.9840	61.4280
 0.9850	61.4540
 0.9860	61.4460
 0.9870	61.4510
 0.9880	61.4940
 0.9890	61.5490
 0.9900	61.5770
 0.9910	61.6120
 0.9920	61.6500
 0.9930	61.6870
 0.9940	61.7210
 0.9950	61.7690
 0.9960	61.7880
 0.9970	61.7970
 0.9980	61.8330
 0.9990	61.8460
 1.0000	61.8280
 1.0010	61.6930
 1.0020	61.6560
 1.0030	61.6890
 1.0040	61.7350
 1.0050	61.7820
 1.0060	61.8260
 1.0070	61.8700
 1.0080	61.9090
 1.0090	61.9390
 1.0100	61.9710
 1.0110	62.0010
 1.0120	62.0350
 1.0130	62.0750
 1.0140	62.1060
 1.0150	62.1340
 1.0160	62.1660
 1.0170	62.1930
 1.0180	62.2210
 1.0190	62.2550
 1.0200	62.2890
 1.0210	62.3210
 1.0220	62.3500
 1.0230	62.3840
 1.0240	62.4240
 1.0250	62.4550
 1.0260	62.4840
 1.0270	62.5120
 1.0280	62.5320
 1.0290	62.5550
 1.0300	62.5790
 1.0310	62.6020
 1.0320	62.6250
 1.0330	62.6490
 1.0340	62.6680
 1.0350	62.6860
 1.0360	62.7080
 1.0370	62.7270
 1.0380	62.7490
 1.0390	62.7780
 1.0400	62.7990
 1.0410	62.8170
 1.0420	62.8350
 1.0430	62.8480
 1.0440	62.8630
 1.0450	62.8750
 1.0460	62.8900
 1.0470	62.9080
 1.0480	62.9230
 1.0490	62.9420
 1.0500	62.9560
 1.0510	62.9630
 1.0520	62.9700
 1.0530	62.9830
 1.0540	62.9970
 1.0550	63.0110
 1.0560	63.0350
 1.0570	63.0470
 1.0580	63.0510
 1.0590	63.0620
 1.0600	63.0700
 1.0610	63.0810
 1.0620	63.0950
 1.0630	63.1090
 1.0640	63.1260
 1.0650	63.1370
 1.0660	63.1490
 1.0670	63.1580
 1.0680	63.1630
 1.0690	63.1600
 1.0700	63.1650
 1.0710	63.1710
 1.0720	63.1770
 1.0730	63.1870
 1.0740	63.1910
 1.0750	63.1910
 1.0760	63.1920
 1.0770	63.1910
 1.0780	63.1920
 1.0790	63.1950
 1.0800	63.1960
 1.0810	63.1960
 1.0820	63.1970
 1.0830	63.2000
 1.0840	63.1990
 1.0850	63.1950
 1.0860	63.1930
 1.0870	63.1880
 1.0880	63.1810
 1.0890	63.1720
 1.0900	63.1640
 1.0910	63.1530
 1.0920	63.1370
 1.0930	63.1260
 1.0940	63.1180
 1.0950	63.1090
 1.0960	63.1060
 1.0970	63.0930
 1.0980	63.0700
 1.0990	63.0520
 1.1000	63.0250
 1.1010	63.0070
 1.1020	62.9960
 1.1030	62.9860
 1.1040	62.9750
 1.1050	62.9590
 1.1060	62.9430
 1.1070	62.9210
 1.1080	62.9020
 1.1090	62.8870
 1.1100	62.8670
 1.1110	62.8430
 1.1120	62.8230
 1.1130	62.8030
 1.1140	62.7790
 1.1150	62.7580
 1.1160	62.7300
 1.1170	62.6940
 1.1180	62.6600
 1.1190	62.6240
 1.1200	62.5850
 1.1210	62.5450
 1.1220	62.5040
 1.1230	62.4560
 1.1240	62.4080
 1.1250	62.3560
 1.1260	62.3020
 1.1270	62.2400
 1.1280	62.1740
 1.1290	62.0980
 1.1300	62.0160
 1.1310	61.9250
 1.1320	61.8290
 1.1330	61.7250
 1.1340	61.6110
 1.1350	61.4930
 1.1360	61.3690
 1.1370	61.2390
 1.1380	61.1030
 1.1390	60.9630
 1.1400	60.8160
 1.1410	60.6640
 1.1420	60.5060
 1.1430	60.3420
 1.1440	60.1810
 1.1450	60.0140
 1.1460	59.8560
 1.1470	59.6980
 1.1480	59.5490
 1.1490	59.4010
 1.1500	59.2650
 1.1510	59.1370
 1.1520	59.0170
 1.1530	58.9040
 1.1540	58.8030
 1.1550	58.7100
 1.1560	58.6280
 1.1570	58.5590
 1.1580	58.4980
 1.1590	58.4480
 1.1600	58.4070
 1.1610	58.3730
 1.1620	58.3510
 1.1630	58.3310
 1.1640	58.3120
 1.1650	58.3010
 1.1660	58.2980
 1.1670	58.2930
 1.1680	58.2940
 1.1690	58.2960
 1.1700	58.3000
 1.1710	58.3030
 1.1720	58.3090
 1.1730	58.3140
 1.1740	58.3170
 1.1750	58.3170
 1.1760	58.3160
 1.1770	58.3140
 1.1780	58.3110
 1.1790	58.3070
 1.1800	58.3030
 1.1810	58.3010
 1.1820	58.2950
 1.1830	58.2880
 1.1840	58.2850
 1.1850	58.2820
 1.1860	58.2770
 1.1870	58.2730
 1.1880	58.2690
 1.1890	58.2620
 1.1900	58.2600
 1.1910	58.2600
 1.1920	58.2630
 1.1930	58.2700
 1.1940	58.2750
 1.1950	58.2800
 1.1960	58.2870
 1.1970	58.2930
 1.1980	58.3010
 1.1990	58.3120
 1.2000	58.3230
 1.2010	58.3330
 1.2020	58.3480
 1.2030	58.3630
 1.2040	58.3790
 1.2050	58.4000
 1.2060	58.4210
 1.2070	58.4410
 1.2080	58.4640
 1.2090	58.4880
 1.2100	58.5140
 1.2110	58.5390
 1.2120	58.5660
 1.2130	58.5940
 1.2140	58.6200
 1.2150	58.6470
 1.2160	58.6750
 1.2170	58.7050
 1.2180	58.7340
 1.2190	58.7630
 1.2200	58.7950
 1.2210	58.8260
 1.2220	58.8560
 1.2230	58.8890
 1.2240	58.9220
 1.2250	58.9550
 1.2260	58.9860
 1.2270	59.0150
 1.2280	59.0470
 1.2290	59.0760
 1.2300	59.1030
 1.2310	59.1300
 1.2320	59.1560
 1.2330	59.1810
 1.2340	59.2080
 1.2350	59.2400
 1.2360	59.2680
 1.2370	59.2960
 1.2380	59.3240
 1.2390	59.3520
 1.2400	59.3770
 1.2410	59.4010
 1.2420	59.4210
 1.2430	59.4370
 1.2440	59.4580
 1.2450	59.4800
 1.2460	59.5000
 1.2470	59.5210
 1.2480	59.5370
 1.2490	59.5530
 1.2500	59.5700
 1.2510	59.5850
 1.2520	59.5980
 1.2530	59.6120
 1.2540	59.6250
 1.2550	59.6370
 1.2560	59.6510
 1.2570	59.6630
 1.2580	59.6710
 1.2590	59.6800
 1.2600	59.6900
 1.2610	59.6970
 1.2620	59.7040
 1.2630	59.7110
 1.2640	59.7160
 1.2650	59.7170
 1.2660	59.7170
 1.2670	59.7180
 1.2680	59.7140
 1.2690	59.7090
 1.2700	59.7070
 1.2710	59.6990
 1.2720	59.6900
 1.2730	59.6820
 1.2740	59.6700
 1.2750	59.6570
 1.2760	59.6460
 1.2770	59.6340
 1.2780	59.6170
 1.2790	59.6000
 1.2800	59.5820
 1.2810	59.5570
 1.2820	59.5370
 1.2830	59.5170
 1.2840	59.4910
 1.2850	59.4690
 1.2860	59.4500
 1.2870	59.4260
 1.2880	59.3980
 1.2890	59.3730
 1.2900	59.3440
 1.2910	59.3100
 1.2920	59.2770
 1.2930	59.2410
 1.2940	59.2050
 1.2950	59.1640
 1.2960	59.1200
 1.2970	59.0780
 1.2980	59.0330
 1.2990	58.9880
 1.3000	58.9400
 1.3010	58.8840
 1.3020	58.8270
 1.3030	58.7680
 1.3040	58.7060
 1.3050	58.6430
 1.3060	58.5730
 1.3070	58.4940
 1.3080	58.4170
 1.3090	58.3320
 1.3100	58.2480
 1.3110	58.1610
 1.3120	58.0640
 1.3130	57.9670
 1.3140	57.8640
 1.3150	57.7530
 1.3160	57.6400
 1.3170	57.5250
 1.3180	57.4030
 1.3190	57.2810
 1.3200	57.1560
 1.3210	57.0240
 1.3220	56.8870
 1.3230	56.7450
 1.3240	56.5970
 1.3250	56.4490
 1.3260	56.2970
 1.3270	56.1430
 1.3280	55.9850
 1.3290	55.8240
 1.3300	55.6640
 1.3310	55.4990
 1.3320	55.3320
 1.3330	55.1650
 1.3340	54.9920
 1.3350	54.8140
 1.3360	54.6380
 1.3370	54.4590
 1.3380	54.2800
 1.3390	54.1010
 1.3400	53.9220
 1.3410	53.7440
 1.3420	53.5690
 1.3430	53.3930
 1.3440	53.2190
 1.3450	53.0460
 1.3460	52.8710
 1.3470	52.7000
 1.3480	52.5320
 1.3490	52.3660
 1.3500	52.2020
 1.3510	52.0410
 1.3520	51.8800
 1.3530	51.7200
 1.3540	51.5590
 1.3550	51.3950
 1.3560	51.2340
 1.3570	51.0720
 1.3580	50.9090
 1.3590	50.7400
 1.3600	50.5690
 1.3610	50.3920
 1.3620	50.2040
 1.3630	50.0130
 1.3640	49.8120
 1.3650	49.5980
 1.3660	49.3800
 1.3670	49.1510
 1.3680	48.9080
 1.3690	48.6530
 1.3700	48.3820
 1.3710	48.0950
 1.3720	47.7930
 1.3730	47.4720
 1.3740	47.1370
 1.3750	46.7830
 1.3760	46.4020
 1.3770	45.9970
 1.3780	45.5610
 1.3790	45.0960
 1.3800	44.6080
 1.3810	44.0890
 1.3820	43.5480
 1.3830	42.9820
 1.3840	42.3950
 1.3850	41.7830
 1.3860	41.1560
 1.3870	40.5030
 1.3880	39.8460
 1.3890	39.1750
 1.3900	38.4920
 1.3910	37.8110
 1.3920	37.1270
 1.3930	36.4390
 1.3940	35.7580
 1.3950	35.0750
 1.3960	34.4010
 1.3970	33.7400
 1.3980	33.0920
 1.3990	32.4670
 1.4000	31.8610
 1.4010	31.2750
 1.4020	30.7160
 1.4030	30.1780
 1.4040	29.6680
 1.4050	29.1880
 1.4060	28.7290
 1.4070	28.3020
 1.4080	27.9030
 1.4090	27.5290
 1.4100	27.1840
 1.4110	26.8620
 1.4120	26.5660
 1.4130	26.2930
 1.4140	26.0420
 1.4150	25.8170
 1.4160	25.6120
 1.4170	25.4260
 1.4180	25.2590
 1.4190	25.1040
 1.4200	24.9660
 1.4210	24.8420
 1.4220	24.7320
 1.4230	24.6390
 1.4240	24.5570
 1.4250	24.4830
 1.4260	24.4220
 1.4270	24.3670
 1.4280	24.3210
 1.4290	24.2840
 1.4300	24.2580
 1.4310	24.2360
 1.4320	24.2230
 1.4330	24.2140
 1.4340	24.2110
 1.4350	24.2110
 1.4360	24.2180
 1.4370	24.2270
 1.4380	24.2380
 1.4390	24.2540
 1.4400	24.2720
 1.4410	24.2930
 1.4420	24.3170
 1.4430	24.3440
 1.4440	24.3730
 1.4450	24.4020
 1.4460	24.4330
 1.4470	24.4640
 1.4480	24.4950
 1.4490	24.5260
 1.4500	24.5570
 1.4510	24.5900
 1.4520	24.6250
 1.4530	24.6620
 1.4540	24.7010
 1.4550	24.7420
 1.4560	24.7820
 1.4570	24.8260
 1.4580	24.8720
 1.4590	24.9220
 1.4600	24.9780
 1.4610	25.0380
 1.4620	25.1010
 1.4630	25.1710
 1.4640	25.2440
 1.4650	25.3240
 1.4660	25.4120
 1.4670	25.5030
 1.4680	25.6020
 1.4690	25.7060
 1.4700	25.8140
