Name: Abies concolor 2
Type: vegetation
Class: Tree
Genus: Abies
Species: concolor
Sample No.: VH257
Owner: UCSB
Wavelength Range: TIR
Origin: 37.0437; -119.3025; WGS84
Collection Date: 11/2/2013
Description: Samples were collected as part of the HyspIRI Airborne Campaign. 48 individual plants were sampled in three times in 2013 - spring  summer  and fall. The name of the sample includes a 1  2  or 3 which references a different individual of the species. Samples were taken to JPL and processed within 48 hours of collection. The same leaves were processed in the Nicolet and then measured using the ASD.
Measurement: Hemispherical reflectance
First Column: X
Second Column: Y
X Units: Wavelength (micrometers)
Y Units: Reflectance (percentage)
First X Value: 2.501
Last X Value: 15.387
Number of X Values: 1737
Additional Information: vegetation.tree.abies.concolor.tir.vh257.ucsb.nicolet.ancillary.txt

 2.5010	 9.6370
 2.5030	 9.5930
 2.5040	 9.6130
 2.5050	 9.6380
 2.5060	 9.8040
 2.5070	 9.7870
 2.5090	 9.7380
 2.5100	 9.7150
 2.5110	 9.6860
 2.5120	 9.6100
 2.5140	 9.5990
 2.5150	 9.6140
 2.5160	 9.7110
 2.5170	 9.6600
 2.5180	 9.5880
 2.5200	 9.5220
 2.5210	 9.5950
 2.5220	 9.6200
 2.5230	 9.6170
 2.5250	 9.4470
 2.5260	 9.4650
 2.5270	 9.5510
 2.5280	 9.6610
 2.5290	 9.7150
 2.5310	 9.6900
 2.5320	 9.6140
 2.5330	 9.6320
 2.5340	 9.6560
 2.5360	 9.7560
 2.5370	 9.6720
 2.5380	 9.5510
 2.5390	 9.5950
 2.5410	 9.6270
 2.5420	 9.5610
 2.5430	 9.6220
 2.5440	 9.6170
 2.5460	 9.7780
 2.5470	 9.8590
 2.5480	 9.8600
 2.5490	 9.7790
 2.5510	 9.6950
 2.5520	 9.5780
 2.5530	 9.5140
 2.5540	 9.5590
 2.5560	 9.6340
 2.5570	 9.6040
 2.5580	 9.6190
 2.5590	 9.7470
 2.5610	 9.8300
 2.5620	 9.7700
 2.5630	 9.9090
 2.5640	 9.8890
 2.5660	 9.7960
 2.5670	 9.7000
 2.5680	 9.6770
 2.5700	 9.6960
 2.5710	 9.6860
 2.5720	 9.6600
 2.5730	 9.7950
 2.5750	 9.6810
 2.5760	 9.6340
 2.5770	 9.7370
 2.5790	 9.7360
 2.5800	 9.6680
 2.5810	 9.7360
 2.5820	 9.8070
 2.5840	 9.7800
 2.5850	 9.6070
 2.5860	 9.5190
 2.5880	 9.6160
 2.5890	 9.8350
 2.5900	 9.8750
 2.5910	 9.8410
 2.5930	 9.6860
 2.5940	 9.6480
 2.5950	 9.5910
 2.5970	 9.7060
 2.5980	 9.7500
 2.5990	 9.7790
 2.6000	 9.8020
 2.6020	 9.7720
 2.6030	 9.7160
 2.6040	 9.7410
 2.6060	 9.6940
 2.6070	 9.6650
 2.6080	 9.5590
 2.6100	 9.4640
 2.6110	 9.4380
 2.6120	 9.4730
 2.6140	 9.4630
 2.6150	 9.6030
 2.6160	 9.6010
 2.6180	 9.6500
 2.6190	 9.6000
 2.6200	 9.6150
 2.6220	 9.6450
 2.6230	 9.6050
 2.6240	 9.5300
 2.6260	 9.5350
 2.6270	 9.4050
 2.6280	 9.4990
 2.6300	 9.5060
 2.6310	 9.5130
 2.6320	 9.4760
 2.6340	 9.5830
 2.6350	 9.4500
 2.6360	 9.3640
 2.6380	 9.3710
 2.6390	 9.4540
 2.6400	 9.3330
 2.6420	 9.4380
 2.6430	 9.5470
 2.6440	 9.3950
 2.6460	 9.2610
 2.6470	 9.4020
 2.6480	 9.4640
 2.6500	 9.3640
 2.6510	 9.1200
 2.6520	 9.1750
 2.6540	 9.1910
 2.6550	 9.2000
 2.6560	 9.2070
 2.6580	 9.2880
 2.6590	 9.2220
 2.6610	 9.1620
 2.6620	 8.9470
 2.6630	 8.9520
 2.6650	 9.0200
 2.6660	 9.1290
 2.6670	 9.0720
 2.6690	 9.1540
 2.6700	 9.0950
 2.6720	 9.0520
 2.6730	 9.0040
 2.6740	 9.0870
 2.6760	 9.0500
 2.6770	 8.8540
 2.6780	 8.8450
 2.6800	 9.0030
 2.6810	 9.0120
 2.6830	 8.9240
 2.6840	 8.9740
 2.6850	 9.0120
 2.6870	 8.8140
 2.6880	 8.8790
 2.6900	 8.8030
 2.6910	 8.8450
 2.6920	 8.8660
 2.6940	 8.8990
 2.6950	 8.7170
 2.6970	 8.6660
 2.6980	 8.6330
 2.6990	 8.6590
 2.7010	 8.5470
 2.7020	 8.6400
 2.7040	 8.7730
 2.7050	 8.6920
 2.7060	 8.4320
 2.7080	 8.5680
 2.7090	 8.6010
 2.7110	 8.5200
 2.7120	 8.3780
 2.7130	 8.3450
 2.7150	 8.2470
 2.7160	 8.3400
 2.7180	 8.2240
 2.7190	 8.1290
 2.7210	 8.2170
 2.7220	 8.3690
 2.7230	 8.3220
 2.7250	 8.1960
 2.7260	 8.0840
 2.7280	 8.4600
 2.7290	 8.7610
 2.7310	 8.8190
 2.7320	 8.5650
 2.7330	 8.3960
 2.7350	 8.3130
 2.7360	 8.3600
 2.7380	 8.4240
 2.7390	 8.2430
 2.7410	 8.1270
 2.7420	 8.2860
 2.7440	 8.4700
 2.7450	 8.6680
 2.7470	 8.4990
 2.7480	 8.3400
 2.7490	 8.3260
 2.7510	 8.3720
 2.7520	 8.2520
 2.7540	 8.1480
 2.7550	 8.1790
 2.7570	 8.3160
 2.7580	 8.4350
 2.7600	 8.4850
 2.7610	 8.2680
 2.7630	 8.3250
 2.7640	 8.4590
 2.7660	 8.4430
 2.7670	 8.4220
 2.7680	 8.5280
 2.7700	 8.3830
 2.7710	 8.3600
 2.7730	 8.3550
 2.7740	 8.4090
 2.7760	 8.5440
 2.7770	 8.6310
 2.7790	 8.4950
 2.7800	 8.4440
 2.7820	 8.3810
 2.7830	 8.3270
 2.7850	 8.2820
 2.7860	 8.4080
 2.7880	 8.3830
 2.7890	 8.5310
 2.7910	 8.6610
 2.7920	 8.6410
 2.7940	 8.6450
 2.7950	 8.6320
 2.7970	 8.4210
 2.7980	 8.3670
 2.8000	 8.2960
 2.8010	 8.4200
 2.8030	 8.4100
 2.8040	 8.4340
 2.8060	 8.4650
 2.8070	 8.4170
 2.8090	 8.2380
 2.8110	 8.2710
 2.8120	 8.3640
 2.8140	 8.4610
 2.8150	 8.3710
 2.8170	 8.4310
 2.8180	 8.4070
 2.8200	 8.4650
 2.8210	 8.3810
 2.8230	 8.4080
 2.8240	 8.3810
 2.8260	 8.4390
 2.8270	 8.2290
 2.8290	 8.1470
 2.8300	 8.2690
 2.8320	 8.5360
 2.8340	 8.4510
 2.8350	 8.4550
 2.8370	 8.5440
 2.8380	 8.4560
 2.8400	 8.4580
 2.8410	 8.5240
 2.8430	 8.4670
 2.8440	 8.6340
 2.8460	 8.6360
 2.8480	 8.4940
 2.8490	 8.3800
 2.8510	 8.5670
 2.8520	 8.6990
 2.8540	 8.7180
 2.8550	 8.6220
 2.8570	 8.6010
 2.8590	 8.4800
 2.8600	 8.3890
 2.8620	 8.3990
 2.8630	 8.4120
 2.8650	 8.3410
 2.8660	 8.3880
 2.8680	 8.2900
 2.8700	 8.3340
 2.8710	 8.3900
 2.8730	 8.5820
 2.8740	 8.3500
 2.8760	 8.1550
 2.8780	 8.2750
 2.8790	 8.5970
 2.8810	 8.5210
 2.8820	 8.3400
 2.8840	 8.1280
 2.8860	 8.3120
 2.8870	 8.4570
 2.8890	 8.2220
 2.8900	 8.1410
 2.8920	 8.4990
 2.8940	 8.5570
 2.8950	 8.4490
 2.8970	 8.5600
 2.8980	 8.6440
 2.9000	 8.7810
 2.9020	 8.9400
 2.9030	 8.7540
 2.9050	 8.5360
 2.9070	 8.3930
 2.9080	 8.3420
 2.9100	 8.4240
 2.9120	 8.6320
 2.9130	 8.6230
 2.9150	 8.4450
 2.9160	 8.2610
 2.9180	 8.4620
 2.9200	 8.4120
 2.9210	 8.3780
 2.9230	 8.4930
 2.9250	 8.5390
 2.9260	 8.4730
 2.9280	 8.4400
 2.9300	 8.4880
 2.9310	 8.5970
 2.9330	 8.5560
 2.9350	 8.4190
 2.9360	 8.2890
 2.9380	 8.3840
 2.9400	 8.4600
 2.9410	 8.2610
 2.9430	 8.2050
 2.9450	 8.3160
 2.9460	 8.4750
 2.9480	 8.5500
 2.9500	 8.1990
 2.9510	 8.5160
 2.9530	 8.4670
 2.9550	 7.8330
 2.9560	 7.9560
 2.9580	 8.3440
 2.9600	 8.2530
 2.9610	 8.5330
 2.9630	 8.7190
 2.9650	 8.5180
 2.9660	 8.1840
 2.9680	 7.9410
 2.9700	 8.6530
 2.9720	 8.9600
 2.9730	 8.2310
 2.9750	 8.4430
 2.9770	 9.7270
 2.9780	10.5030
 2.9800	 9.8780
 2.9820	 9.4950
 2.9840	 8.8290
 2.9850	 8.2090
 2.9870	 7.7600
 2.9890	 7.7660
 2.9900	 9.0620
 2.9920	 9.5240
 2.9940	 8.9610
 2.9960	 9.4280
 2.9970	 9.1930
 2.9990	 8.7990
 3.0010	 8.7950
 3.0030	 8.6990
 3.0040	 8.6450
 3.0060	 8.5600
 3.0080	 8.3960
 3.0100	 9.3680
 3.0110	 9.4950
 3.0130	 8.5720
 3.0150	 7.6240
 3.0170	 7.9110
 3.0180	 8.5000
 3.0200	 8.2340
 3.0220	 8.1640
 3.0240	 8.3320
 3.0250	 8.2150
 3.0270	 8.4490
 3.0290	 8.4650
 3.0310	 8.3140
 3.0320	 8.2710
 3.0340	 8.4640
 3.0360	 8.5540
 3.0380	 8.2730
 3.0400	 7.3860
 3.0410	 7.3930
 3.0430	 7.8150
 3.0450	 8.2390
 3.0470	 9.4420
 3.0480	10.1930
 3.0500	10.2450
 3.0520	10.0500
 3.0540	 9.2340
 3.0560	 9.1670
 3.0570	 9.7430
 3.0590	 9.5900
 3.0610	 8.4460
 3.0630	 8.3160
 3.0650	 8.7290
 3.0660	 9.0650
 3.0680	 9.0260
 3.0700	 9.1500
 3.0720	 8.9380
 3.0740	 8.4380
 3.0760	 8.3990
 3.0770	 8.6240
 3.0790	 8.6410
 3.0810	 8.5260
 3.0830	 8.3570
 3.0850	 8.3540
 3.0870	 8.4130
 3.0880	 8.4380
 3.0900	 8.3490
 3.0920	 8.4790
 3.0940	 8.4630
 3.0960	 8.4780
 3.0980	 8.3890
 3.0990	 8.3370
 3.1010	 8.3630
 3.1030	 8.5680
 3.1050	 8.4820
 3.1070	 8.4030
 3.1090	 8.3090
 3.1110	 8.2310
 3.1120	 8.1110
 3.1140	 8.2500
 3.1160	 8.2030
 3.1180	 8.2540
 3.1200	 8.3540
 3.1220	 8.4040
 3.1240	 8.3690
 3.1260	 8.3630
 3.1270	 8.2330
 3.1290	 8.2940
 3.1310	 8.4500
 3.1330	 8.7730
 3.1350	 8.7430
 3.1370	 9.3020
 3.1390	 8.6870
 3.1410	 8.3140
 3.1430	 8.7690
 3.1450	 8.2740
 3.1460	 8.2150
 3.1480	 9.0640
 3.1500	 9.3690
 3.1520	 9.4970
 3.1540	 9.4420
 3.1560	 9.0640
 3.1580	 8.4470
 3.1600	 8.7750
 3.1620	 8.6750
 3.1640	 8.4030
 3.1660	 8.6620
 3.1680	 9.2340
 3.1700	 9.2780
 3.1710	 8.1030
 3.1730	 7.2460
 3.1750	 8.6250
 3.1770	 9.3580
 3.1790	 8.9480
 3.1810	 9.1530
 3.1830	 9.3220
 3.1850	 8.9830
 3.1870	 8.5400
 3.1890	 8.2060
 3.1910	 8.1490
 3.1930	 8.1820
 3.1950	 8.1650
 3.1970	 8.2010
 3.1990	 8.2480
 3.2010	 8.2100
 3.2030	 8.3070
 3.2050	 8.2340
 3.2070	 8.2040
 3.2090	 8.1140
 3.2110	 8.3300
 3.2130	 8.3180
 3.2150	 8.2900
 3.2170	 8.3720
 3.2190	 8.3900
 3.2210	 8.4480
 3.2230	 8.5370
 3.2250	 8.4770
 3.2270	 8.3640
 3.2290	 8.2880
 3.2310	 8.2600
 3.2330	 8.1250
 3.2350	 8.2470
 3.2370	 8.3410
 3.2390	 8.3540
 3.2410	 8.0920
 3.2430	 7.8080
 3.2450	 7.8720
 3.2470	 8.2630
 3.2490	 8.3390
 3.2510	 8.2210
 3.2530	 8.1930
 3.2550	 8.2550
 3.2570	 8.2840
 3.2590	 8.2570
 3.2610	 8.1310
 3.2630	 8.2190
 3.2650	 8.2150
 3.2670	 8.2680
 3.2690	 8.3720
 3.2720	 8.2960
 3.2740	 8.1680
 3.2760	 8.1560
 3.2780	 8.0800
 3.2800	 8.1360
 3.2820	 8.1240
 3.2840	 8.1290
 3.2860	 8.1920
 3.2880	 8.2150
 3.2900	 8.1170
 3.2920	 8.1060
 3.2940	 8.0480
 3.2960	 7.9890
 3.2990	 7.9830
 3.3010	 8.0860
 3.3030	 8.0620
 3.3050	 7.9460
 3.3070	 7.8740
 3.3090	 8.1810
 3.3110	 8.3460
 3.3130	 8.2730
 3.3150	 8.4020
 3.3180	 8.5430
 3.3200	 8.2090
 3.3220	 8.0260
 3.3240	 8.0270
 3.3260	 8.1650
 3.3280	 8.2520
 3.3300	 8.1030
 3.3330	 7.8800
 3.3350	 7.9800
 3.3370	 8.1600
 3.3390	 8.0980
 3.3410	 7.9030
 3.3430	 8.0510
 3.3450	 8.1470
 3.3480	 8.0220
 3.3500	 7.9260
 3.3520	 8.0320
 3.3540	 7.9840
 3.3560	 7.9350
 3.3580	 7.8350
 3.3610	 7.7400
 3.3630	 7.7530
 3.3650	 7.9550
 3.3670	 7.9570
 3.3690	 7.8780
 3.3720	 7.8010
 3.3740	 7.7320
 3.3760	 7.7120
 3.3780	 7.7440
 3.3800	 7.8150
 3.3830	 7.9070
 3.3850	 7.7810
 3.3870	 7.7000
 3.3890	 7.6790
 3.3910	 7.6500
 3.3940	 7.4610
 3.3960	 7.4650
 3.3980	 7.5080
 3.4000	 7.6610
 3.4020	 7.6590
 3.4050	 7.6650
 3.4070	 7.7520
 3.4090	 7.8680
 3.4110	 7.8470
 3.4140	 7.9630
 3.4160	 8.0410
 3.4180	 8.2770
 3.4200	 8.4790
 3.4230	 8.7980
 3.4250	 9.2170
 3.4270	 9.6650
 3.4290	 9.8010
 3.4320	 9.7720
 3.4340	 9.5810
 3.4360	 9.3860
 3.4390	 9.2200
 3.4410	 9.0880
 3.4430	 9.0680
 3.4450	 9.0750
 3.4480	 8.9680
 3.4500	 9.0590
 3.4520	 9.2860
 3.4550	 9.2370
 3.4570	 8.8270
 3.4590	 8.6970
 3.4620	 8.6010
 3.4640	 8.6560
 3.4660	 8.6360
 3.4680	 8.5120
 3.4710	 8.5090
 3.4730	 8.4690
 3.4750	 8.3380
 3.4780	 8.4030
 3.4800	 8.3540
 3.4820	 8.3370
 3.4850	 8.3740
 3.4870	 8.2290
 3.4890	 8.1050
 3.4920	 8.1900
 3.4940	 8.1970
 3.4970	 8.4010
 3.4990	 8.3260
 3.5010	 8.1950
 3.5040	 8.3870
 3.5060	 8.7950
 3.5080	 9.2700
 3.5110	 9.6990
 3.5130	 9.7720
 3.5160	 9.6640
 3.5180	 9.4320
 3.5200	 9.1570
 3.5230	 8.9420
 3.5250	 8.9460
 3.5270	 8.9560
 3.5300	 8.8600
 3.5320	 8.8100
 3.5350	 8.8230
 3.5370	 8.6810
 3.5400	 8.5900
 3.5420	 8.5790
 3.5440	 8.6510
 3.5470	 8.6360
 3.5490	 8.6870
 3.5520	 8.6970
 3.5540	 8.6520
 3.5570	 8.6800
 3.5590	 8.6810
 3.5610	 8.6360
 3.5640	 8.8160
 3.5660	 8.7800
 3.5690	 8.6310
 3.5710	 8.6710
 3.5740	 8.6650
 3.5760	 8.5420
 3.5790	 8.7090
 3.5810	 8.7160
 3.5840	 8.5520
 3.5860	 8.5260
 3.5890	 8.6030
 3.5910	 8.6320
 3.5930	 8.6790
 3.5960	 8.7360
 3.5980	 8.6770
 3.6010	 8.5580
 3.6030	 8.5660
 3.6060	 8.5940
 3.6080	 8.5630
 3.6110	 8.5340
 3.6140	 8.6290
 3.6160	 8.5880
 3.6190	 8.5800
 3.6210	 8.5730
 3.6240	 8.5600
 3.6260	 8.5090
 3.6290	 8.5210
 3.6310	 8.5310
 3.6340	 8.5910
 3.6360	 8.6040
 3.6390	 8.6570
 3.6410	 8.5220
 3.6440	 8.3740
 3.6470	 8.3180
 3.6490	 8.4420
 3.6520	 8.4250
 3.6540	 8.4180
 3.6570	 8.4980
 3.6590	 8.5880
 3.6620	 8.5870
 3.6650	 8.5750
 3.6670	 8.5410
 3.6700	 8.4960
 3.6720	 8.4060
 3.6750	 8.4680
 3.6780	 8.4810
 3.6800	 8.4180
 3.6830	 8.4340
 3.6850	 8.5560
 3.6880	 8.6020
 3.6910	 8.6250
 3.6930	 8.6040
 3.6960	 8.5420
 3.6990	 8.5250
 3.7010	 8.6300
 3.7040	 8.6630
 3.7060	 8.5070
 3.7090	 8.3850
 3.7120	 8.4370
 3.7140	 8.4900
 3.7170	 8.5460
 3.7200	 8.4640
 3.7220	 8.5110
 3.7250	 8.5600
 3.7280	 8.6010
 3.7300	 8.5990
 3.7330	 8.5640
 3.7360	 8.4210
 3.7390	 8.4280
 3.7410	 8.4700
 3.7440	 8.5950
 3.7470	 8.6340
 3.7490	 8.4960
 3.7520	 8.4690
 3.7550	 8.5780
 3.7580	 8.5390
 3.7600	 8.5760
 3.7630	 8.5890
 3.7660	 8.5610
 3.7680	 8.6560
 3.7710	 8.6780
 3.7740	 8.5840
 3.7770	 8.6430
 3.7790	 8.6570
 3.7820	 8.7270
 3.7850	 8.6170
 3.7880	 8.6170
 3.7900	 8.6130
 3.7930	 8.5620
 3.7960	 8.5630
 3.7990	 8.6130
 3.8020	 8.6070
 3.8040	 8.6260
 3.8070	 8.5260
 3.8100	 8.5400
 3.8130	 8.5970
 3.8160	 8.6810
 3.8180	 8.6570
 3.8210	 8.6330
 3.8240	 8.6240
 3.8270	 8.5990
 3.8300	 8.5690
 3.8330	 8.6450
 3.8350	 8.6680
 3.8380	 8.6800
 3.8410	 8.6740
 3.8440	 8.6590
 3.8470	 8.6180
 3.8500	 8.7380
 3.8520	 8.6870
 3.8550	 8.5300
 3.8580	 8.5010
 3.8610	 8.6330
 3.8640	 8.6740
 3.8670	 8.7030
 3.8700	 8.6720
 3.8730	 8.6530
 3.8750	 8.5720
 3.8780	 8.6390
 3.8810	 8.7520
 3.8840	 8.7360
 3.8870	 8.7240
 3.8900	 8.7640
 3.8930	 8.7110
 3.8960	 8.7510
 3.8990	 8.7420
 3.9020	 8.7350
 3.9050	 8.6960
 3.9080	 8.7570
 3.9110	 8.8730
 3.9140	 8.7910
 3.9160	 8.5980
 3.9190	 8.6100
 3.9220	 8.6250
 3.9250	 8.6030
 3.9280	 8.6680
 3.9310	 8.7900
 3.9340	 8.7630
 3.9370	 8.7450
 3.9400	 8.7440
 3.9430	 8.8050
 3.9460	 8.7410
 3.9490	 8.7270
 3.9520	 8.7450
 3.9550	 8.7370
 3.9580	 8.7270
 3.9610	 8.7850
 3.9640	 8.7840
 3.9670	 8.8130
 3.9700	 8.8160
 3.9730	 8.8650
 3.9770	 8.8230
 3.9800	 8.7390
 3.9830	 8.6340
 3.9860	 8.6970
 3.9890	 8.7860
 3.9920	 8.8470
 3.9950	 8.7860
 3.9980	 8.6940
 4.0010	 8.6890
 4.0040	 8.7540
 4.0070	 8.7380
 4.0100	 8.7730
 4.0130	 8.7620
 4.0170	 8.7810
 4.0200	 8.7680
 4.0230	 8.8100
 4.0260	 8.7460
 4.0290	 8.7070
 4.0320	 8.7330
 4.0350	 8.8080
 4.0380	 8.8080
 4.0420	 8.7820
 4.0450	 8.7740
 4.0480	 8.7930
 4.0510	 8.7610
 4.0540	 8.7830
 4.0570	 8.7040
 4.0610	 8.7340
 4.0640	 8.8290
 4.0670	 8.7750
 4.0700	 8.7570
 4.0730	 8.8050
 4.0770	 8.8640
 4.0800	 8.8430
 4.0830	 8.7670
 4.0860	 8.8150
 4.0890	 8.8330
 4.0930	 8.8060
 4.0960	 8.8110
 4.0990	 8.8360
 4.1020	 8.7400
 4.1060	 8.6960
 4.1090	 8.7290
 4.1120	 8.7990
 4.1150	 8.8730
 4.1190	 8.8310
 4.1220	 8.7830
 4.1250	 8.7730
 4.1280	 8.7050
 4.1320	 8.6530
 4.1350	 8.6250
 4.1380	 8.6970
 4.1420	 8.7080
 4.1450	 8.7260
 4.1480	 8.7960
 4.1520	 8.7670
 4.1550	 8.6830
 4.1580	 8.8270
 4.1620	 8.8570
 4.1650	 8.8360
 4.1680	 8.8780
 4.1720	 8.9170
 4.1750	 8.8080
 4.1780	 8.8270
 4.1820	 8.7970
 4.1850	 8.7780
 4.1890	 8.7570
 4.1920	 8.7330
 4.1950	 8.7570
 4.1990	 8.8530
 4.2020	 9.0080
 4.2060	 9.0950
 4.2090	 8.8990
 4.2120	 8.9410
 4.2160	 9.2790
 4.2190	 9.3800
 4.2230	 9.1490
 4.2260	 9.1840
 4.2300	 9.3180
 4.2330	 9.7100
 4.2360	 9.4260
 4.2400	 9.1380
 4.2430	 9.0760
 4.2470	 9.0510
 4.2500	 9.1350
 4.2540	 9.2020
 4.2570	 9.2040
 4.2610	 9.3410
 4.2640	 9.3370
 4.2680	 9.3930
 4.2710	 9.4250
 4.2750	 9.4790
 4.2780	 9.4230
 4.2820	 9.2760
 4.2850	 9.1300
 4.2890	 9.1330
 4.2930	 9.0600
 4.2960	 9.0580
 4.3000	 9.1300
 4.3030	 9.1580
 4.3070	 9.1310
 4.3100	 9.0820
 4.3140	 9.0150
 4.3180	 9.1090
 4.3210	 9.0720
 4.3250	 8.9150
 4.3280	 8.8660
 4.3320	 8.8580
 4.3360	 8.8620
 4.3390	 8.8600
 4.3430	 8.8980
 4.3470	 8.9960
 4.3500	 8.9050
 4.3540	 8.8330
 4.3570	 8.8690
 4.3610	 8.8840
 4.3650	 8.8060
 4.3680	 8.7220
 4.3720	 8.7400
 4.3760	 8.7650
 4.3800	 8.7710
 4.3830	 8.7740
 4.3870	 8.7680
 4.3910	 8.8650
 4.3940	 8.9020
 4.3980	 8.9000
 4.4020	 8.8460
 4.4060	 8.8200
 4.4090	 8.7390
 4.4130	 8.7730
 4.4170	 8.7630
 4.4210	 8.7330
 4.4240	 8.7860
 4.4280	 8.8210
 4.4320	 8.8240
 4.4360	 8.8230
 4.4400	 8.7280
 4.4430	 8.6290
 4.4470	 8.6790
 4.4510	 8.7980
 4.4550	 8.7920
 4.4590	 8.7730
 4.4620	 8.7190
 4.4660	 8.7330
 4.4700	 8.7860
 4.4740	 8.7920
 4.4780	 8.7210
 4.4820	 8.6300
 4.4860	 8.6780
 4.4900	 8.6710
 4.4930	 8.6400
 4.4970	 8.7130
 4.5010	 8.7220
 4.5050	 8.7100
 4.5090	 8.7050
 4.5130	 8.6860
 4.5170	 8.7020
 4.5210	 8.7000
 4.5250	 8.6780
 4.5290	 8.6430
 4.5330	 8.6390
 4.5370	 8.6450
 4.5410	 8.7030
 4.5450	 8.7920
 4.5490	 8.8000
 4.5530	 8.7360
 4.5570	 8.6930
 4.5610	 8.6670
 4.5650	 8.6540
 4.5690	 8.6900
 4.5730	 8.7450
 4.5770	 8.6990
 4.5810	 8.7010
 4.5850	 8.6670
 4.5890	 8.6220
 4.5930	 8.6540
 4.5970	 8.6720
 4.6010	 8.6380
 4.6050	 8.6720
 4.6090	 8.7410
 4.6130	 8.5450
 4.6170	 8.4370
 4.6220	 8.5430
 4.6260	 8.5760
 4.6300	 8.6500
 4.6340	 8.6930
 4.6380	 8.6140
 4.6420	 8.5950
 4.6460	 8.5570
 4.6510	 8.5970
 4.6550	 8.6840
 4.6590	 8.6930
 4.6630	 8.6860
 4.6670	 8.6680
 4.6720	 8.6430
 4.6760	 8.6880
 4.6800	 8.6390
 4.6840	 8.5530
 4.6880	 8.6240
 4.6930	 8.6970
 4.6970	 8.6830
 4.7010	 8.6690
 4.7050	 8.6400
 4.7100	 8.6590
 4.7140	 8.6750
 4.7180	 8.6270
 4.7230	 8.6230
 4.7270	 8.6020
 4.7310	 8.5520
 4.7360	 8.6120
 4.7400	 8.6290
 4.7440	 8.6240
 4.7490	 8.6060
 4.7530	 8.6180
 4.7570	 8.5660
 4.7620	 8.5030
 4.7660	 8.6260
 4.7700	 8.6690
 4.7750	 8.6280
 4.7790	 8.6100
 4.7840	 8.7850
 4.7880	 8.8030
 4.7920	 8.6840
 4.7970	 8.6610
 4.8010	 8.5180
 4.8060	 8.4260
 4.8100	 8.5600
 4.8150	 8.6480
 4.8190	 8.6150
 4.8240	 8.6160
 4.8280	 8.6790
 4.8330	 8.7490
 4.8370	 8.8000
 4.8420	 8.7810
 4.8460	 8.7530
 4.8510	 8.7690
 4.8550	 8.7500
 4.8600	 8.6860
 4.8640	 8.6590
 4.8690	 8.6390
 4.8730	 8.6250
 4.8780	 8.6340
 4.8830	 8.6610
 4.8870	 8.6500
 4.8920	 8.7320
 4.8960	 8.8330
 4.9010	 8.8110
 4.9060	 8.7870
 4.9100	 8.7370
 4.9150	 8.5990
 4.9200	 8.5860
 4.9240	 8.6770
 4.9290	 8.7310
 4.9340	 8.8200
 4.9380	 8.8290
 4.9430	 8.7940
 4.9480	 8.8490
 4.9530	 8.9020
 4.9570	 8.8920
 4.9620	 8.8560
 4.9670	 8.9010
 4.9720	 8.8360
 4.9760	 8.8010
 4.9810	 8.8570
 4.9860	 8.8810
 4.9910	 8.8210
 4.9960	 8.8400
 5.0000	 8.8290
 5.0050	 8.8260
 5.0100	 8.8320
 5.0150	 8.8470
 5.0200	 8.8220
 5.0250	 8.7260
 5.0290	 8.7120
 5.0340	 8.8330
 5.0390	 8.8870
 5.0440	 8.8440
 5.0490	 8.7820
 5.0540	 8.7560
 5.0590	 8.6990
 5.0640	 8.7760
 5.0690	 8.8760
 5.0740	 8.8170
 5.0790	 8.7410
 5.0840	 8.8590
 5.0890	 8.8720
 5.0940	 8.8440
 5.0990	 8.8300
 5.1040	 8.8680
 5.1090	 8.9510
 5.1140	 8.9910
 5.1190	 8.9650
 5.1240	 9.0060
 5.1290	 9.0340
 5.1340	 9.0510
 5.1390	 9.0470
 5.1440	 8.9660
 5.1490	 8.8550
 5.1540	 8.8020
 5.1600	 8.8240
 5.1650	 8.8330
 5.1700	 8.8810
 5.1750	 8.9430
 5.1800	 8.9190
 5.1850	 8.8680
 5.1910	 8.9050
 5.1960	 8.9260
 5.2010	 8.7640
 5.2060	 8.7070
 5.2110	 8.8310
 5.2170	 8.9650
 5.2220	 8.9740
 5.2270	 8.9400
 5.2320	 8.8790
 5.2380	 8.8010
 5.2430	 8.7370
 5.2480	 8.7800
 5.2540	 8.8740
 5.2590	 8.9250
 5.2640	 8.8480
 5.2700	 8.8120
 5.2750	 8.8070
 5.2800	 8.8820
 5.2860	 8.9280
 5.2910	 8.9030
 5.2970	 8.8700
 5.3020	 8.9030
 5.3070	 8.9090
 5.3130	 8.9560
 5.3180	 8.9460
 5.3240	 8.8540
 5.3290	 8.8160
 5.3350	 8.8160
 5.3400	 8.8520
 5.3460	 8.8710
 5.3510	 8.7770
 5.3570	 8.7930
 5.3620	 8.8060
 5.3680	 8.7820
 5.3730	 8.7290
 5.3790	 8.7570
 5.3850	 8.7820
 5.3900	 8.7900
 5.3960	 8.8110
 5.4010	 8.8370
 5.4070	 8.7910
 5.4130	 8.7760
 5.4180	 8.7460
 5.4240	 8.8340
 5.4300	 8.8270
 5.4350	 8.7750
 5.4410	 8.7440
