Name: Arctostaphylos glandulosa 3
Type: vegetation
Class: Shrub
Genus: Arctostaphylos
Species: glandulosa
Sample No.: VH226
Owner: UCSB
Wavelength Range: TIR
Origin: 34.5085; -119.7682; WGS84
Collection Date: 10/13/2013
Description: Samples were collected as part of the HyspIRI Airborne Campaign. 48 individual plants were sampled in three times in 2013 - spring  summer  and fall. The name of the sample includes a 1  2  or 3 which references a different individual of the species. Samples were taken to JPL and processed within 48 hours of collection. The same leaves were processed in the Nicolet and then measured using the ASD.
Measurement: Hemispherical reflectance
First Column: X
Second Column: Y
X Units: Wavelength (micrometers)
Y Units: Reflectance (percentage)
First X Value: 2.501
Last X Value: 15.387
Number of X Values: 1737
Additional Information: vegetation.shrub.arctostaphylos.glandulosa.tir.vh226.ucsb.nicolet.ancillary.txt

 2.5010	11.8400
 2.5030	11.7520
 2.5040	11.4710
 2.5050	11.2920
 2.5060	11.3900
 2.5070	11.6710
 2.5090	11.7190
 2.5100	11.3990
 2.5110	11.5850
 2.5120	11.8660
 2.5140	11.9020
 2.5150	11.7620
 2.5160	11.7000
 2.5170	11.6020
 2.5180	11.5490
 2.5200	11.5750
 2.5210	11.6920
 2.5220	11.8400
 2.5230	11.9100
 2.5250	11.7880
 2.5260	11.7420
 2.5270	11.7650
 2.5280	11.7260
 2.5290	11.6460
 2.5310	11.6290
 2.5320	11.6170
 2.5330	11.5980
 2.5340	11.5420
 2.5360	11.8570
 2.5370	11.9150
 2.5380	11.7240
 2.5390	11.6790
 2.5410	11.5810
 2.5420	11.4880
 2.5430	11.8310
 2.5440	12.0580
 2.5460	11.9030
 2.5470	11.3890
 2.5480	11.2850
 2.5490	11.5170
 2.5510	11.7770
 2.5520	11.6640
 2.5530	11.6510
 2.5540	11.9000
 2.5560	11.8750
 2.5570	11.5760
 2.5580	11.5650
 2.5590	11.6840
 2.5610	11.7170
 2.5620	11.7050
 2.5630	11.7110
 2.5640	11.6190
 2.5660	11.5870
 2.5670	11.5750
 2.5680	11.5950
 2.5700	11.5030
 2.5710	11.5450
 2.5720	11.5130
 2.5730	11.6460
 2.5750	11.7440
 2.5760	11.8550
 2.5770	11.8680
 2.5790	11.6880
 2.5800	11.6520
 2.5810	11.5410
 2.5820	11.7080
 2.5840	11.7730
 2.5850	11.7070
 2.5860	11.8300
 2.5880	11.6470
 2.5890	11.5710
 2.5900	11.7060
 2.5910	11.7060
 2.5930	11.7570
 2.5940	11.9610
 2.5950	11.7730
 2.5970	11.4880
 2.5980	11.4970
 2.5990	11.6070
 2.6000	11.6310
 2.6020	11.6940
 2.6030	11.6730
 2.6040	11.6550
 2.6060	11.6010
 2.6070	11.6330
 2.6080	11.6190
 2.6100	11.4990
 2.6110	11.3740
 2.6120	11.4920
 2.6140	11.4820
 2.6150	11.5080
 2.6160	11.5390
 2.6180	11.4900
 2.6190	11.5730
 2.6200	11.6010
 2.6220	11.3290
 2.6230	11.3570
 2.6240	11.4550
 2.6260	11.6380
 2.6270	11.6170
 2.6280	11.4070
 2.6300	11.1700
 2.6310	11.2900
 2.6320	11.5680
 2.6340	11.6760
 2.6350	11.5560
 2.6360	11.3660
 2.6380	11.3770
 2.6390	11.5900
 2.6400	11.5490
 2.6420	11.4080
 2.6430	11.2970
 2.6440	11.2510
 2.6460	11.2740
 2.6470	11.2880
 2.6480	11.1900
 2.6500	11.2300
 2.6510	11.2180
 2.6520	11.3130
 2.6540	11.3340
 2.6550	11.3380
 2.6560	11.1470
 2.6580	11.0370
 2.6590	11.1960
 2.6610	11.2370
 2.6620	11.0410
 2.6630	11.0200
 2.6650	11.1080
 2.6660	11.2110
 2.6670	11.0860
 2.6690	11.0240
 2.6700	11.1970
 2.6720	11.2570
 2.6730	11.2410
 2.6740	11.1400
 2.6760	10.9160
 2.6770	10.6990
 2.6780	10.6590
 2.6800	10.9240
 2.6810	10.8420
 2.6830	10.7730
 2.6840	10.8890
 2.6850	11.0820
 2.6870	10.8920
 2.6880	10.6740
 2.6900	10.7140
 2.6910	10.7950
 2.6920	10.8020
 2.6940	11.0320
 2.6950	11.0880
 2.6970	11.0770
 2.6980	11.0140
 2.6990	11.0720
 2.7010	10.9110
 2.7020	10.7340
 2.7040	10.6040
 2.7050	10.6690
 2.7060	10.6710
 2.7080	10.6300
 2.7090	10.6560
 2.7110	10.6680
 2.7120	10.4600
 2.7130	10.5910
 2.7150	10.5490
 2.7160	10.4230
 2.7180	10.4670
 2.7190	10.5900
 2.7210	10.6140
 2.7220	10.4930
 2.7230	10.5290
 2.7250	10.3950
 2.7260	10.3450
 2.7280	10.4340
 2.7290	10.7090
 2.7310	11.2520
 2.7320	11.0470
 2.7330	10.5060
 2.7350	10.4090
 2.7360	10.5290
 2.7380	10.6880
 2.7390	10.4120
 2.7410	10.1620
 2.7420	10.3360
 2.7440	10.3450
 2.7450	10.3850
 2.7470	10.3960
 2.7480	10.6440
 2.7490	10.7740
 2.7510	10.7920
 2.7520	10.4230
 2.7540	10.7290
 2.7550	11.2310
 2.7570	10.9110
 2.7580	10.4160
 2.7600	10.3680
 2.7610	10.1880
 2.7630	10.4440
 2.7640	10.1000
 2.7660	10.0750
 2.7670	10.0840
 2.7680	10.2040
 2.7700	10.1970
 2.7710	 9.9770
 2.7730	10.0080
 2.7740	10.3900
 2.7760	10.4450
 2.7770	10.5720
 2.7790	10.7000
 2.7800	10.8320
 2.7820	10.9290
 2.7830	10.7040
 2.7850	10.5030
 2.7860	10.4100
 2.7880	10.4080
 2.7890	10.4470
 2.7910	10.4120
 2.7920	10.5220
 2.7940	10.6250
 2.7950	10.4260
 2.7970	10.1520
 2.7980	10.2440
 2.8000	10.6520
 2.8010	10.7390
 2.8030	10.5020
 2.8040	10.5530
 2.8060	10.5900
 2.8070	10.5890
 2.8090	10.5560
 2.8110	10.5660
 2.8120	10.4040
 2.8140	10.2080
 2.8150	10.0780
 2.8170	10.4160
 2.8180	10.6210
 2.8200	10.2320
 2.8210	 9.7290
 2.8230	10.0290
 2.8240	10.3830
 2.8260	10.4610
 2.8270	10.2750
 2.8290	10.2370
 2.8300	10.3760
 2.8320	10.5310
 2.8340	10.2870
 2.8350	10.2350
 2.8370	10.3920
 2.8380	10.7770
 2.8400	11.0180
 2.8410	10.7330
 2.8430	10.4530
 2.8440	10.5490
 2.8460	10.3630
 2.8480	10.2750
 2.8490	10.2150
 2.8510	10.2630
 2.8520	10.2690
 2.8540	10.3560
 2.8550	10.4370
 2.8570	10.5640
 2.8590	10.5610
 2.8600	10.6340
 2.8620	10.5230
 2.8630	10.3840
 2.8650	10.2470
 2.8660	10.4150
 2.8680	10.4940
 2.8700	10.4290
 2.8710	10.1090
 2.8730	10.1930
 2.8740	10.2670
 2.8760	10.3150
 2.8780	10.3930
 2.8790	10.5690
 2.8810	10.8930
 2.8820	10.6910
 2.8840	10.4840
 2.8860	10.5250
 2.8870	10.2250
 2.8890	 9.9190
 2.8900	10.1690
 2.8920	10.1220
 2.8940	10.0390
 2.8950	10.3900
 2.8970	10.9270
 2.8980	10.6510
 2.9000	10.0920
 2.9020	10.2010
 2.9030	10.1110
 2.9050	10.4360
 2.9070	10.6480
 2.9080	10.3770
 2.9100	10.4970
 2.9120	10.7010
 2.9130	10.5630
 2.9150	10.4450
 2.9160	10.2800
 2.9180	10.6270
 2.9200	10.6450
 2.9210	10.5970
 2.9230	10.5930
 2.9250	10.5840
 2.9260	10.3060
 2.9280	10.3000
 2.9300	10.3540
 2.9310	10.6120
 2.9330	10.6010
 2.9350	10.6480
 2.9360	10.4120
 2.9380	10.4010
 2.9400	10.2650
 2.9410	10.2880
 2.9430	10.0470
 2.9450	10.2970
 2.9460	10.5450
 2.9480	10.2980
 2.9500	10.4950
 2.9510	11.2510
 2.9530	10.7600
 2.9550	10.2090
 2.9560	10.5470
 2.9580	11.0720
 2.9600	11.1300
 2.9610	12.3420
 2.9630	11.5690
 2.9650	10.3220
 2.9660	10.8950
 2.9680	11.8610
 2.9700	10.1840
 2.9720	 8.8190
 2.9730	 9.9500
 2.9750	11.3910
 2.9770	12.6940
 2.9780	11.3880
 2.9800	 9.2530
 2.9820	10.1700
 2.9840	11.7280
 2.9850	11.1390
 2.9870	10.7130
 2.9890	10.8900
 2.9900	10.5290
 2.9920	10.7740
 2.9940	11.0250
 2.9960	 9.5040
 2.9970	 8.9930
 2.9990	10.7210
 3.0010	 9.7060
 3.0030	 9.5420
 3.0040	12.6810
 3.0060	13.4010
 3.0080	10.5810
 3.0100	10.5020
 3.0110	11.0790
 3.0130	 9.7920
 3.0150	 9.0070
 3.0170	 9.2680
 3.0180	10.9020
 3.0200	13.0180
 3.0220	12.9210
 3.0240	11.3760
 3.0250	10.0980
 3.0270	 9.9850
 3.0290	 9.4980
 3.0310	 9.5950
 3.0320	10.8700
 3.0340	12.4830
 3.0360	11.5570
 3.0380	11.2320
 3.0400	 9.5990
 3.0410	 9.2660
 3.0430	10.5740
 3.0450	11.3390
 3.0470	10.6870
 3.0480	 9.2170
 3.0500	 7.5020
 3.0520	 8.7260
 3.0540	11.3290
 3.0560	 9.8860
 3.0570	 9.7250
 3.0590	11.8330
 3.0610	11.2930
 3.0630	 7.7460
 3.0650	 7.9660
 3.0660	10.1080
 3.0680	 9.5460
 3.0700	 8.4240
 3.0720	 9.1750
 3.0740	 9.6870
 3.0760	10.0000
 3.0770	10.7840
 3.0790	10.6970
 3.0810	10.5560
 3.0830	10.5440
 3.0850	10.7340
 3.0870	10.6350
 3.0880	10.5060
 3.0900	10.5470
 3.0920	10.2750
 3.0940	10.1430
 3.0960	10.3040
 3.0980	10.4790
 3.0990	10.4510
 3.1010	10.7650
 3.1030	11.1350
 3.1050	10.8620
 3.1070	10.5720
 3.1090	10.5570
 3.1110	10.3690
 3.1120	10.4600
 3.1140	10.5350
 3.1160	10.2800
 3.1180	10.1990
 3.1200	10.3800
 3.1220	10.5700
 3.1240	10.7500
 3.1260	10.5730
 3.1270	10.7300
 3.1290	10.8780
 3.1310	10.5440
 3.1330	10.2470
 3.1350	10.3330
 3.1370	10.3740
 3.1390	 9.8380
 3.1410	11.3140
 3.1430	12.1360
 3.1450	10.7090
 3.1460	10.2640
 3.1480	11.0360
 3.1500	 9.8100
 3.1520	 8.9320
 3.1540	10.8470
 3.1560	10.7870
 3.1580	10.3070
 3.1600	10.5860
 3.1620	11.5160
 3.1640	11.4760
 3.1660	10.7130
 3.1680	 9.3170
 3.1700	 7.5680
 3.1710	 7.1140
 3.1730	 7.3240
 3.1750	 7.7060
 3.1770	 7.9530
 3.1790	 9.4510
 3.1810	 9.5080
 3.1830	 9.5210
 3.1850	10.3310
 3.1870	10.3560
 3.1890	10.0540
 3.1910	10.4110
 3.1930	10.2700
 3.1950	10.3700
 3.1970	10.2150
 3.1990	10.1630
 3.2010	10.3340
 3.2030	10.5250
 3.2050	10.8180
 3.2070	10.7970
 3.2090	10.5600
 3.2110	10.5080
 3.2130	10.2880
 3.2150	10.3380
 3.2170	10.4160
 3.2190	10.5450
 3.2210	10.6910
 3.2230	10.6300
 3.2250	10.3290
 3.2270	10.3690
 3.2290	10.6710
 3.2310	10.6360
 3.2330	10.2940
 3.2350	10.5170
 3.2370	10.3430
 3.2390	10.0430
 3.2410	10.3570
 3.2430	10.8120
 3.2450	10.4240
 3.2470	10.4730
 3.2490	10.4480
 3.2510	10.2820
 3.2530	10.7430
 3.2550	11.0810
 3.2570	10.6100
 3.2590	10.3320
 3.2610	10.0250
 3.2630	10.3030
 3.2650	10.3690
 3.2670	 9.9240
 3.2690	10.1170
 3.2720	10.6250
 3.2740	10.6620
 3.2760	10.4490
 3.2780	10.4220
 3.2800	10.4000
 3.2820	10.0100
 3.2840	10.0180
 3.2860	10.2130
 3.2880	10.1440
 3.2900	10.0570
 3.2920	10.2670
 3.2940	10.7290
 3.2960	10.5380
 3.2990	10.1650
 3.3010	 9.9190
 3.3030	 9.8510
 3.3050	10.2170
 3.3070	10.3900
 3.3090	10.3360
 3.3110	10.2230
 3.3130	10.3940
 3.3150	10.5730
 3.3180	10.4700
 3.3200	10.4240
 3.3220	10.6300
 3.3240	10.5120
 3.3260	10.3190
 3.3280	10.3390
 3.3300	10.2590
 3.3330	10.0360
 3.3350	 9.9540
 3.3370	 9.9220
 3.3390	 9.8520
 3.3410	 9.8870
 3.3430	10.1230
 3.3450	10.2440
 3.3480	10.3380
 3.3500	10.2000
 3.3520	 9.8630
 3.3540	 9.6030
 3.3560	 9.6420
 3.3580	 9.9270
 3.3610	10.0280
 3.3630	 9.8700
 3.3650	 9.6790
 3.3670	 9.5500
 3.3690	 9.5810
 3.3720	 9.5920
 3.3740	 9.4990
 3.3760	 9.4730
 3.3780	 9.5510
 3.3800	 9.7060
 3.3830	 9.8080
 3.3850	 9.7530
 3.3870	 9.8530
 3.3890	 9.8590
 3.3910	 9.7340
 3.3940	 9.6020
 3.3960	 9.4790
 3.3980	 9.2720
 3.4000	 9.2460
 3.4020	 9.2750
 3.4050	 9.2060
 3.4070	 9.1890
 3.4090	 9.1690
 3.4110	 9.1830
 3.4140	 9.3610
 3.4160	 9.7250
 3.4180	10.3170
 3.4200	11.1800
 3.4230	12.3090
 3.4250	13.4910
 3.4270	14.8200
 3.4290	15.3520
 3.4320	14.8900
 3.4340	14.2620
 3.4360	13.4210
 3.4390	12.5110
 3.4410	12.3090
 3.4430	12.1190
 3.4450	12.0360
 3.4480	12.1400
 3.4500	11.4960
 3.4520	11.1480
 3.4550	11.2000
 3.4570	11.2590
 3.4590	11.4380
 3.4620	11.6920
 3.4640	11.5830
 3.4660	11.3950
 3.4680	11.4090
 3.4710	11.2510
 3.4730	11.1200
 3.4750	11.1010
 3.4780	11.0370
 3.4800	11.0020
 3.4820	11.0030
 3.4850	10.8120
 3.4870	10.6310
 3.4890	10.5530
 3.4920	10.4260
 3.4940	10.3180
 3.4970	10.2310
 3.4990	 9.9990
 3.5010	 9.6230
 3.5040	 9.8080
 3.5060	10.7580
 3.5080	12.4760
 3.5110	14.1420
 3.5130	14.4080
 3.5160	13.7720
 3.5180	13.1850
 3.5200	12.8130
 3.5230	12.5650
 3.5250	12.4260
 3.5270	12.2350
 3.5300	12.0850
 3.5320	11.8620
 3.5350	11.7460
 3.5370	11.7670
 3.5400	11.5660
 3.5420	11.4480
 3.5440	11.6760
 3.5470	11.8890
 3.5490	11.7390
 3.5520	11.4950
 3.5540	11.3970
 3.5570	11.4080
 3.5590	11.4190
 3.5610	11.4430
 3.5640	11.5310
 3.5660	11.4160
 3.5690	11.4190
 3.5710	11.3630
 3.5740	11.3990
 3.5760	11.4270
 3.5790	11.5390
 3.5810	11.4420
 3.5840	11.0970
 3.5860	11.1570
 3.5890	11.5560
 3.5910	11.4550
 3.5930	11.2000
 3.5960	11.2250
 3.5980	11.4020
 3.6010	11.1190
 3.6030	10.9680
 3.6060	11.0610
 3.6080	11.0890
 3.6110	11.1780
 3.6140	11.3010
 3.6160	11.3010
 3.6190	11.2430
 3.6210	11.3260
 3.6240	11.3220
 3.6260	11.3150
 3.6290	11.4440
 3.6310	11.3260
 3.6340	11.3110
 3.6360	11.3330
 3.6390	11.2430
 3.6410	11.2270
 3.6440	11.2350
 3.6470	11.1370
 3.6490	11.1210
 3.6520	11.1240
 3.6540	11.2230
 3.6570	11.3380
 3.6590	11.3270
 3.6620	11.2020
 3.6650	11.2100
 3.6670	11.1940
 3.6700	11.1390
 3.6720	11.1770
 3.6750	11.1690
 3.6780	11.1210
 3.6800	11.1950
 3.6830	11.2260
 3.6850	11.1760
 3.6880	11.0580
 3.6910	10.9680
 3.6930	10.9120
 3.6960	11.0460
 3.6990	11.1230
 3.7010	11.0610
 3.7040	11.0310
 3.7060	11.1220
 3.7090	11.0830
 3.7120	11.0050
 3.7140	11.0310
 3.7170	11.1200
 3.7200	11.0790
 3.7220	10.9320
 3.7250	10.8830
 3.7280	11.0440
 3.7300	11.0590
 3.7330	10.9570
 3.7360	10.8850
 3.7390	10.8790
 3.7410	10.8670
 3.7440	11.0640
 3.7470	11.2120
 3.7490	11.1820
 3.7520	11.1590
 3.7550	11.2680
 3.7580	11.2820
 3.7600	11.1490
 3.7630	11.0320
 3.7660	10.9240
 3.7680	11.0280
 3.7710	11.1290
 3.7740	11.0810
 3.7770	11.0720
 3.7790	11.0760
 3.7820	11.1100
 3.7850	11.0980
 3.7880	11.1130
 3.7900	11.0090
 3.7930	10.9930
 3.7960	10.9960
 3.7990	11.0010
 3.8020	11.0110
 3.8040	11.0280
 3.8070	11.0470
 3.8100	11.0130
 3.8130	11.0010
 3.8160	11.0680
 3.8180	10.9570
 3.8210	10.9340
 3.8240	11.0700
 3.8270	11.1030
 3.8300	11.1940
 3.8330	11.1130
 3.8350	11.1140
 3.8380	11.1550
 3.8410	10.9520
 3.8440	10.8480
 3.8470	10.8380
 3.8500	10.9620
 3.8520	10.9060
 3.8550	10.8790
 3.8580	11.0790
 3.8610	11.0800
 3.8640	11.0010
 3.8670	11.0180
 3.8700	11.1050
 3.8730	11.0620
 3.8750	11.0130
 3.8780	11.0380
 3.8810	11.0590
 3.8840	11.0070
 3.8870	11.0140
 3.8900	11.0580
 3.8930	11.0310
 3.8960	11.0060
 3.8990	11.0340
 3.9020	11.0640
 3.9050	11.0800
 3.9080	11.0530
 3.9110	11.0510
 3.9140	11.0940
 3.9160	11.0840
 3.9190	11.0980
 3.9220	11.0710
 3.9250	11.0530
 3.9280	11.0480
 3.9310	11.0390
 3.9340	11.0340
 3.9370	11.0000
 3.9400	11.0540
 3.9430	11.1120
 3.9460	11.1060
 3.9490	11.0430
 3.9520	10.9870
 3.9550	11.0190
 3.9580	11.1180
 3.9610	11.1360
 3.9640	11.1710
 3.9670	11.1130
 3.9700	10.9870
 3.9730	10.9860
 3.9770	11.1330
 3.9800	11.1880
 3.9830	11.0820
 3.9860	11.0480
 3.9890	11.0760
 3.9920	11.0970
 3.9950	11.1180
 3.9980	11.1130
 4.0010	11.0990
 4.0040	11.0720
 4.0070	11.0970
 4.0100	11.0780
 4.0130	11.1110
 4.0170	11.1260
 4.0200	11.1470
 4.0230	11.1970
 4.0260	11.2360
 4.0290	11.2390
 4.0320	11.2150
 4.0350	11.0850
 4.0380	11.1110
 4.0420	11.1120
 4.0450	11.0470
 4.0480	10.9420
 4.0510	11.0120
 4.0540	11.0550
 4.0570	10.9580
 4.0610	10.9290
 4.0640	10.9130
 4.0670	11.0190
 4.0700	11.1500
 4.0730	11.1620
 4.0770	11.0990
 4.0800	11.1630
 4.0830	11.0770
 4.0860	10.8640
 4.0890	10.9190
 4.0930	11.0810
 4.0960	11.1290
 4.0990	10.9000
 4.1020	10.8100
 4.1060	11.1040
 4.1090	11.3540
 4.1120	11.4040
 4.1150	11.3950
 4.1190	11.2550
 4.1220	11.1370
 4.1250	11.0980
 4.1280	11.0710
 4.1320	11.0910
 4.1350	11.0930
 4.1380	11.1020
 4.1420	11.1190
 4.1450	11.1500
 4.1480	11.1060
 4.1520	11.1130
 4.1550	11.1900
 4.1580	11.2550
 4.1620	11.1180
 4.1650	10.9410
 4.1680	10.9980
 4.1720	11.0780
 4.1750	11.0650
 4.1780	11.0450
 4.1820	11.0180
 4.1850	11.0620
 4.1890	11.1620
 4.1920	11.1600
 4.1950	11.1320
 4.1990	11.2140
 4.2020	11.3190
 4.2060	11.2750
 4.2090	11.4900
 4.2120	11.4630
 4.2160	11.1840
 4.2190	11.2470
 4.2230	11.6680
 4.2260	11.7550
 4.2300	11.6130
 4.2330	11.6010
 4.2360	11.3150
 4.2400	10.8110
 4.2430	10.8740
 4.2470	11.2640
 4.2500	11.1180
 4.2540	11.1130
 4.2570	11.5090
 4.2610	11.9400
 4.2640	11.5780
 4.2680	11.2600
 4.2710	11.4540
 4.2750	11.4140
 4.2780	11.2360
 4.2820	11.2800
 4.2850	11.5560
 4.2890	11.4820
 4.2930	11.3710
 4.2960	11.2770
 4.3000	11.2490
 4.3030	11.2250
 4.3070	11.0480
 4.3100	10.9280
 4.3140	10.9830
 4.3180	11.0510
 4.3210	11.0250
 4.3250	11.0790
 4.3280	11.2090
 4.3320	11.0530
 4.3360	10.9870
 4.3390	11.0120
 4.3430	11.0030
 4.3470	11.0750
 4.3500	11.1360
 4.3540	11.0650
 4.3570	11.0290
 4.3610	11.1000
 4.3650	11.1010
 4.3680	10.9770
 4.3720	10.9930
 4.3760	11.0300
 4.3800	11.0060
 4.3830	11.0460
 4.3870	11.0380
 4.3910	11.0220
 4.3940	11.1590
 4.3980	11.1640
 4.4020	11.0800
 4.4060	10.9930
 4.4090	10.9870
 4.4130	11.0120
 4.4170	11.0520
 4.4210	11.0710
 4.4240	11.0280
 4.4280	10.9270
 4.4320	10.8760
 4.4360	10.9460
 4.4400	11.0190
 4.4430	10.9060
 4.4470	10.8360
 4.4510	10.9270
 4.4550	10.9720
 4.4590	10.9830
 4.4620	11.0050
 4.4660	10.9600
 4.4700	10.9390
 4.4740	10.9260
 4.4780	11.0030
 4.4820	10.9590
 4.4860	10.8380
 4.4900	10.8750
 4.4930	10.9380
 4.4970	10.9120
 4.5010	10.9430
 4.5050	11.0560
 4.5090	11.0690
 4.5130	10.8480
 4.5170	10.8430
 4.5210	11.0040
 4.5250	11.0080
 4.5290	10.9590
 4.5330	10.9640
 4.5370	10.9450
 4.5410	10.9920
 4.5450	11.0170
 4.5490	11.0770
 4.5530	11.0420
 4.5570	11.0040
 4.5610	10.9610
 4.5650	10.9270
 4.5690	10.8990
 4.5730	10.8090
 4.5770	10.8070
 4.5810	10.9140
 4.5850	10.9800
 4.5890	10.9010
 4.5930	10.8860
 4.5970	10.9180
 4.6010	10.9200
 4.6050	11.0750
 4.6090	11.1170
 4.6130	10.8870
 4.6170	10.7740
 4.6220	10.8650
 4.6260	10.8070
 4.6300	10.7410
 4.6340	10.8580
 4.6380	10.9700
 4.6420	10.8550
 4.6460	10.7520
 4.6510	10.8060
 4.6550	10.9310
 4.6590	10.9600
 4.6630	11.0300
 4.6670	11.0190
 4.6720	10.9860
 4.6760	10.8800
 4.6800	10.9610
 4.6840	10.9390
 4.6880	10.9320
 4.6930	10.9420
 4.6970	10.9100
 4.7010	10.9250
 4.7050	10.9360
 4.7100	10.8910
 4.7140	10.9590
 4.7180	10.9970
 4.7230	11.0360
 4.7270	11.0240
 4.7310	10.9610
 4.7360	10.9380
 4.7400	10.9630
 4.7440	10.8110
 4.7490	10.7200
 4.7530	10.7200
 4.7570	10.7380
 4.7620	10.7710
 4.7660	10.8820
 4.7700	10.9820
 4.7750	11.1050
 4.7790	10.9130
 4.7840	10.9550
 4.7880	11.1020
 4.7920	11.0620
 4.7970	11.0060
 4.8010	10.7920
 4.8060	10.8070
 4.8100	10.9730
 4.8150	11.0030
 4.8190	10.8350
 4.8240	10.7950
 4.8280	10.8000
 4.8330	10.7430
 4.8370	10.7910
 4.8420	10.9110
 4.8460	11.0000
 4.8510	10.9110
 4.8550	10.8100
 4.8600	10.8290
 4.8640	10.9380
 4.8690	10.9270
 4.8730	10.8710
 4.8780	10.7750
 4.8830	10.7940
 4.8870	10.8330
 4.8920	10.9080
 4.8960	10.9230
 4.9010	10.8460
 4.9060	10.7510
 4.9100	10.7780
 4.9150	10.8300
 4.9200	10.8690
 4.9240	10.8570
 4.9290	10.8340
 4.9340	10.8400
 4.9380	10.8480
 4.9430	10.7580
 4.9480	10.7340
 4.9530	10.7490
 4.9570	10.8020
 4.9620	10.7540
 4.9670	10.7110
 4.9720	10.7090
 4.9760	10.7380
 4.9810	10.7270
 4.9860	10.7650
 4.9910	10.7970
 4.9960	10.8290
 5.0000	10.7500
 5.0050	10.7530
 5.0100	10.8780
 5.0150	10.8950
 5.0200	10.7670
 5.0250	10.7100
 5.0290	10.6980
 5.0340	10.7460
 5.0390	10.8370
 5.0440	10.8180
 5.0490	10.7470
 5.0540	10.8220
 5.0590	10.8420
 5.0640	10.8580
 5.0690	10.7360
 5.0740	10.7390
 5.0790	10.7430
 5.0840	10.8010
 5.0890	10.8180
 5.0940	10.7740
 5.0990	10.7460
 5.1040	10.8090
 5.1090	10.7400
 5.1140	10.6780
 5.1190	10.6680
 5.1240	10.7560
 5.1290	10.7570
 5.1340	10.8120
 5.1390	10.7950
 5.1440	10.7430
 5.1490	10.6910
 5.1540	10.7460
 5.1600	10.7160
 5.1650	10.6650
 5.1700	10.8250
 5.1750	10.9000
 5.1800	10.8060
 5.1850	10.7200
 5.1910	10.6570
 5.1960	10.7430
 5.2010	10.7870
 5.2060	10.8020
 5.2110	10.6930
 5.2170	10.6800
 5.2220	10.7020
 5.2270	10.7280
 5.2320	10.6580
 5.2380	10.6740
 5.2430	10.7320
 5.2480	10.7310
 5.2540	10.6600
 5.2590	10.6850
 5.2640	10.6850
 5.2700	10.6610
 5.2750	10.7100
 5.2800	10.7350
 5.2860	10.6370
 5.2910	10.6810
 5.2970	10.6670
 5.3020	10.6910
 5.3070	10.7130
 5.3130	10.7270
 5.3180	10.7470
 5.3240	10.8030
 5.3290	10.8170
 5.3350	10.8840
 5.3400	10.8070
 5.3460	10.6630
 5.3510	10.6790
 5.3570	10.7950
 5.3620	10.7580
 5.3680	10.7080
 5.3730	10.7580
 5.3790	10.7910
 5.3850	10.7250
 5.3900	10.7200
 5.3960	10.6130
 5.4010	10.5980
 5.4070	10.6560
 5.4130	10.5990
 5.4180	10.5350
 5.4240	10.5740
 5.4300	10.5610
