Name: Arctostaphylos glandulosa 1
Type: vegetation
Class: Shrub
Genus: Arctostaphylos
Species: glandulosa
Sample No.: VH230
Owner: UCSB
Wavelength Range: TIR
Origin: 34.5084; -119.7682; WGS84
Collection Date: 10/13/2013
Description: Samples were collected as part of the HyspIRI Airborne Campaign. 48 individual plants were sampled in three times in 2013 - spring  summer  and fall. The name of the sample includes a 1  2  or 3 which references a different individual of the species. Samples were taken to JPL and processed within 48 hours of collection. The same leaves were processed in the Nicolet and then measured using the ASD.
Measurement: Hemispherical reflectance
First Column: X
Second Column: Y
X Units: Wavelength (micrometers)
Y Units: Reflectance (percentage)
First X Value: 2.501
Last X Value: 15.387
Number of X Values: 1737
Additional Information: vegetation.shrub.arctostaphylos.glandulosa.tir.vh230.ucsb.nicolet.ancillary.txt

 2.5010	 8.0400
 2.5030	 8.0460
 2.5040	 8.0950
 2.5050	 8.2190
 2.5060	 8.1910
 2.5070	 7.9940
 2.5090	 7.8560
 2.5100	 7.9790
 2.5110	 7.9600
 2.5120	 7.8650
 2.5140	 8.1060
 2.5150	 8.0460
 2.5160	 8.0640
 2.5170	 7.9620
 2.5180	 7.7510
 2.5200	 7.7350
 2.5210	 7.9140
 2.5220	 7.9880
 2.5230	 8.0420
 2.5250	 8.0840
 2.5260	 8.1320
 2.5270	 8.0950
 2.5280	 8.1270
 2.5290	 8.0010
 2.5310	 7.8000
 2.5320	 7.6780
 2.5330	 7.7070
 2.5340	 7.7100
 2.5360	 7.9210
 2.5370	 7.8460
 2.5380	 7.8130
 2.5390	 7.9000
 2.5410	 7.9220
 2.5420	 7.9460
 2.5430	 8.0780
 2.5440	 8.0170
 2.5460	 8.0720
 2.5470	 8.0370
 2.5480	 8.0250
 2.5490	 8.0270
 2.5510	 8.0490
 2.5520	 7.9790
 2.5530	 7.9440
 2.5540	 7.9010
 2.5560	 8.0290
 2.5570	 8.1440
 2.5580	 8.0770
 2.5590	 8.0740
 2.5610	 8.1630
 2.5620	 8.1660
 2.5630	 8.1820
 2.5640	 8.0770
 2.5660	 8.1340
 2.5670	 8.1090
 2.5680	 8.0420
 2.5700	 8.0220
 2.5710	 8.0510
 2.5720	 8.1800
 2.5730	 8.2150
 2.5750	 8.0210
 2.5760	 8.1390
 2.5770	 8.1180
 2.5790	 8.1090
 2.5800	 8.1950
 2.5810	 8.2260
 2.5820	 8.1090
 2.5840	 8.1670
 2.5850	 8.1670
 2.5860	 7.9790
 2.5880	 7.8210
 2.5890	 8.0030
 2.5900	 8.0190
 2.5910	 8.1630
 2.5930	 8.2700
 2.5940	 8.1480
 2.5950	 7.8920
 2.5970	 7.8010
 2.5980	 7.8970
 2.5990	 8.1480
 2.6000	 8.1910
 2.6020	 8.0910
 2.6030	 8.2000
 2.6040	 8.2490
 2.6060	 8.0040
 2.6070	 7.8910
 2.6080	 7.8960
 2.6100	 8.0250
 2.6110	 8.0010
 2.6120	 7.8210
 2.6140	 7.6830
 2.6150	 7.9060
 2.6160	 8.0020
 2.6180	 8.0420
 2.6190	 7.8910
 2.6200	 7.8310
 2.6220	 7.7870
 2.6230	 7.7320
 2.6240	 7.6140
 2.6260	 7.7280
 2.6270	 7.8370
 2.6280	 7.9230
 2.6300	 7.8090
 2.6310	 8.0690
 2.6320	 8.1690
 2.6340	 7.9260
 2.6350	 7.6990
 2.6360	 7.6660
 2.6380	 7.6540
 2.6390	 7.6800
 2.6400	 7.7690
 2.6420	 7.7420
 2.6430	 7.5170
 2.6440	 7.4970
 2.6460	 7.6340
 2.6470	 7.7570
 2.6480	 7.6680
 2.6500	 7.6290
 2.6510	 7.5660
 2.6520	 7.5150
 2.6540	 7.5540
 2.6550	 7.5380
 2.6560	 7.5660
 2.6580	 7.5820
 2.6590	 7.4760
 2.6610	 7.5630
 2.6620	 7.3620
 2.6630	 7.2970
 2.6650	 7.3290
 2.6660	 7.3150
 2.6670	 7.2760
 2.6690	 7.3490
 2.6700	 7.2350
 2.6720	 7.2630
 2.6730	 7.4340
 2.6740	 7.5100
 2.6760	 7.3870
 2.6770	 7.4530
 2.6780	 7.4640
 2.6800	 7.4220
 2.6810	 7.3010
 2.6830	 7.3600
 2.6840	 7.2920
 2.6850	 7.2490
 2.6870	 7.0350
 2.6880	 6.9870
 2.6900	 7.0880
 2.6910	 7.1150
 2.6920	 7.0290
 2.6940	 7.1900
 2.6950	 7.0140
 2.6970	 6.7600
 2.6980	 6.6730
 2.6990	 6.6220
 2.7010	 6.6650
 2.7020	 6.6780
 2.7040	 6.4830
 2.7050	 6.5490
 2.7060	 6.8160
 2.7080	 6.8020
 2.7090	 6.6080
 2.7110	 6.6670
 2.7120	 6.5820
 2.7130	 6.4410
 2.7150	 6.3610
 2.7160	 6.3800
 2.7180	 6.4340
 2.7190	 6.5830
 2.7210	 6.4240
 2.7220	 6.1560
 2.7230	 5.9620
 2.7250	 5.8730
 2.7260	 6.1070
 2.7280	 6.1760
 2.7290	 5.9360
 2.7310	 5.8620
 2.7320	 5.5030
 2.7330	 5.0930
 2.7350	 5.2570
 2.7360	 5.7720
 2.7380	 6.0380
 2.7390	 6.1960
 2.7410	 6.0310
 2.7420	 5.9050
 2.7440	 6.2560
 2.7450	 6.2750
 2.7470	 5.5040
 2.7480	 5.2040
 2.7490	 5.8610
 2.7510	 6.6310
 2.7520	 6.8540
 2.7540	 7.1890
 2.7550	 7.1320
 2.7570	 6.2180
 2.7580	 5.8330
 2.7600	 5.7750
 2.7610	 5.8570
 2.7630	 6.1120
 2.7640	 6.4020
 2.7660	 5.9980
 2.7670	 5.4850
 2.7680	 6.0320
 2.7700	 6.3620
 2.7710	 6.2490
 2.7730	 6.1830
 2.7740	 6.0650
 2.7760	 5.9330
 2.7770	 5.8130
 2.7790	 5.6940
 2.7800	 5.6350
 2.7820	 5.7120
 2.7830	 5.8560
 2.7850	 5.6810
 2.7860	 5.6020
 2.7880	 5.8500
 2.7890	 5.9060
 2.7910	 5.6650
 2.7920	 5.6630
 2.7940	 5.8630
 2.7950	 5.7170
 2.7970	 5.5710
 2.7980	 5.6210
 2.8000	 5.7830
 2.8010	 5.8980
 2.8030	 5.7290
 2.8040	 5.6230
 2.8060	 5.5690
 2.8070	 5.6620
 2.8090	 5.6540
 2.8110	 5.6730
 2.8120	 5.6080
 2.8140	 5.5600
 2.8150	 5.5840
 2.8170	 5.5250
 2.8180	 5.3950
 2.8200	 5.6860
 2.8210	 6.1440
 2.8230	 6.0270
 2.8240	 5.5530
 2.8260	 5.4990
 2.8270	 5.2770
 2.8290	 5.5040
 2.8300	 5.6910
 2.8320	 5.8250
 2.8340	 5.7930
 2.8350	 5.6740
 2.8370	 5.5640
 2.8380	 5.5590
 2.8400	 5.5780
 2.8410	 5.8050
 2.8430	 5.7900
 2.8440	 5.7020
 2.8460	 5.4460
 2.8480	 5.2540
 2.8490	 5.4120
 2.8510	 5.5980
 2.8520	 5.5330
 2.8540	 5.3960
 2.8550	 5.3690
 2.8570	 5.3750
 2.8590	 5.2620
 2.8600	 5.2960
 2.8620	 5.5040
 2.8630	 5.7000
 2.8650	 5.6440
 2.8660	 5.5330
 2.8680	 5.5450
 2.8700	 5.9950
 2.8710	 5.9430
 2.8730	 5.7400
 2.8740	 5.6260
 2.8760	 5.5430
 2.8780	 5.4300
 2.8790	 5.3410
 2.8810	 4.9540
 2.8820	 5.1190
 2.8840	 5.2800
 2.8860	 5.5100
 2.8870	 5.3990
 2.8890	 5.0830
 2.8900	 5.0930
 2.8920	 5.2540
 2.8940	 5.3250
 2.8950	 5.4920
 2.8970	 5.2760
 2.8980	 5.2900
 2.9000	 5.3010
 2.9020	 5.4790
 2.9030	 5.4580
 2.9050	 5.7290
 2.9070	 5.6190
 2.9080	 5.3860
 2.9100	 5.3430
 2.9120	 5.4940
 2.9130	 5.4250
 2.9150	 5.4030
 2.9160	 5.3570
 2.9180	 5.3880
 2.9200	 5.4130
 2.9210	 5.5880
 2.9230	 5.4920
 2.9250	 5.4270
 2.9260	 5.4050
 2.9280	 5.5630
 2.9300	 5.5330
 2.9310	 5.3710
 2.9330	 5.3520
 2.9350	 5.4670
 2.9360	 5.2780
 2.9380	 5.0540
 2.9400	 5.1840
 2.9410	 5.6580
 2.9430	 5.3680
 2.9450	 4.7420
 2.9460	 5.0130
 2.9480	 5.7280
 2.9500	 5.4100
 2.9510	 5.4350
 2.9530	 5.5710
 2.9550	 5.6950
 2.9560	 5.9800
 2.9580	 5.6940
 2.9600	 5.3970
 2.9610	 5.4610
 2.9630	 5.5190
 2.9650	 5.6960
 2.9660	 5.4800
 2.9680	 4.3450
 2.9700	 2.9830
 2.9720	 2.3980
 2.9730	 2.7130
 2.9750	 5.6230
 2.9770	 6.4900
 2.9780	 3.7990
 2.9800	 3.4620
 2.9820	 4.7160
 2.9840	 5.5310
 2.9850	 5.6780
 2.9870	 5.5850
 2.9890	 5.8820
 2.9900	 6.1080
 2.9920	 5.9040
 2.9940	 5.0830
 2.9960	 4.7830
 2.9970	 7.1390
 2.9990	 7.7880
 3.0010	 6.8300
 3.0030	 5.1800
 3.0040	 5.1900
 3.0060	 4.8370
 3.0080	 3.8320
 3.0100	 4.8820
 3.0110	 5.9110
 3.0130	 5.9120
 3.0150	 6.2340
 3.0170	 6.5150
 3.0180	 4.8970
 3.0200	 4.4880
 3.0220	 5.1560
 3.0240	 5.0140
 3.0250	 5.2320
 3.0270	 5.8310
 3.0290	 6.7000
 3.0310	 7.5760
 3.0320	 7.0320
 3.0340	 4.8670
 3.0360	 4.5340
 3.0380	 5.7370
 3.0400	 6.9010
 3.0410	 6.5720
 3.0430	 6.1460
 3.0450	 5.2870
 3.0470	 5.6430
 3.0480	 6.2310
 3.0500	 5.3160
 3.0520	 4.4170
 3.0540	 6.3590
 3.0560	 7.8420
 3.0570	 6.7010
 3.0590	 5.3230
 3.0610	 5.1000
 3.0630	 5.6510
 3.0650	 5.2180
 3.0660	 4.9820
 3.0680	 5.9270
 3.0700	 7.5000
 3.0720	 6.4800
 3.0740	 5.9440
 3.0760	 5.1780
 3.0770	 4.7140
 3.0790	 5.1130
 3.0810	 5.2180
 3.0830	 5.0180
 3.0850	 5.2400
 3.0870	 5.2520
 3.0880	 5.1130
 3.0900	 5.1700
 3.0920	 5.4700
 3.0940	 5.4030
 3.0960	 5.5710
 3.0980	 5.3850
 3.0990	 5.1140
 3.1010	 5.2990
 3.1030	 5.6740
 3.1050	 5.6540
 3.1070	 5.3230
 3.1090	 5.3820
 3.1110	 5.4740
 3.1120	 5.5160
 3.1140	 5.6330
 3.1160	 5.3150
 3.1180	 5.1060
 3.1200	 5.3180
 3.1220	 5.7120
 3.1240	 5.4910
 3.1260	 5.2510
 3.1270	 5.2700
 3.1290	 5.3540
 3.1310	 5.6300
 3.1330	 5.9320
 3.1350	 5.8810
 3.1370	 6.0070
 3.1390	 5.0930
 3.1410	 4.3920
 3.1430	 4.2790
 3.1450	 4.8140
 3.1460	 5.7550
 3.1480	 5.9280
 3.1500	 5.7730
 3.1520	 4.9500
 3.1540	 4.7280
 3.1560	 4.4800
 3.1580	 4.6010
 3.1600	 3.6760
 3.1620	 2.2440
 3.1640	 4.7460
 3.1660	 7.1060
 3.1680	 5.4010
 3.1700	 4.2210
 3.1710	 5.1410
 3.1730	 2.7000
 3.1750	 -1.794
 3.1770	 -0.412
 3.1790	 2.4960
 3.1810	 2.6190
 3.1830	 3.4320
 3.1850	 5.1450
 3.1870	 5.5330
 3.1890	 5.0810
 3.1910	 5.6690
 3.1930	 5.5890
 3.1950	 5.4030
 3.1970	 5.3370
 3.1990	 5.6980
 3.2010	 5.9100
 3.2030	 5.7830
 3.2050	 5.5270
 3.2070	 5.5490
 3.2090	 5.4050
 3.2110	 5.4660
 3.2130	 5.4550
 3.2150	 5.2020
 3.2170	 4.9120
 3.2190	 4.9350
 3.2210	 5.2900
 3.2230	 5.6790
 3.2250	 5.6270
 3.2270	 5.5740
 3.2290	 5.5050
 3.2310	 5.3390
 3.2330	 5.1160
 3.2350	 5.1890
 3.2370	 5.0210
 3.2390	 4.8540
 3.2410	 5.7510
 3.2430	 6.3730
 3.2450	 5.2750
 3.2470	 4.9470
 3.2490	 5.6770
 3.2510	 6.4240
 3.2530	 6.1950
 3.2550	 5.0810
 3.2570	 4.6870
 3.2590	 4.8790
 3.2610	 5.0840
 3.2630	 5.5760
 3.2650	 5.7500
 3.2670	 5.4990
 3.2690	 5.3730
 3.2720	 5.3580
 3.2740	 4.9560
 3.2760	 5.1270
 3.2780	 5.5770
 3.2800	 5.4660
 3.2820	 5.2270
 3.2840	 5.5650
 3.2860	 5.6020
 3.2880	 5.0830
 3.2900	 5.2460
 3.2920	 5.8340
 3.2940	 5.3710
 3.2960	 5.3950
 3.2990	 5.8460
 3.3010	 5.5940
 3.3030	 5.4400
 3.3050	 5.2620
 3.3070	 5.0380
 3.3090	 4.9870
 3.3110	 5.5300
 3.3130	 5.7480
 3.3150	 5.5990
 3.3180	 5.2900
 3.3200	 4.9680
 3.3220	 5.1950
 3.3240	 5.3040
 3.3260	 5.2920
 3.3280	 5.1980
 3.3300	 5.1900
 3.3330	 5.2640
 3.3350	 5.3230
 3.3370	 5.2560
 3.3390	 5.4000
 3.3410	 5.3530
 3.3430	 5.2390
 3.3450	 5.2230
 3.3480	 5.1170
 3.3500	 4.9840
 3.3520	 4.9410
 3.3540	 4.9370
 3.3560	 5.1210
 3.3580	 5.0850
 3.3610	 5.0170
 3.3630	 5.0790
 3.3650	 5.0870
 3.3670	 4.9090
 3.3690	 4.7710
 3.3720	 4.6900
 3.3740	 4.7810
 3.3760	 4.7810
 3.3780	 4.7710
 3.3800	 4.6950
 3.3830	 4.6950
 3.3850	 4.7400
 3.3870	 4.8510
 3.3890	 4.9010
 3.3910	 4.9580
 3.3940	 4.8750
 3.3960	 4.6130
 3.3980	 4.5230
 3.4000	 4.5400
 3.4020	 4.3900
 3.4050	 4.4120
 3.4070	 4.3290
 3.4090	 4.2630
 3.4110	 4.3290
 3.4140	 4.3790
 3.4160	 4.3580
 3.4180	 4.6010
 3.4200	 5.1970
 3.4230	 6.0290
 3.4250	 6.9960
 3.4270	 8.0380
 3.4290	 8.6530
 3.4320	 8.7100
 3.4340	 8.0500
 3.4360	 7.5960
 3.4390	 7.4690
 3.4410	 6.8630
 3.4430	 6.3940
 3.4450	 6.5620
 3.4480	 6.6680
 3.4500	 6.6830
 3.4520	 6.7350
 3.4550	 6.5310
 3.4570	 6.1110
 3.4590	 6.2520
 3.4620	 6.4420
 3.4640	 6.2430
 3.4660	 6.0940
 3.4680	 6.0410
 3.4710	 5.8950
 3.4730	 5.8650
 3.4750	 5.9660
 3.4780	 5.9530
 3.4800	 5.8180
 3.4820	 5.6410
 3.4850	 5.5540
 3.4870	 5.5820
 3.4890	 5.4540
 3.4920	 5.3480
 3.4940	 5.2560
 3.4970	 5.2010
 3.4990	 5.1370
 3.5010	 5.1390
 3.5040	 5.1570
 3.5060	 5.5000
 3.5080	 6.5920
 3.5110	 8.0010
 3.5130	 8.3700
 3.5160	 7.9840
 3.5180	 7.7810
 3.5200	 7.5220
 3.5230	 7.1840
 3.5250	 6.9620
 3.5270	 6.8720
 3.5300	 6.7840
 3.5320	 6.6830
 3.5350	 6.6090
 3.5370	 6.6230
 3.5400	 6.6270
 3.5420	 6.3610
 3.5440	 6.0680
 3.5470	 6.1390
 3.5490	 6.1820
 3.5520	 6.0490
 3.5540	 6.1410
 3.5570	 6.1740
 3.5590	 6.1580
 3.5610	 6.2260
 3.5640	 6.3510
 3.5660	 6.3120
 3.5690	 6.2530
 3.5710	 6.2770
 3.5740	 6.2980
 3.5760	 6.4280
 3.5790	 6.4820
 3.5810	 6.2520
 3.5840	 6.1800
 3.5860	 6.1900
 3.5890	 6.3440
 3.5910	 6.3750
 3.5930	 6.2990
 3.5960	 6.5090
 3.5980	 6.3260
 3.6010	 5.8860
 3.6030	 6.1650
 3.6060	 6.3970
 3.6080	 6.1980
 3.6110	 6.1340
 3.6140	 6.0590
 3.6160	 5.7990
 3.6190	 5.8890
 3.6210	 6.0640
 3.6240	 6.1920
 3.6260	 6.2020
 3.6290	 6.2490
 3.6310	 6.2080
 3.6340	 6.0630
 3.6360	 6.1340
 3.6390	 6.3450
 3.6410	 6.2940
 3.6440	 6.1160
 3.6470	 6.0390
 3.6490	 6.2150
 3.6520	 6.1910
 3.6540	 6.0450
 3.6570	 6.0050
 3.6590	 6.1060
 3.6620	 6.0830
 3.6650	 5.9560
 3.6670	 5.9330
 3.6700	 5.9890
 3.6720	 6.0760
 3.6750	 6.3680
 3.6780	 6.3110
 3.6800	 6.0530
 3.6830	 6.0920
 3.6850	 6.2550
 3.6880	 6.1740
 3.6910	 6.1600
 3.6930	 6.1190
 3.6960	 5.9920
 3.6990	 6.0220
 3.7010	 6.1760
 3.7040	 6.1040
 3.7060	 6.0280
 3.7090	 5.9060
 3.7120	 5.8780
 3.7140	 5.8760
 3.7170	 5.9070
 3.7200	 6.0450
 3.7220	 6.1060
 3.7250	 6.1140
 3.7280	 6.2650
 3.7300	 6.2360
 3.7330	 6.0080
 3.7360	 6.0430
 3.7390	 6.1640
 3.7410	 6.1860
 3.7440	 6.0330
 3.7470	 5.8900
 3.7490	 6.0140
 3.7520	 6.1040
 3.7550	 6.0370
 3.7580	 5.9270
 3.7600	 5.9000
 3.7630	 5.7860
 3.7660	 5.8700
 3.7680	 5.9440
 3.7710	 5.9880
 3.7740	 6.1250
 3.7770	 6.2610
 3.7790	 6.2420
 3.7820	 6.3620
 3.7850	 6.3310
 3.7880	 6.2110
 3.7900	 5.9580
 3.7930	 6.0030
 3.7960	 6.0710
 3.7990	 6.0260
 3.8020	 6.0690
 3.8040	 6.0300
 3.8070	 6.0240
 3.8100	 6.0920
 3.8130	 6.1110
 3.8160	 6.1540
 3.8180	 6.1070
 3.8210	 6.0320
 3.8240	 6.0700
 3.8270	 6.1820
 3.8300	 6.2040
 3.8330	 6.2750
 3.8350	 6.2790
 3.8380	 6.2180
 3.8410	 6.1850
 3.8440	 6.0860
 3.8470	 6.0430
 3.8500	 6.2040
 3.8520	 6.1730
 3.8550	 6.1510
 3.8580	 6.2270
 3.8610	 6.1570
 3.8640	 6.0710
 3.8670	 6.1540
 3.8700	 6.2230
 3.8730	 6.0470
 3.8750	 5.9400
 3.8780	 6.0050
 3.8810	 6.0830
 3.8840	 6.1710
 3.8870	 6.1340
 3.8900	 6.0170
 3.8930	 6.0900
 3.8960	 6.2050
 3.8990	 6.2540
 3.9020	 6.2500
 3.9050	 6.0710
 3.9080	 6.0090
 3.9110	 6.1410
 3.9140	 6.2370
 3.9160	 6.1650
 3.9190	 6.1050
 3.9220	 6.1510
 3.9250	 6.1740
 3.9280	 6.1220
 3.9310	 6.0590
 3.9340	 6.0010
 3.9370	 6.0630
 3.9400	 6.1210
 3.9430	 6.0980
 3.9460	 6.0780
 3.9490	 6.1690
 3.9520	 6.2430
 3.9550	 6.2220
 3.9580	 6.1790
 3.9610	 6.2160
 3.9640	 6.2030
 3.9670	 6.1410
 3.9700	 6.1670
 3.9730	 6.1970
 3.9770	 6.2170
 3.9800	 6.2760
 3.9830	 6.2380
 3.9860	 6.1900
 3.9890	 6.2500
 3.9920	 6.3000
 3.9950	 6.2550
 3.9980	 6.1820
 4.0010	 6.1990
 4.0040	 6.3180
 4.0070	 6.3200
 4.0100	 6.3060
 4.0130	 6.2500
 4.0170	 6.2050
 4.0200	 6.1360
 4.0230	 6.1630
 4.0260	 6.2220
 4.0290	 6.1950
 4.0320	 6.2400
 4.0350	 6.2130
 4.0380	 6.1600
 4.0420	 6.1860
 4.0450	 6.2440
 4.0480	 6.2850
 4.0510	 6.1520
 4.0540	 6.2310
 4.0570	 6.3710
 4.0610	 6.2880
 4.0640	 6.2830
 4.0670	 6.3480
 4.0700	 6.4040
 4.0730	 6.4110
 4.0770	 6.4220
 4.0800	 6.4120
 4.0830	 6.4520
 4.0860	 6.5290
 4.0890	 6.5110
 4.0930	 6.4130
 4.0960	 6.3970
 4.0990	 6.2940
 4.1020	 6.3420
 4.1060	 6.6300
 4.1090	 6.7470
 4.1120	 6.2740
 4.1150	 5.9890
 4.1190	 6.0640
 4.1220	 6.2430
 4.1250	 6.4190
 4.1280	 6.4070
 4.1320	 6.3620
 4.1350	 6.3650
 4.1380	 6.4020
 4.1420	 6.4060
 4.1450	 6.3740
 4.1480	 6.3080
 4.1520	 6.3490
 4.1550	 6.3960
 4.1580	 6.3700
 4.1620	 6.3690
 4.1650	 6.3300
 4.1680	 6.3350
 4.1720	 6.3780
 4.1750	 6.3180
 4.1780	 6.3100
 4.1820	 6.3630
 4.1850	 6.3200
 4.1890	 6.3260
 4.1920	 6.3520
 4.1950	 6.3730
 4.1990	 6.4810
 4.2020	 6.6520
 4.2060	 6.6280
 4.2090	 6.7640
 4.2120	 6.9530
 4.2160	 6.9600
 4.2190	 6.9570
 4.2230	 7.0870
 4.2260	 7.0380
 4.2300	 7.1380
 4.2330	 7.3370
 4.2360	 7.1020
 4.2400	 6.9840
 4.2430	 7.0230
 4.2470	 6.8950
 4.2500	 6.9470
 4.2540	 6.9350
 4.2570	 6.8850
 4.2610	 6.7720
 4.2640	 6.6040
 4.2680	 6.6030
 4.2710	 6.7550
 4.2750	 6.9950
 4.2780	 7.0150
 4.2820	 6.8710
 4.2850	 6.8680
 4.2890	 6.8890
 4.2930	 6.9210
 4.2960	 6.8150
 4.3000	 6.7110
 4.3030	 6.8590
 4.3070	 6.9770
 4.3100	 6.9600
 4.3140	 6.6780
 4.3180	 6.4500
 4.3210	 6.4880
 4.3250	 6.5660
 4.3280	 6.5550
 4.3320	 6.4560
 4.3360	 6.5430
 4.3390	 6.5250
 4.3430	 6.4790
 4.3470	 6.4070
 4.3500	 6.3570
 4.3540	 6.4350
 4.3570	 6.5120
 4.3610	 6.4720
 4.3650	 6.4030
 4.3680	 6.3650
 4.3720	 6.3390
 4.3760	 6.3040
 4.3800	 6.2810
 4.3830	 6.2880
 4.3870	 6.2920
 4.3910	 6.2150
 4.3940	 6.2800
 4.3980	 6.4080
 4.4020	 6.4340
 4.4060	 6.3570
 4.4090	 6.3010
 4.4130	 6.3910
 4.4170	 6.4830
 4.4210	 6.3750
 4.4240	 6.3630
 4.4280	 6.3720
 4.4320	 6.3170
 4.4360	 6.3440
 4.4400	 6.3910
 4.4430	 6.3250
 4.4470	 6.3120
 4.4510	 6.3130
 4.4550	 6.2950
 4.4590	 6.2360
 4.4620	 6.2770
 4.4660	 6.2940
 4.4700	 6.2490
 4.4740	 6.2370
 4.4780	 6.2370
 4.4820	 6.2340
 4.4860	 6.3020
 4.4900	 6.2470
 4.4930	 6.2420
 4.4970	 6.1990
 4.5010	 6.2080
 4.5050	 6.1820
 4.5090	 6.1740
 4.5130	 6.1930
 4.5170	 6.1820
 4.5210	 6.1710
 4.5250	 6.1630
 4.5290	 6.1750
 4.5330	 6.2000
 4.5370	 6.1650
 4.5410	 6.0950
 4.5450	 6.0750
 4.5490	 6.0600
 4.5530	 6.1130
 4.5570	 6.1560
 4.5610	 6.1470
 4.5650	 6.1040
 4.5690	 6.1190
 4.5730	 6.1890
 4.5770	 6.2050
 4.5810	 6.2700
 4.5850	 6.2160
 4.5890	 6.2040
 4.5930	 6.2760
 4.5970	 6.3690
 4.6010	 6.2900
 4.6050	 6.1030
 4.6090	 6.0570
 4.6130	 6.0740
 4.6170	 5.9880
 4.6220	 6.0780
 4.6260	 6.2350
 4.6300	 6.1190
 4.6340	 6.0470
 4.6380	 6.0680
 4.6420	 6.1200
 4.6460	 6.2640
 4.6510	 6.2450
 4.6550	 6.1690
 4.6590	 6.1260
 4.6630	 6.0910
 4.6670	 6.1000
 4.6720	 6.1940
 4.6760	 6.1680
 4.6800	 6.0770
 4.6840	 6.0240
 4.6880	 6.0210
 4.6930	 6.1510
 4.6970	 6.2300
 4.7010	 6.2000
 4.7050	 6.0710
 4.7100	 5.9340
 4.7140	 6.0420
 4.7180	 6.1070
 4.7230	 6.0880
 4.7270	 6.1230
 4.7310	 6.2110
 4.7360	 6.1460
 4.7400	 6.0770
 4.7440	 6.0620
 4.7490	 6.1200
 4.7530	 6.0700
 4.7570	 5.9870
 4.7620	 5.9450
 4.7660	 6.0350
 4.7700	 6.0900
 4.7750	 6.0750
 4.7790	 6.1670
 4.7840	 6.4170
 4.7880	 6.4610
 4.7920	 6.4370
 4.7970	 6.3940
 4.8010	 6.1280
 4.8060	 5.9230
 4.8100	 5.9370
 4.8150	 5.9150
 4.8190	 6.0490
 4.8240	 6.1100
 4.8280	 6.1930
 4.8330	 6.1680
 4.8370	 6.1700
 4.8420	 6.1880
 4.8460	 6.0960
 4.8510	 6.0850
 4.8550	 6.1710
 4.8600	 6.1320
 4.8640	 6.0730
 4.8690	 6.1100
 4.8730	 6.1570
 4.8780	 6.1200
 4.8830	 6.1330
 4.8870	 6.1340
 4.8920	 6.0910
 4.8960	 6.0400
 4.9010	 6.0330
 4.9060	 6.0110
 4.9100	 6.0560
 4.9150	 6.0590
 4.9200	 6.0870
 4.9240	 6.0580
 4.9290	 6.0380
 4.9340	 6.0040
 4.9380	 6.0950
 4.9430	 6.1150
 4.9480	 6.1130
 4.9530	 6.1650
 4.9570	 6.3010
 4.9620	 6.3150
 4.9670	 6.1890
 4.9720	 6.0510
 4.9760	 6.0280
 4.9810	 6.0750
 4.9860	 6.2050
 4.9910	 6.2740
 4.9960	 6.2070
 5.0000	 6.1090
 5.0050	 6.0760
 5.0100	 6.0770
 5.0150	 6.1370
 5.0200	 6.2160
 5.0250	 6.2280
 5.0290	 6.1850
 5.0340	 6.2340
 5.0390	 6.2370
 5.0440	 6.2270
 5.0490	 6.1150
 5.0540	 6.0700
 5.0590	 6.0970
 5.0640	 6.1500
 5.0690	 6.1310
 5.0740	 6.1840
 5.0790	 6.1740
 5.0840	 6.1450
 5.0890	 6.1350
 5.0940	 6.1540
 5.0990	 6.1140
 5.1040	 6.1360
 5.1090	 6.1610
 5.1140	 6.2300
 5.1190	 6.2980
 5.1240	 6.2500
 5.1290	 6.2000
 5.1340	 6.2570
 5.1390	 6.2220
 5.1440	 6.2280
 5.1490	 6.2980
 5.1540	 6.3100
 5.1600	 6.1220
 5.1650	 6.1080
 5.1700	 6.1040
 5.1750	 6.0570
 5.1800	 6.0620
 5.1850	 6.1600
 5.1910	 6.2180
 5.1960	 6.2550
 5.2010	 6.2270
 5.2060	 6.1800
 5.2110	 6.0850
 5.2170	 6.0800
 5.2220	 6.0670
 5.2270	 6.1220
 5.2320	 6.1020
 5.2380	 6.1210
 5.2430	 6.1390
 5.2480	 6.1400
 5.2540	 6.1100
 5.2590	 6.1370
 5.2640	 6.1070
 5.2700	 6.0950
 5.2750	 6.1250
 5.2800	 6.2210
 5.2860	 6.2250
 5.2910	 6.2090
 5.2970	 6.2250
 5.3020	 6.1960
 5.3070	 6.0990
 5.3130	 6.0950
 5.3180	 6.1070
 5.3240	 6.0860
 5.3290	 6.0140
 5.3350	 6.0960
 5.3400	 6.1130
 5.3460	 6.0990
 5.3510	 6.1330
 5.3570	 6.1920
 5.3620	 6.2060
 5.3680	 6.1900
 5.3730	 6.0620
 5.3790	 6.0820
 5.3850	 6.0980
 5.3900	 6.1520
 5.3960	 6.1270
 5.4010	 6.1270
 5.4070	 6.1000
 5.4130	 6.1010
 5.4180	 6.0460
 5.4240	 5.9760
 5.4300	 5.9970
