Name: Arctostaphylos glandulosa 2
Type: vegetation
Class: Shrub
Genus: Arctostaphylos
Species: glandulosa
Sample No.: VH227
Owner: UCSB
Wavelength Range: VSWIR
Origin: 34.5084; -119.7682; WGS84
Collection Date: 10/13/2013
Description: Samples were collected as part of the HyspIRI Airborne Campaign. 48 individual plants were sampled in three times in 2013 - spring  summer  and fall. The name of the sample includes a 1  2  or 3 which references a different individual of the species. Samples were taken to JPL and processed within 48 hours of collection. The same leaves were processed in the Nicolet and then measured using the ASD.
Measurement: Bidirectional reflectance
First Column: X
Second Column: Y
X Units: Wavelength (micrometers)
Y Units: Reflectance (percentage)
First X Value: 0.35
Last X Value: 2.5
Number of X Values: 2151
Additional Information: vegetation.shrub.arctostaphylos.glandulosa.vswir.vh227.ucsb.asd.ancillary.txt

 0.3500	 6.9100
 0.3510	 6.6410
 0.3520	 6.7640
 0.3530	 6.8550
 0.3540	 6.6300
 0.3550	 6.8200
 0.3560	 6.6960
 0.3570	 6.4680
 0.3580	 6.7230
 0.3590	 6.7790
 0.3600	 6.6870
 0.3610	 6.5770
 0.3620	 6.5900
 0.3630	 6.5220
 0.3640	 6.4600
 0.3650	 6.5190
 0.3660	 6.6730
 0.3670	 6.6800
 0.3680	 6.5430
 0.3690	 6.4410
 0.3700	 6.5230
 0.3710	 6.5330
 0.3720	 6.4020
 0.3730	 6.5100
 0.3740	 6.5300
 0.3750	 6.4990
 0.3760	 6.5230
 0.3770	 6.4360
 0.3780	 6.4100
 0.3790	 6.4810
 0.3800	 6.5450
 0.3810	 6.3520
 0.3820	 6.2280
 0.3830	 6.3630
 0.3840	 6.4630
 0.3850	 6.4260
 0.3860	 6.3280
 0.3870	 6.3110
 0.3880	 6.4570
 0.3890	 6.4710
 0.3900	 6.3530
 0.3910	 6.4120
 0.3920	 6.4850
 0.3930	 6.4860
 0.3940	 6.4030
 0.3950	 6.3570
 0.3960	 6.3410
 0.3970	 6.3560
 0.3980	 6.4010
 0.3990	 6.4240
 0.4000	 6.4120
 0.4010	 6.3960
 0.4020	 6.4570
 0.4030	 6.4050
 0.4040	 6.3380
 0.4050	 6.3650
 0.4060	 6.3850
 0.4070	 6.3870
 0.4080	 6.3700
 0.4090	 6.3440
 0.4100	 6.3930
 0.4110	 6.4260
 0.4120	 6.3900
 0.4130	 6.3360
 0.4140	 6.3560
 0.4150	 6.4100
 0.4160	 6.4230
 0.4170	 6.3740
 0.4180	 6.3600
 0.4190	 6.3940
 0.4200	 6.4100
 0.4210	 6.4260
 0.4220	 6.4320
 0.4230	 6.4290
 0.4240	 6.4590
 0.4250	 6.4850
 0.4260	 6.5150
 0.4270	 6.5690
 0.4280	 6.6130
 0.4290	 6.6550
 0.4300	 6.7020
 0.4310	 6.7480
 0.4320	 6.8080
 0.4330	 6.8720
 0.4340	 6.9270
 0.4350	 6.9770
 0.4360	 7.0620
 0.4370	 7.1640
 0.4380	 7.2280
 0.4390	 7.3060
 0.4400	 7.3940
 0.4410	 7.4840
 0.4420	 7.5770
 0.4430	 7.6620
 0.4440	 7.7480
 0.4450	 7.8470
 0.4460	 7.9280
 0.4470	 7.9970
 0.4480	 8.0660
 0.4490	 8.1580
 0.4500	 8.2210
 0.4510	 8.2760
 0.4520	 8.3530
 0.4530	 8.4340
 0.4540	 8.4920
 0.4550	 8.5360
 0.4560	 8.5960
 0.4570	 8.6540
 0.4580	 8.6970
 0.4590	 8.7240
 0.4600	 8.7500
 0.4610	 8.7980
 0.4620	 8.8420
 0.4630	 8.8580
 0.4640	 8.9040
 0.4650	 8.9320
 0.4660	 8.9380
 0.4670	 8.9710
 0.4680	 8.9940
 0.4690	 9.0150
 0.4700	 9.0410
 0.4710	 9.0380
 0.4720	 9.0580
 0.4730	 9.0930
 0.4740	 9.1050
 0.4750	 9.1150
 0.4760	 9.1280
 0.4770	 9.1430
 0.4780	 9.1520
 0.4790	 9.1600
 0.4800	 9.1720
 0.4810	 9.1900
 0.4820	 9.2110
 0.4830	 9.2190
 0.4840	 9.2240
 0.4850	 9.2550
 0.4860	 9.2820
 0.4870	 9.2990
 0.4880	 9.3150
 0.4890	 9.3590
 0.4900	 9.3980
 0.4910	 9.4330
 0.4920	 9.4760
 0.4930	 9.5250
 0.4940	 9.5750
 0.4950	 9.6280
 0.4960	 9.6920
 0.4970	 9.7580
 0.4980	 9.8270
 0.4990	 9.9060
 0.5000	 9.9890
 0.5010	10.0830
 0.5020	10.1810
 0.5030	10.2640
 0.5040	10.3780
 0.5050	10.5110
 0.5060	10.6480
 0.5070	10.7810
 0.5080	10.9160
 0.5090	11.0620
 0.5100	11.2280
 0.5110	11.4030
 0.5120	11.5860
 0.5130	11.7780
 0.5140	11.9710
 0.5150	12.1820
 0.5160	12.4000
 0.5170	12.6140
 0.5180	12.8500
 0.5190	13.0850
 0.5200	13.3160
 0.5210	13.5520
 0.5220	13.7880
 0.5230	14.0310
 0.5240	14.2790
 0.5250	14.5020
 0.5260	14.7330
 0.5270	14.9690
 0.5280	15.1920
 0.5290	15.4120
 0.5300	15.6250
 0.5310	15.8300
 0.5320	16.0360
 0.5330	16.2320
 0.5340	16.4240
 0.5350	16.6170
 0.5360	16.8030
 0.5370	16.9790
 0.5380	17.1500
 0.5390	17.3220
 0.5400	17.4880
 0.5410	17.6460
 0.5420	17.7990
 0.5430	17.9500
 0.5440	18.1080
 0.5450	18.2610
 0.5460	18.3940
 0.5470	18.5350
 0.5480	18.6710
 0.5490	18.7950
 0.5500	18.9070
 0.5510	19.0090
 0.5520	19.0970
 0.5530	19.1680
 0.5540	19.2250
 0.5550	19.2660
 0.5560	19.2890
 0.5570	19.2980
 0.5580	19.2920
 0.5590	19.2730
 0.5600	19.2400
 0.5610	19.1900
 0.5620	19.1320
 0.5630	19.0640
 0.5640	18.9780
 0.5650	18.8820
 0.5660	18.7780
 0.5670	18.6690
 0.5680	18.5560
 0.5690	18.4300
 0.5700	18.2990
 0.5710	18.1670
 0.5720	18.0280
 0.5730	17.8910
 0.5740	17.7610
 0.5750	17.6380
 0.5760	17.5190
 0.5770	17.4100
 0.5780	17.3120
 0.5790	17.2120
 0.5800	17.1260
 0.5810	17.0410
 0.5820	16.9390
 0.5830	16.8450
 0.5840	16.7650
 0.5850	16.6940
 0.5860	16.6230
 0.5870	16.5580
 0.5880	16.5000
 0.5890	16.4440
 0.5900	16.3930
 0.5910	16.3450
 0.5920	16.2970
 0.5930	16.2470
 0.5940	16.2030
 0.5950	16.1680
 0.5960	16.1400
 0.5970	16.1090
 0.5980	16.0790
 0.5990	16.0500
 0.6000	16.0200
 0.6010	15.9760
 0.6020	15.9260
 0.6030	15.8700
 0.6040	15.8050
 0.6050	15.7340
 0.6060	15.6600
 0.6070	15.5820
 0.6080	15.4890
 0.6090	15.3920
 0.6100	15.2910
 0.6110	15.1860
 0.6120	15.0860
 0.6130	14.9860
 0.6140	14.8880
 0.6150	14.7950
 0.6160	14.7010
 0.6170	14.6110
 0.6180	14.5340
 0.6190	14.4610
 0.6200	14.3920
 0.6210	14.3290
 0.6220	14.2780
 0.6230	14.2350
 0.6240	14.1980
 0.6250	14.1670
 0.6260	14.1480
 0.6270	14.1310
 0.6280	14.1160
 0.6290	14.1080
 0.6300	14.0920
 0.6310	14.0770
 0.6320	14.0650
 0.6330	14.0440
 0.6340	14.0050
 0.6350	13.9510
 0.6360	13.8860
 0.6370	13.8110
 0.6380	13.7150
 0.6390	13.6010
 0.6400	13.4800
 0.6410	13.3520
 0.6420	13.2160
 0.6430	13.0740
 0.6440	12.9280
 0.6450	12.7790
 0.6460	12.6330
 0.6470	12.4960
 0.6480	12.3670
 0.6490	12.2540
 0.6500	12.1570
 0.6510	12.0690
 0.6520	11.9880
 0.6530	11.9140
 0.6540	11.8410
 0.6550	11.7570
 0.6560	11.6620
 0.6570	11.5570
 0.6580	11.4400
 0.6590	11.3160
 0.6600	11.1780
 0.6610	11.0280
 0.6620	10.8790
 0.6630	10.7410
 0.6640	10.6080
 0.6650	10.4780
 0.6660	10.3600
 0.6670	10.2520
 0.6680	10.1540
 0.6690	10.0660
 0.6700	10.0070
 0.6710	 9.9520
 0.6720	 9.8960
 0.6730	 9.8660
 0.6740	 9.8400
 0.6750	 9.8190
 0.6760	 9.8070
 0.6770	 9.8060
 0.6780	 9.8120
 0.6790	 9.8310
 0.6800	 9.8700
 0.6810	 9.9280
 0.6820	10.0140
 0.6830	10.1330
 0.6840	10.2860
 0.6850	10.4880
 0.6860	10.7450
 0.6870	11.0570
 0.6880	11.4410
 0.6890	11.8920
 0.6900	12.4150
 0.6910	13.0260
 0.6920	13.7220
 0.6930	14.4970
 0.6940	15.3470
 0.6950	16.2720
 0.6960	17.2670
 0.6970	18.3250
 0.6980	19.4380
 0.6990	20.5910
 0.7000	21.7810
 0.7010	22.9990
 0.7020	24.2320
 0.7030	25.4590
 0.7040	26.6750
 0.7050	27.8770
 0.7060	29.0650
 0.7070	30.2330
 0.7080	31.3660
 0.7090	32.4560
 0.7100	33.5300
 0.7110	34.5630
 0.7120	35.5540
 0.7130	36.5220
 0.7140	37.4470
 0.7150	38.3370
 0.7160	39.1960
 0.7170	40.0000
 0.7180	40.7840
 0.7190	41.5400
 0.7200	42.2420
 0.7210	42.9130
 0.7220	43.5510
 0.7230	44.1570
 0.7240	44.7370
 0.7250	45.2750
 0.7260	45.7810
 0.7270	46.2600
 0.7280	46.6910
 0.7290	47.1130
 0.7300	47.5120
 0.7310	47.8630
 0.7320	48.2040
 0.7330	48.5260
 0.7340	48.8260
 0.7350	49.1120
 0.7360	49.3610
 0.7370	49.5920
 0.7380	49.8160
 0.7390	50.0150
 0.7400	50.2070
 0.7410	50.4000
 0.7420	50.5900
 0.7430	50.7490
 0.7440	50.8990
 0.7450	51.0440
 0.7460	51.1720
 0.7470	51.2740
 0.7480	51.3750
 0.7490	51.4850
 0.7500	51.5760
 0.7510	51.6760
 0.7520	51.7650
 0.7530	51.8190
 0.7540	51.8860
 0.7550	51.9530
 0.7560	52.0140
 0.7570	52.0710
 0.7580	52.1220
 0.7590	52.1630
 0.7600	52.2000
 0.7610	52.2570
 0.7620	52.3040
 0.7630	52.3330
 0.7640	52.3500
 0.7650	52.3850
 0.7660	52.4150
 0.7670	52.4400
 0.7680	52.4730
 0.7690	52.4950
 0.7700	52.5090
 0.7710	52.5260
 0.7720	52.5550
 0.7730	52.5810
 0.7740	52.5870
 0.7750	52.5770
 0.7760	52.6060
 0.7770	52.6290
 0.7780	52.6490
 0.7790	52.6870
 0.7800	52.6830
 0.7810	52.6760
 0.7820	52.6850
 0.7830	52.7040
 0.7840	52.7070
 0.7850	52.7190
 0.7860	52.7520
 0.7870	52.7790
 0.7880	52.7780
 0.7890	52.7730
 0.7900	52.7910
 0.7910	52.8080
 0.7920	52.8270
 0.7930	52.8360
 0.7940	52.8190
 0.7950	52.8370
 0.7960	52.8480
 0.7970	52.8420
 0.7980	52.8660
 0.7990	52.8770
 0.8000	52.8820
 0.8010	52.8920
 0.8020	52.9100
 0.8030	52.9210
 0.8040	52.9300
 0.8050	52.9450
 0.8060	52.9380
 0.8070	52.9430
 0.8080	52.9640
 0.8090	52.9710
 0.8100	52.9610
 0.8110	52.9570
 0.8120	52.9700
 0.8130	52.9830
 0.8140	53.0010
 0.8150	53.0140
 0.8160	53.0130
 0.8170	53.0170
 0.8180	53.0360
 0.8190	53.0530
 0.8200	53.0470
 0.8210	53.0460
 0.8220	53.0600
 0.8230	53.0820
 0.8240	53.0980
 0.8250	53.0950
 0.8260	53.0840
 0.8270	53.0750
 0.8280	53.0700
 0.8290	53.0880
 0.8300	53.1100
 0.8310	53.1160
 0.8320	53.1020
 0.8330	53.0910
 0.8340	53.0870
 0.8350	53.0860
 0.8360	53.1110
 0.8370	53.1270
 0.8380	53.1240
 0.8390	53.1130
 0.8400	53.1080
 0.8410	53.1190
 0.8420	53.1390
 0.8430	53.1490
 0.8440	53.1440
 0.8450	53.1510
 0.8460	53.1790
 0.8470	53.1810
 0.8480	53.2020
 0.8490	53.2160
 0.8500	53.1940
 0.8510	53.2040
 0.8520	53.2100
 0.8530	53.1980
 0.8540	53.1810
 0.8550	53.2080
 0.8560	53.2420
 0.8570	53.2470
 0.8580	53.2070
 0.8590	53.2090
 0.8600	53.2230
 0.8610	53.2230
 0.8620	53.2300
 0.8630	53.2440
 0.8640	53.2480
 0.8650	53.2340
 0.8660	53.2310
 0.8670	53.2420
 0.8680	53.2570
 0.8690	53.2640
 0.8700	53.2650
 0.8710	53.2630
 0.8720	53.2620
 0.8730	53.2640
 0.8740	53.2530
 0.8750	53.2510
 0.8760	53.2630
 0.8770	53.2810
 0.8780	53.2860
 0.8790	53.2710
 0.8800	53.2490
 0.8810	53.2650
 0.8820	53.2620
 0.8830	53.2630
 0.8840	53.2780
 0.8850	53.2580
 0.8860	53.2250
 0.8870	53.2000
 0.8880	53.1990
 0.8890	53.2040
 0.8900	53.2050
 0.8910	53.1950
 0.8920	53.1740
 0.8930	53.1570
 0.8940	53.1620
 0.8950	53.1770
 0.8960	53.1710
 0.8970	53.1320
 0.8980	53.1040
 0.8990	53.1080
 0.9000	53.1280
 0.9010	53.1180
 0.9020	53.0890
 0.9030	53.0590
 0.9040	53.0480
 0.9050	53.0590
 0.9060	53.0580
 0.9070	53.0270
 0.9080	52.9830
 0.9090	52.9700
 0.9100	52.9820
 0.9110	52.9910
 0.9120	52.9510
 0.9130	52.9330
 0.9140	52.9310
 0.9150	52.9250
 0.9160	52.9350
 0.9170	52.9200
 0.9180	52.8800
 0.9190	52.8420
 0.9200	52.8380
 0.9210	52.8250
 0.9220	52.8000
 0.9230	52.7790
 0.9240	52.7460
 0.9250	52.7430
 0.9260	52.7540
 0.9270	52.7260
 0.9280	52.7150
 0.9290	52.7020
 0.9300	52.6650
 0.9310	52.5970
 0.9320	52.5510
 0.9330	52.5230
 0.9340	52.4900
 0.9350	52.4280
 0.9360	52.4040
 0.9370	52.3750
 0.9380	52.3240
 0.9390	52.2970
 0.9400	52.2760
 0.9410	52.2250
 0.9420	52.1460
 0.9430	52.1120
 0.9440	52.0880
 0.9450	52.0390
 0.9460	51.9550
 0.9470	51.8630
 0.9480	51.7820
 0.9490	51.7140
 0.9500	51.6520
 0.9510	51.5850
 0.9520	51.4850
 0.9530	51.3850
 0.9540	51.3080
 0.9550	51.2050
 0.9560	51.0890
 0.9570	50.9640
 0.9580	50.8360
 0.9590	50.7280
 0.9600	50.6640
 0.9610	50.6020
 0.9620	50.5070
 0.9630	50.4500
 0.9640	50.3910
 0.9650	50.3190
 0.9660	50.2460
 0.9670	50.1980
 0.9680	50.1730
 0.9690	50.1600
 0.9700	50.1430
 0.9710	50.0910
 0.9720	50.0830
 0.9730	50.0900
 0.9740	50.0510
 0.9750	50.0310
 0.9760	50.0250
 0.9770	50.0360
 0.9780	50.0590
 0.9790	50.0560
 0.9800	50.0270
 0.9810	49.9950
 0.9820	49.9960
 0.9830	50.0650
 0.9840	50.0900
 0.9850	50.0810
 0.9860	50.0980
 0.9870	50.0980
 0.9880	50.1240
 0.9890	50.1670
 0.9900	50.2000
 0.9910	50.2360
 0.9920	50.2810
 0.9930	50.3250
 0.9940	50.3700
 0.9950	50.4140
 0.9960	50.4580
 0.9970	50.5030
 0.9980	50.5470
 0.9990	50.5920
 1.0000	50.6360
 1.0010	50.6800
 1.0020	50.7250
 1.0030	50.7690
 1.0040	50.8140
 1.0050	50.8580
 1.0060	50.9030
 1.0070	50.9470
 1.0080	50.9910
 1.0090	51.0360
 1.0100	51.0360
 1.0110	51.0830
 1.0120	51.1280
 1.0130	51.1570
 1.0140	51.1970
 1.0150	51.2430
 1.0160	51.3010
 1.0170	51.3480
 1.0180	51.3940
 1.0190	51.4450
 1.0200	51.4830
 1.0210	51.5100
 1.0220	51.5430
 1.0230	51.5740
 1.0240	51.5990
 1.0250	51.6260
 1.0260	51.6560
 1.0270	51.6850
 1.0280	51.7030
 1.0290	51.7360
 1.0300	51.7780
 1.0310	51.8200
 1.0320	51.8620
 1.0330	51.9210
 1.0340	51.9690
 1.0350	52.0050
 1.0360	52.0390
 1.0370	52.0530
 1.0380	52.0730
 1.0390	52.0800
 1.0400	52.1020
 1.0410	52.1380
 1.0420	52.1590
 1.0430	52.1780
 1.0440	52.1980
 1.0450	52.2080
 1.0460	52.2240
 1.0470	52.2510
 1.0480	52.2670
 1.0490	52.2670
 1.0500	52.2780
 1.0510	52.2860
 1.0520	52.3040
 1.0530	52.3220
 1.0540	52.3510
 1.0550	52.3690
 1.0560	52.3820
 1.0570	52.3990
 1.0580	52.4200
 1.0590	52.4350
 1.0600	52.4500
 1.0610	52.4610
 1.0620	52.4630
 1.0630	52.4710
 1.0640	52.4800
 1.0650	52.4910
 1.0660	52.5100
 1.0670	52.5210
 1.0680	52.5290
 1.0690	52.5350
 1.0700	52.5380
 1.0710	52.5380
 1.0720	52.5350
 1.0730	52.5270
 1.0740	52.5250
 1.0750	52.5210
 1.0760	52.5170
 1.0770	52.5200
 1.0780	52.5160
 1.0790	52.5070
 1.0800	52.4970
 1.0810	52.4790
 1.0820	52.4720
 1.0830	52.4740
 1.0840	52.4670
 1.0850	52.4610
 1.0860	52.4580
 1.0870	52.4500
 1.0880	52.4310
 1.0890	52.4220
 1.0900	52.4180
 1.0910	52.4090
 1.0920	52.3990
 1.0930	52.3880
 1.0940	52.3770
 1.0950	52.3630
 1.0960	52.3430
 1.0970	52.3260
 1.0980	52.3120
 1.0990	52.2900
 1.1000	52.2670
 1.1010	52.2420
 1.1020	52.2150
 1.1030	52.1790
 1.1040	52.1370
 1.1050	52.1060
 1.1060	52.0760
 1.1070	52.0470
 1.1080	52.0190
 1.1090	52.0010
 1.1100	51.9710
 1.1110	51.9380
 1.1120	51.8960
 1.1130	51.8470
 1.1140	51.7990
 1.1150	51.7450
 1.1160	51.6920
 1.1170	51.6420
 1.1180	51.5830
 1.1190	51.5150
 1.1200	51.4510
 1.1210	51.3750
 1.1220	51.2980
 1.1230	51.2210
 1.1240	51.1350
 1.1250	51.0450
 1.1260	50.9540
 1.1270	50.8480
 1.1280	50.7290
 1.1290	50.6110
 1.1300	50.4880
 1.1310	50.3590
 1.1320	50.2290
 1.1330	50.0890
 1.1340	49.9450
 1.1350	49.7830
 1.1360	49.6090
 1.1370	49.4320
 1.1380	49.2410
 1.1390	49.0370
 1.1400	48.8330
 1.1410	48.6220
 1.1420	48.3970
 1.1430	48.1740
 1.1440	47.9480
 1.1450	47.7110
 1.1460	47.4870
 1.1470	47.2680
 1.1480	47.0470
 1.1490	46.8260
 1.1500	46.6160
 1.1510	46.4020
 1.1520	46.2060
 1.1530	46.0240
 1.1540	45.8520
 1.1550	45.6880
 1.1560	45.5370
 1.1570	45.4050
 1.1580	45.2840
 1.1590	45.1790
 1.1600	45.0860
 1.1610	44.9960
 1.1620	44.9150
 1.1630	44.8400
 1.1640	44.7710
 1.1650	44.7090
 1.1660	44.6530
 1.1670	44.6070
 1.1680	44.5720
 1.1690	44.5350
 1.1700	44.5050
 1.1710	44.4750
 1.1720	44.4460
 1.1730	44.4160
 1.1740	44.3900
 1.1750	44.3610
 1.1760	44.3330
 1.1770	44.3010
 1.1780	44.2650
 1.1790	44.2270
 1.1800	44.1890
 1.1810	44.1530
 1.1820	44.1170
 1.1830	44.0840
 1.1840	44.0480
 1.1850	44.0100
 1.1860	43.9720
 1.1870	43.9380
 1.1880	43.9080
 1.1890	43.8840
 1.1900	43.8530
 1.1910	43.8200
 1.1920	43.7930
 1.1930	43.7600
 1.1940	43.7370
 1.1950	43.7260
 1.1960	43.7100
 1.1970	43.6950
 1.1980	43.6850
 1.1990	43.6760
 1.2000	43.6740
 1.2010	43.6760
 1.2020	43.6780
 1.2030	43.6860
 1.2040	43.6980
 1.2050	43.7190
 1.2060	43.7460
 1.2070	43.7780
 1.2080	43.8180
 1.2090	43.8540
 1.2100	43.8900
 1.2110	43.9340
 1.2120	43.9830
 1.2130	44.0320
 1.2140	44.0870
 1.2150	44.1450
 1.2160	44.2030
 1.2170	44.2660
 1.2180	44.3370
 1.2190	44.4150
 1.2200	44.4940
 1.2210	44.5720
 1.2220	44.6460
 1.2230	44.7200
 1.2240	44.7900
 1.2250	44.8560
 1.2260	44.9250
 1.2270	44.9890
 1.2280	45.0540
 1.2290	45.1210
 1.2300	45.1780
 1.2310	45.2350
 1.2320	45.2910
 1.2330	45.3450
 1.2340	45.3980
 1.2350	45.4540
 1.2360	45.5050
 1.2370	45.5540
 1.2380	45.5970
 1.2390	45.6400
 1.2400	45.6860
 1.2410	45.7280
 1.2420	45.7700
 1.2430	45.8130
 1.2440	45.8510
 1.2450	45.8920
 1.2460	45.9380
 1.2470	45.9790
 1.2480	46.0120
 1.2490	46.0420
 1.2500	46.0670
 1.2510	46.0900
 1.2520	46.1140
 1.2530	46.1330
 1.2540	46.1540
 1.2550	46.1740
 1.2560	46.1920
 1.2570	46.2130
 1.2580	46.2330
 1.2590	46.2500
 1.2600	46.2650
 1.2610	46.2800
 1.2620	46.2930
 1.2630	46.3050
 1.2640	46.3140
 1.2650	46.3180
 1.2660	46.3180
 1.2670	46.3200
 1.2680	46.3170
 1.2690	46.3110
 1.2700	46.3100
 1.2710	46.3040
 1.2720	46.2970
 1.2730	46.2950
 1.2740	46.2870
 1.2750	46.2760
 1.2760	46.2650
 1.2770	46.2470
 1.2780	46.2310
 1.2790	46.2140
 1.2800	46.1860
 1.2810	46.1620
 1.2820	46.1380
 1.2830	46.1110
 1.2840	46.0870
 1.2850	46.0670
 1.2860	46.0420
 1.2870	46.0120
 1.2880	45.9760
 1.2890	45.9370
 1.2900	45.8910
 1.2910	45.8400
 1.2920	45.7900
 1.2930	45.7370
 1.2940	45.6850
 1.2950	45.6310
 1.2960	45.5690
 1.2970	45.5030
 1.2980	45.4340
 1.2990	45.3620
 1.3000	45.2930
 1.3010	45.2190
 1.3020	45.1420
 1.3030	45.0630
 1.3040	44.9740
 1.3050	44.8850
 1.3060	44.7920
 1.3070	44.6900
 1.3080	44.5850
 1.3090	44.4730
 1.3100	44.3590
 1.3110	44.2390
 1.3120	44.1100
 1.3130	43.9770
 1.3140	43.8380
 1.3150	43.6890
 1.3160	43.5420
 1.3170	43.3940
 1.3180	43.2420
 1.3190	43.0880
 1.3200	42.9230
 1.3210	42.7500
 1.3220	42.5750
 1.3230	42.3950
 1.3240	42.2100
 1.3250	42.0220
 1.3260	41.8270
 1.3270	41.6230
 1.3280	41.4180
 1.3290	41.2090
 1.3300	40.9980
 1.3310	40.7860
 1.3320	40.5730
 1.3330	40.3640
 1.3340	40.1570
 1.3350	39.9490
 1.3360	39.7340
 1.3370	39.5140
 1.3380	39.2970
 1.3390	39.0770
 1.3400	38.8600
 1.3410	38.6460
 1.3420	38.4300
 1.3430	38.2170
 1.3440	38.0030
 1.3450	37.7940
 1.3460	37.5880
 1.3470	37.3870
 1.3480	37.1910
 1.3490	36.9950
 1.3500	36.8040
 1.3510	36.6080
 1.3520	36.4120
 1.3530	36.2230
 1.3540	36.0340
 1.3550	35.8460
 1.3560	35.6590
 1.3570	35.4700
 1.3580	35.2800
 1.3590	35.0890
 1.3600	34.8950
 1.3610	34.6990
 1.3620	34.4970
 1.3630	34.2870
 1.3640	34.0730
 1.3650	33.8500
 1.3660	33.6240
 1.3670	33.3910
 1.3680	33.1440
 1.3690	32.8880
 1.3700	32.6140
 1.3710	32.3240
 1.3720	32.0250
 1.3730	31.7090
 1.3740	31.3760
 1.3750	31.0290
 1.3760	30.6620
 1.3770	30.2730
 1.3780	29.8630
 1.3790	29.4300
 1.3800	28.9730
 1.3810	28.4940
 1.3820	27.9990
 1.3830	27.4850
 1.3840	26.9560
 1.3850	26.4090
 1.3860	25.8540
 1.3870	25.2800
 1.3880	24.7090
 1.3890	24.1300
 1.3900	23.5480
 1.3910	22.9720
 1.3920	22.3960
 1.3930	21.8250
 1.3940	21.2620
 1.3950	20.7040
 1.3960	20.1590
 1.3970	19.6270
 1.3980	19.1110
 1.3990	18.6160
 1.4000	18.1380
 1.4010	17.6790
 1.4020	17.2420
 1.4030	16.8220
 1.4040	16.4250
 1.4050	16.0500
 1.4060	15.6950
 1.4070	15.3640
 1.4080	15.0550
 1.4090	14.7650
 1.4100	14.4960
 1.4110	14.2460
 1.4120	14.0170
 1.4130	13.8080
 1.4140	13.6160
 1.4150	13.4440
 1.4160	13.2870
 1.4170	13.1380
 1.4180	13.0020
 1.4190	12.8790
 1.4200	12.7670
 1.4210	12.6670
 1.4220	12.5790
 1.4230	12.4990
 1.4240	12.4270
 1.4250	12.3620
 1.4260	12.3050
 1.4270	12.2520
 1.4280	12.2060
 1.4290	12.1650
 1.4300	12.1300
 1.4310	12.0990
 1.4320	12.0740
 1.4330	12.0510
 1.4340	12.0310
 1.4350	12.0160
 1.4360	12.0060
 1.4370	11.9980
 1.4380	11.9930
 1.4390	11.9910
 1.4400	11.9880
 1.4410	11.9880
 1.4420	11.9900
 1.4430	11.9960
 1.4440	12.0050
 1.4450	12.0150
 1.4460	12.0250
 1.4470	12.0340
 1.4480	12.0450
 1.4490	12.0550
 1.4500	12.0660
 1.4510	12.0800
 1.4520	12.0940
 1.4530	12.1080
 1.4540	12.1210
 1.4550	12.1350
 1.4560	12.1510
 1.4570	12.1700
 1.4580	12.1930
 1.4590	12.2170
 1.4600	12.2420
 1.4610	12.2690
 1.4620	12.2970
 1.4630	12.3300
 1.4640	12.3660
 1.4650	12.4040
 1.4660	12.4450
 1.4670	12.4880
 1.4680	12.5320
