Name: Tipuana tipu
Type: vegetation
Class: Tree
Genus: Tipuana
Species: tipu
Sample No.: JPL235
Owner: JPL
Wavelength Range: VSWIR
Origin: 34.13144; -118.1116; WGS84
Collection Date: 10/6/2016
Description: Samples were collected at the Huntington Garden in San Marino California as part of a JPL Subcontract studying HyTES imagery. Samples were taken to JPL and processed within 48 hours of collection. The same leaves were processed in the Nicolet and then measured using the ASD.
Measurement: Bidirectional reflectance
First Column: X
Second Column: Y
X Units: Wavelength (micrometer)
Y Units: Reflectance (percentage)
First X Value: 0.35
Last X Value: 2.5
Number of X Values: 2151
Additional Information: vegetation.tree.tipuana.tipu.vswir.jpl235.jpl.asd.ancillary.txt

 0.3500	 5.9140
 0.3510	 5.9560
 0.3520	 5.8390
 0.3530	 5.7840
 0.3540	 5.9250
 0.3550	 5.8040
 0.3560	 5.7300
 0.3570	 5.7400
 0.3580	 5.7220
 0.3590	 5.7060
 0.3600	 5.6170
 0.3610	 5.5080
 0.3620	 5.6270
 0.3630	 5.6440
 0.3640	 5.5820
 0.3650	 5.5410
 0.3660	 5.5380
 0.3670	 5.5420
 0.3680	 5.5390
 0.3690	 5.5320
 0.3700	 5.4730
 0.3710	 5.4480
 0.3720	 5.4850
 0.3730	 5.4900
 0.3740	 5.4150
 0.3750	 5.3550
 0.3760	 5.4090
 0.3770	 5.4500
 0.3780	 5.4440
 0.3790	 5.4040
 0.3800	 5.3790
 0.3810	 5.3810
 0.3820	 5.3770
 0.3830	 5.3500
 0.3840	 5.3440
 0.3850	 5.3220
 0.3860	 5.3090
 0.3870	 5.3350
 0.3880	 5.3140
 0.3890	 5.2930
 0.3900	 5.2820
 0.3910	 5.2580
 0.3920	 5.3030
 0.3930	 5.3360
 0.3940	 5.3010
 0.3950	 5.2830
 0.3960	 5.2740
 0.3970	 5.2750
 0.3980	 5.2890
 0.3990	 5.3130
 0.4000	 5.3330
 0.4010	 5.3320
 0.4020	 5.2850
 0.4030	 5.3150
 0.4040	 5.3630
 0.4050	 5.3600
 0.4060	 5.3740
 0.4070	 5.3930
 0.4080	 5.4120
 0.4090	 5.4340
 0.4100	 5.4530
 0.4110	 5.4690
 0.4120	 5.4830
 0.4130	 5.5050
 0.4140	 5.5400
 0.4150	 5.5780
 0.4160	 5.6060
 0.4170	 5.6470
 0.4180	 5.6830
 0.4190	 5.7100
 0.4200	 5.7380
 0.4210	 5.7740
 0.4220	 5.8150
 0.4230	 5.8510
 0.4240	 5.8690
 0.4250	 5.8900
 0.4260	 5.9160
 0.4270	 5.9370
 0.4280	 5.9670
 0.4290	 5.9890
 0.4300	 6.0020
 0.4310	 6.0210
 0.4320	 6.0410
 0.4330	 6.0670
 0.4340	 6.0970
 0.4350	 6.1080
 0.4360	 6.1120
 0.4370	 6.1180
 0.4380	 6.1300
 0.4390	 6.1290
 0.4400	 6.1280
 0.4410	 6.1330
 0.4420	 6.1380
 0.4430	 6.1380
 0.4440	 6.1430
 0.4450	 6.1640
 0.4460	 6.1720
 0.4470	 6.1750
 0.4480	 6.1790
 0.4490	 6.1870
 0.4500	 6.1900
 0.4510	 6.1940
 0.4520	 6.2060
 0.4530	 6.2140
 0.4540	 6.2170
 0.4550	 6.2190
 0.4560	 6.2260
 0.4570	 6.2190
 0.4580	 6.2150
 0.4590	 6.2210
 0.4600	 6.2220
 0.4610	 6.2160
 0.4620	 6.2080
 0.4630	 6.2020
 0.4640	 6.2000
 0.4650	 6.1970
 0.4660	 6.1900
 0.4670	 6.1810
 0.4680	 6.1780
 0.4690	 6.1740
 0.4700	 6.1630
 0.4710	 6.1560
 0.4720	 6.1530
 0.4730	 6.1520
 0.4740	 6.1460
 0.4750	 6.1380
 0.4760	 6.1340
 0.4770	 6.1350
 0.4780	 6.1310
 0.4790	 6.1260
 0.4800	 6.1250
 0.4810	 6.1290
 0.4820	 6.1260
 0.4830	 6.1200
 0.4840	 6.1180
 0.4850	 6.1220
 0.4860	 6.1230
 0.4870	 6.1250
 0.4880	 6.1310
 0.4890	 6.1300
 0.4900	 6.1310
 0.4910	 6.1330
 0.4920	 6.1350
 0.4930	 6.1420
 0.4940	 6.1550
 0.4950	 6.1700
 0.4960	 6.1790
 0.4970	 6.1870
 0.4980	 6.1990
 0.4990	 6.2180
 0.5000	 6.2440
 0.5010	 6.2700
 0.5020	 6.2930
 0.5030	 6.3220
 0.5040	 6.3570
 0.5050	 6.3940
 0.5060	 6.4320
 0.5070	 6.4770
 0.5080	 6.5330
 0.5090	 6.5950
 0.5100	 6.6570
 0.5110	 6.7330
 0.5120	 6.8140
 0.5130	 6.8990
 0.5140	 6.9920
 0.5150	 7.0960
 0.5160	 7.2070
 0.5170	 7.3240
 0.5180	 7.4480
 0.5190	 7.5850
 0.5200	 7.7300
 0.5210	 7.8760
 0.5220	 8.0250
 0.5230	 8.1770
 0.5240	 8.3300
 0.5250	 8.4820
 0.5260	 8.6240
 0.5270	 8.7590
 0.5280	 8.8920
 0.5290	 9.0170
 0.5300	 9.1310
 0.5310	 9.2340
 0.5320	 9.3300
 0.5330	 9.4140
 0.5340	 9.4870
 0.5350	 9.5550
 0.5360	 9.6140
 0.5370	 9.6640
 0.5380	 9.7070
 0.5390	 9.7480
 0.5400	 9.7930
 0.5410	 9.8430
 0.5420	 9.8940
 0.5430	 9.9320
 0.5440	 9.9580
 0.5450	 9.9700
 0.5460	 9.9670
 0.5470	 9.9530
 0.5480	 9.9410
 0.5490	 9.9370
 0.5500	 9.9370
 0.5510	 9.9340
 0.5520	 9.9220
 0.5530	 9.8990
 0.5540	 9.8670
 0.5550	 9.8250
 0.5560	 9.7740
 0.5570	 9.7140
 0.5580	 9.6450
 0.5590	 9.5670
 0.5600	 9.4800
 0.5610	 9.3870
 0.5620	 9.2880
 0.5630	 9.1830
 0.5640	 9.0740
 0.5650	 8.9660
 0.5660	 8.8560
 0.5670	 8.7420
 0.5680	 8.6260
 0.5690	 8.5080
 0.5700	 8.3920
 0.5710	 8.2820
 0.5720	 8.1770
 0.5730	 8.0760
 0.5740	 7.9790
 0.5750	 7.8870
 0.5760	 7.8060
 0.5770	 7.7290
 0.5780	 7.6550
 0.5790	 7.5910
 0.5800	 7.5310
 0.5810	 7.4740
 0.5820	 7.4190
 0.5830	 7.3700
 0.5840	 7.3220
 0.5850	 7.2750
 0.5860	 7.2300
 0.5870	 7.1890
 0.5880	 7.1520
 0.5890	 7.1160
 0.5900	 7.0790
 0.5910	 7.0460
 0.5920	 7.0180
 0.5930	 6.9900
 0.5940	 6.9650
 0.5950	 6.9400
 0.5960	 6.9160
 0.5970	 6.8960
 0.5980	 6.8780
 0.5990	 6.8610
 0.6000	 6.8420
 0.6010	 6.8180
 0.6020	 6.7910
 0.6030	 6.7630
 0.6040	 6.7350
 0.6050	 6.7000
 0.6060	 6.6620
 0.6070	 6.6260
 0.6080	 6.5870
 0.6090	 6.5520
 0.6100	 6.5270
 0.6110	 6.5120
 0.6120	 6.4710
 0.6130	 6.4160
 0.6140	 6.3600
 0.6150	 6.3120
 0.6160	 6.2680
 0.6170	 6.2290
 0.6180	 6.1970
 0.6190	 6.1640
 0.6200	 6.1370
 0.6210	 6.1130
 0.6220	 6.0880
 0.6230	 6.0660
 0.6240	 6.0470
 0.6250	 6.0290
 0.6260	 6.0130
 0.6270	 6.0000
 0.6280	 5.9890
 0.6290	 5.9800
 0.6300	 5.9720
 0.6310	 5.9630
 0.6320	 5.9510
 0.6330	 5.9350
 0.6340	 5.9180
 0.6350	 5.8990
 0.6360	 5.8770
 0.6370	 5.8530
 0.6380	 5.8240
 0.6390	 5.7920
 0.6400	 5.7610
 0.6410	 5.7290
 0.6420	 5.6960
 0.6430	 5.6630
 0.6440	 5.6320
 0.6450	 5.6000
 0.6460	 5.5690
 0.6470	 5.5420
 0.6480	 5.5170
 0.6490	 5.4940
 0.6500	 5.4730
 0.6510	 5.4550
 0.6520	 5.4430
 0.6530	 5.4310
 0.6540	 5.4150
 0.6550	 5.4020
 0.6560	 5.3880
 0.6570	 5.3730
 0.6580	 5.3560
 0.6590	 5.3400
 0.6600	 5.3230
 0.6610	 5.3060
 0.6620	 5.2900
 0.6630	 5.2760
 0.6640	 5.2640
 0.6650	 5.2550
 0.6660	 5.2490
 0.6670	 5.2460
 0.6680	 5.2470
 0.6690	 5.2510
 0.6700	 5.2580
 0.6710	 5.2690
 0.6720	 5.2830
 0.6730	 5.3060
 0.6740	 5.3310
 0.6750	 5.3580
 0.6760	 5.3880
 0.6770	 5.4220
 0.6780	 5.4600
 0.6790	 5.5030
 0.6800	 5.5480
 0.6810	 5.5960
 0.6820	 5.6460
 0.6830	 5.6980
 0.6840	 5.7470
 0.6850	 5.7950
 0.6860	 5.8430
 0.6870	 5.8930
 0.6880	 5.9510
 0.6890	 6.0170
 0.6900	 6.0930
 0.6910	 6.1890
 0.6920	 6.3070
 0.6930	 6.4560
 0.6940	 6.6410
 0.6950	 6.8710
 0.6960	 7.1460
 0.6970	 7.4710
 0.6980	 7.8490
 0.6990	 8.2790
 0.7000	 8.7630
 0.7010	 9.2990
 0.7020	 9.8790
 0.7030	10.5010
 0.7040	11.1610
 0.7050	11.8550
 0.7060	12.5780
 0.7070	13.3280
 0.7080	14.1030
 0.7090	14.9010
 0.7100	15.7250
 0.7110	16.5710
 0.7120	17.4360
 0.7130	18.3210
 0.7140	19.2240
 0.7150	20.1430
 0.7160	21.0750
 0.7170	22.0180
 0.7180	22.9700
 0.7190	23.9290
 0.7200	24.8930
 0.7210	25.8550
 0.7220	26.8100
 0.7230	27.7570
 0.7240	28.6920
 0.7250	29.6110
 0.7260	30.5120
 0.7270	31.3940
 0.7280	32.2520
 0.7290	33.0830
 0.7300	33.8860
 0.7310	34.6590
 0.7320	35.4010
 0.7330	36.1110
 0.7340	36.7860
 0.7350	37.4280
 0.7360	38.0370
 0.7370	38.6120
 0.7380	39.1550
 0.7390	39.6660
 0.7400	40.1430
 0.7410	40.5870
 0.7420	41.0000
 0.7430	41.3840
 0.7440	41.7390
 0.7450	42.0630
 0.7460	42.3580
 0.7470	42.6310
 0.7480	42.8800
 0.7490	43.1030
 0.7500	43.3060
 0.7510	43.4890
 0.7520	43.6550
 0.7530	43.8050
 0.7540	43.9380
 0.7550	44.0570
 0.7560	44.1660
 0.7570	44.2620
 0.7580	44.3500
 0.7590	44.4280
 0.7600	44.4970
 0.7610	44.5600
 0.7620	44.6100
 0.7630	44.6540
 0.7640	44.6970
 0.7650	44.7330
 0.7660	44.7620
 0.7670	44.7860
 0.7680	44.8070
 0.7690	44.8260
 0.7700	44.8430
 0.7710	44.8570
 0.7720	44.8660
 0.7730	44.8760
 0.7740	44.8850
 0.7750	44.8910
 0.7760	44.8970
 0.7770	44.9020
 0.7780	44.9070
 0.7790	44.9140
 0.7800	44.9170
 0.7810	44.9200
 0.7820	44.9240
 0.7830	44.9260
 0.7840	44.9290
 0.7850	44.9310
 0.7860	44.9310
 0.7870	44.9300
 0.7880	44.9290
 0.7890	44.9270
 0.7900	44.9250
 0.7910	44.9200
 0.7920	44.9150
 0.7930	44.9120
 0.7940	44.9090
 0.7950	44.9030
 0.7960	44.8960
 0.7970	44.8880
 0.7980	44.8790
 0.7990	44.8690
 0.8000	44.8590
 0.8010	44.8470
 0.8020	44.8390
 0.8030	44.8300
 0.8040	44.8190
 0.8050	44.8060
 0.8060	44.7890
 0.8070	44.7730
 0.8080	44.7600
 0.8090	44.7460
 0.8100	44.7300
 0.8110	44.7140
 0.8120	44.6980
 0.8130	44.6790
 0.8140	44.6650
 0.8150	44.6490
 0.8160	44.6280
 0.8170	44.6130
 0.8180	44.5980
 0.8190	44.5790
 0.8200	44.5610
 0.8210	44.5480
 0.8220	44.5330
 0.8230	44.5150
 0.8240	44.4970
 0.8250	44.4800
 0.8260	44.4640
 0.8270	44.4480
 0.8280	44.4340
 0.8290	44.4180
 0.8300	44.4030
 0.8310	44.3910
 0.8320	44.3750
 0.8330	44.3610
 0.8340	44.3480
 0.8350	44.3350
 0.8360	44.3260
 0.8370	44.3160
 0.8380	44.3050
 0.8390	44.2960
 0.8400	44.2880
 0.8410	44.2810
 0.8420	44.2760
 0.8430	44.2680
 0.8440	44.2630
 0.8450	44.2590
 0.8460	44.2530
 0.8470	44.2460
 0.8480	44.2460
 0.8490	44.2450
 0.8500	44.2370
 0.8510	44.2310
 0.8520	44.2290
 0.8530	44.2290
 0.8540	44.2250
 0.8550	44.2280
 0.8560	44.2320
 0.8570	44.2330
 0.8580	44.2300
 0.8590	44.2300
 0.8600	44.2320
 0.8610	44.2360
 0.8620	44.2400
 0.8630	44.2430
 0.8640	44.2470
 0.8650	44.2500
 0.8660	44.2520
 0.8670	44.2570
 0.8680	44.2620
 0.8690	44.2640
 0.8700	44.2700
 0.8710	44.2770
 0.8720	44.2860
 0.8730	44.2930
 0.8740	44.2970
 0.8750	44.3030
 0.8760	44.3110
 0.8770	44.3170
 0.8780	44.3260
 0.8790	44.3350
 0.8800	44.3410
 0.8810	44.3450
 0.8820	44.3480
 0.8830	44.3560
 0.8840	44.3700
 0.8850	44.3790
 0.8860	44.3810
 0.8870	44.3850
 0.8880	44.3970
 0.8890	44.4060
 0.8900	44.4110
 0.8910	44.4150
 0.8920	44.4220
 0.8930	44.4280
 0.8940	44.4360
 0.8950	44.4440
 0.8960	44.4510
 0.8970	44.4580
 0.8980	44.4630
 0.8990	44.4690
 0.9000	44.4770
 0.9010	44.4860
 0.9020	44.4900
 0.9030	44.4890
 0.9040	44.4980
 0.9050	44.5070
 0.9060	44.5140
 0.9070	44.5190
 0.9080	44.5260
 0.9090	44.5290
 0.9100	44.5270
 0.9110	44.5260
 0.9120	44.5400
 0.9130	44.5420
 0.9140	44.5360
 0.9150	44.5350
 0.9160	44.5500
 0.9170	44.5540
 0.9180	44.5500
 0.9190	44.5480
 0.9200	44.5480
 0.9210	44.5470
 0.9220	44.5420
 0.9230	44.5330
 0.9240	44.5300
 0.9250	44.5280
 0.9260	44.5220
 0.9270	44.5120
 0.9280	44.5010
 0.9290	44.4860
 0.9300	44.4700
 0.9310	44.4650
 0.9320	44.4590
 0.9330	44.4460
 0.9340	44.4290
 0.9350	44.4170
 0.9360	44.3990
 0.9370	44.3830
 0.9380	44.3730
 0.9390	44.3520
 0.9400	44.3290
 0.9410	44.3080
 0.9420	44.2880
 0.9430	44.2680
 0.9440	44.2450
 0.9450	44.2190
 0.9460	44.1930
 0.9470	44.1640
 0.9480	44.1370
 0.9490	44.1030
 0.9500	44.0620
 0.9510	44.0360
 0.9520	44.0010
 0.9530	43.9650
 0.9540	43.9390
 0.9550	43.8980
 0.9560	43.8520
 0.9570	43.8080
 0.9580	43.7710
 0.9590	43.7460
 0.9600	43.7210
 0.9610	43.6930
 0.9620	43.6630
 0.9630	43.6390
 0.9640	43.6200
 0.9650	43.6040
 0.9660	43.5870
 0.9670	43.5550
 0.9680	43.5370
 0.9690	43.5280
 0.9700	43.5120
 0.9710	43.4900
 0.9720	43.4780
 0.9730	43.4700
 0.9740	43.4520
 0.9750	43.4530
 0.9760	43.4520
 0.9770	43.4410
 0.9780	43.4240
 0.9790	43.4200
 0.9800	43.4200
 0.9810	43.4200
 0.9820	43.4180
 0.9830	43.4080
 0.9840	43.4010
 0.9850	43.4000
 0.9860	43.4020
 0.9870	43.3890
 0.9880	43.3770
 0.9890	43.3770
 0.9900	43.3900
 0.9910	43.4000
 0.9920	43.4010
 0.9930	43.3950
 0.9940	43.3910
 0.9950	43.4000
 0.9960	43.4100
 0.9970	43.4130
 0.9980	43.4080
 0.9990	43.3960
 1.0000	43.4090
 1.0010	44.2920
 1.0020	44.2960
 1.0030	44.3010
 1.0040	44.3090
 1.0050	44.3130
 1.0060	44.3170
 1.0070	44.3240
 1.0080	44.3290
 1.0090	44.3290
 1.0100	44.3330
 1.0110	44.3370
 1.0120	44.3430
 1.0130	44.3540
 1.0140	44.3580
 1.0150	44.3620
 1.0160	44.3620
 1.0170	44.3630
 1.0180	44.3650
 1.0190	44.3680
 1.0200	44.3740
 1.0210	44.3800
 1.0220	44.3840
 1.0230	44.3890
 1.0240	44.3960
 1.0250	44.4020
 1.0260	44.4070
 1.0270	44.4120
 1.0280	44.4170
 1.0290	44.4230
 1.0300	44.4290
 1.0310	44.4340
 1.0320	44.4380
 1.0330	44.4450
 1.0340	44.4520
 1.0350	44.4570
 1.0360	44.4600
 1.0370	44.4610
 1.0380	44.4630
 1.0390	44.4620
 1.0400	44.4660
 1.0410	44.4750
 1.0420	44.4800
 1.0430	44.4880
 1.0440	44.4920
 1.0450	44.4950
 1.0460	44.4980
 1.0470	44.5000
 1.0480	44.5020
 1.0490	44.5060
 1.0500	44.5070
 1.0510	44.5040
 1.0520	44.5050
 1.0530	44.5060
 1.0540	44.5070
 1.0550	44.5090
 1.0560	44.5150
 1.0570	44.5170
 1.0580	44.5160
 1.0590	44.5180
 1.0600	44.5220
 1.0610	44.5230
 1.0620	44.5250
 1.0630	44.5250
 1.0640	44.5190
 1.0650	44.5170
 1.0660	44.5170
 1.0670	44.5150
 1.0680	44.5130
 1.0690	44.5110
 1.0700	44.5090
 1.0710	44.5060
 1.0720	44.5020
 1.0730	44.4990
 1.0740	44.4950
 1.0750	44.4900
 1.0760	44.4860
 1.0770	44.4820
 1.0780	44.4790
 1.0790	44.4790
 1.0800	44.4770
 1.0810	44.4760
 1.0820	44.4730
 1.0830	44.4650
 1.0840	44.4600
 1.0850	44.4570
 1.0860	44.4530
 1.0870	44.4470
 1.0880	44.4430
 1.0890	44.4370
 1.0900	44.4270
 1.0910	44.4220
 1.0920	44.4200
 1.0930	44.4150
 1.0940	44.4110
 1.0950	44.4030
 1.0960	44.3890
 1.0970	44.3800
 1.0980	44.3740
 1.0990	44.3660
 1.1000	44.3600
 1.1010	44.3550
 1.1020	44.3490
 1.1030	44.3430
 1.1040	44.3330
 1.1050	44.3260
 1.1060	44.3190
 1.1070	44.3100
 1.1080	44.3030
 1.1090	44.3010
 1.1100	44.2930
 1.1110	44.2810
 1.1120	44.2720
 1.1130	44.2620
 1.1140	44.2510
 1.1150	44.2420
 1.1160	44.2290
 1.1170	44.2140
 1.1180	44.1990
 1.1190	44.1820
 1.1200	44.1650
 1.1210	44.1470
 1.1220	44.1290
 1.1230	44.1100
 1.1240	44.0870
 1.1250	44.0620
 1.1260	44.0350
 1.1270	44.0040
 1.1280	43.9700
 1.1290	43.9340
 1.1300	43.8960
 1.1310	43.8520
 1.1320	43.8050
 1.1330	43.7530
 1.1340	43.6960
 1.1350	43.6360
 1.1360	43.5690
 1.1370	43.5010
 1.1380	43.4320
 1.1390	43.3580
 1.1400	43.2830
 1.1410	43.2070
 1.1420	43.1280
 1.1430	43.0470
 1.1440	42.9660
 1.1450	42.8820
 1.1460	42.8010
 1.1470	42.7190
 1.1480	42.6430
 1.1490	42.5680
 1.1500	42.4980
 1.1510	42.4310
 1.1520	42.3670
 1.1530	42.3080
 1.1540	42.2510
 1.1550	42.1980
 1.1560	42.1480
 1.1570	42.1010
 1.1580	42.0580
 1.1590	42.0200
 1.1600	41.9880
 1.1610	41.9590
 1.1620	41.9320
 1.1630	41.9080
 1.1640	41.8850
 1.1650	41.8630
 1.1660	41.8450
 1.1670	41.8260
 1.1680	41.8090
 1.1690	41.7930
 1.1700	41.7760
 1.1710	41.7620
 1.1720	41.7520
 1.1730	41.7390
 1.1740	41.7260
 1.1750	41.7140
 1.1760	41.7000
 1.1770	41.6860
 1.1780	41.6730
 1.1790	41.6600
 1.1800	41.6480
 1.1810	41.6350
 1.1820	41.6200
 1.1830	41.6040
 1.1840	41.5900
 1.1850	41.5770
 1.1860	41.5650
 1.1870	41.5560
 1.1880	41.5440
 1.1890	41.5300
 1.1900	41.5200
 1.1910	41.5080
 1.1920	41.4990
 1.1930	41.4920
 1.1940	41.4850
 1.1950	41.4790
 1.1960	41.4740
 1.1970	41.4690
 1.1980	41.4660
 1.1990	41.4630
 1.2000	41.4610
 1.2010	41.4600
 1.2020	41.4610
 1.2030	41.4600
 1.2040	41.4600
 1.2050	41.4590
 1.2060	41.4600
 1.2070	41.4640
 1.2080	41.4690
 1.2090	41.4740
 1.2100	41.4790
 1.2110	41.4850
 1.2120	41.4910
 1.2130	41.4980
 1.2140	41.5060
 1.2150	41.5140
 1.2160	41.5210
 1.2170	41.5280
 1.2180	41.5370
 1.2190	41.5450
 1.2200	41.5570
 1.2210	41.5700
 1.2220	41.5820
 1.2230	41.5940
 1.2240	41.6060
 1.2250	41.6160
 1.2260	41.6260
 1.2270	41.6400
 1.2280	41.6520
 1.2290	41.6610
 1.2300	41.6720
 1.2310	41.6810
 1.2320	41.6880
 1.2330	41.6980
 1.2340	41.7060
 1.2350	41.7110
 1.2360	41.7180
 1.2370	41.7240
 1.2380	41.7290
 1.2390	41.7360
 1.2400	41.7430
 1.2410	41.7500
 1.2420	41.7550
 1.2430	41.7590
 1.2440	41.7630
 1.2450	41.7660
 1.2460	41.7710
 1.2470	41.7780
 1.2480	41.7820
 1.2490	41.7860
 1.2500	41.7880
 1.2510	41.7910
 1.2520	41.7930
 1.2530	41.7940
 1.2540	41.7970
 1.2550	41.7980
 1.2560	41.7960
 1.2570	41.7950
 1.2580	41.7910
 1.2590	41.7880
 1.2600	41.7860
 1.2610	41.7840
 1.2620	41.7820
 1.2630	41.7800
 1.2640	41.7760
 1.2650	41.7700
 1.2660	41.7640
 1.2670	41.7580
 1.2680	41.7530
 1.2690	41.7480
 1.2700	41.7420
 1.2710	41.7340
 1.2720	41.7270
 1.2730	41.7180
 1.2740	41.7080
 1.2750	41.6990
 1.2760	41.6880
 1.2770	41.6780
 1.2780	41.6670
 1.2790	41.6540
 1.2800	41.6400
 1.2810	41.6250
 1.2820	41.6080
 1.2830	41.5910
 1.2840	41.5740
 1.2850	41.5530
 1.2860	41.5330
 1.2870	41.5130
 1.2880	41.4910
 1.2890	41.4670
 1.2900	41.4440
 1.2910	41.4200
 1.2920	41.3920
 1.2930	41.3640
 1.2940	41.3340
 1.2950	41.3020
 1.2960	41.2700
 1.2970	41.2370
 1.2980	41.2040
 1.2990	41.1680
 1.3000	41.1290
 1.3010	41.0910
 1.3020	41.0500
 1.3030	41.0080
 1.3040	40.9660
 1.3050	40.9210
 1.3060	40.8760
 1.3070	40.8300
 1.3080	40.7810
 1.3090	40.7320
 1.3100	40.6820
 1.3110	40.6290
 1.3120	40.5740
 1.3130	40.5170
 1.3140	40.4590
 1.3150	40.4010
 1.3160	40.3400
 1.3170	40.2780
 1.3180	40.2140
 1.3190	40.1500
 1.3200	40.0820
 1.3210	40.0130
 1.3220	39.9430
 1.3230	39.8700
 1.3240	39.7960
 1.3250	39.7210
 1.3260	39.6450
 1.3270	39.5670
 1.3280	39.4880
 1.3290	39.4050
 1.3300	39.3200
 1.3310	39.2350
 1.3320	39.1470
 1.3330	39.0620
 1.3340	38.9760
 1.3350	38.8880
 1.3360	38.8020
 1.3370	38.7130
 1.3380	38.6230
 1.3390	38.5330
 1.3400	38.4430
 1.3410	38.3540
 1.3420	38.2670
 1.3430	38.1810
 1.3440	38.0940
 1.3450	38.0080
 1.3460	37.9230
 1.3470	37.8390
 1.3480	37.7530
 1.3490	37.6690
 1.3500	37.5870
 1.3510	37.5030
 1.3520	37.4200
 1.3530	37.3390
 1.3540	37.2550
 1.3550	37.1710
 1.3560	37.0870
 1.3570	37.0000
 1.3580	36.9130
 1.3590	36.8250
 1.3600	36.7340
 1.3610	36.6420
 1.3620	36.5460
 1.3630	36.4460
 1.3640	36.3400
 1.3650	36.2300
 1.3660	36.1170
 1.3670	35.9980
 1.3680	35.8720
 1.3690	35.7370
 1.3700	35.5890
 1.3710	35.4290
 1.3720	35.2570
 1.3730	35.0710
 1.3740	34.8730
 1.3750	34.6600
 1.3760	34.4300
 1.3770	34.1820
 1.3780	33.9140
 1.3790	33.6270
 1.3800	33.3200
 1.3810	32.9890
 1.3820	32.6400
 1.3830	32.2720
 1.3840	31.8850
 1.3850	31.4790
 1.3860	31.0550
 1.3870	30.6090
 1.3880	30.1540
 1.3890	29.6830
 1.3900	29.1980
 1.3910	28.7090
 1.3920	28.2120
 1.3930	27.7080
 1.3940	27.2030
 1.3950	26.6910
 1.3960	26.1830
 1.3970	25.6800
 1.3980	25.1830
 1.3990	24.7030
 1.4000	24.2320
 1.4010	23.7710
 1.4020	23.3260
 1.4030	22.8930
 1.4040	22.4760
 1.4050	22.0800
 1.4060	21.7000
 1.4070	21.3400
 1.4080	20.9990
 1.4090	20.6740
 1.4100	20.3700
 1.4110	20.0810
 1.4120	19.8100
 1.4130	19.5580
 1.4140	19.3190
 1.4150	19.1000
 1.4160	18.8970
 1.4170	18.7060
 1.4180	18.5290
 1.4190	18.3640
 1.4200	18.2090
 1.4210	18.0660
 1.4220	17.9330
 1.4230	17.8110
 1.4240	17.6990
 1.4250	17.5940
 1.4260	17.4990
 1.4270	17.4100
 1.4280	17.3290
 1.4290	17.2540
 1.4300	17.1870
 1.4310	17.1270
 1.4320	17.0730
 1.4330	17.0240
 1.4340	16.9800
 1.4350	16.9400
 1.4360	16.9050
 1.4370	16.8740
 1.4380	16.8490
 1.4390	16.8270
 1.4400	16.8090
 1.4410	16.7950
 1.4420	16.7840
 1.4430	16.7760
 1.4440	16.7710
 1.4450	16.7680
 1.4460	16.7680
 1.4470	16.7700
 1.4480	16.7750
 1.4490	16.7810
 1.4500	16.7880
 1.4510	16.7960
 1.4520	16.8070
 1.4530	16.8210
 1.4540	16.8360
 1.4550	16.8540
 1.4560	16.8750
 1.4570	16.8990
 1.4580	16.9250
 1.4590	16.9550
 1.4600	16.9890
 1.4610	17.0270
 1.4620	17.0690
 1.4630	17.1160
 1.4640	17.1670
 1.4650	17.2250
 1.4660	17.2870
 1.4670	17.3550
 1.4680	17.4280
 1.4690	17.5060
 1.4700	17.5880
 1.4710	17.6740
 1.4720	17.7620
 1.4730	17.8550
 1.4740	17.9510
 1.4750	18.0500
 1.4760	18.1540
 1.4770	18.2580
 1.4780	18.3650
