Name: Ficus thonningii
Type: vegetation
Class: Tree
Genus: Ficus
Species: thonningii
Sample No.: JPL100
Owner: JPL
Wavelength Range: VSWIR
Origin: 34.12617; - 118.1119; WGS84
Collection Date: 2/2/2016
Description: Samples were collected at the Huntington Garden in San Marino California as part of a JPL Subcontract studying HyTES imagery. Samples were taken to JPL and processed within 48 hours of collection. The same leaves were processed in the Nicolet and then measured using the ASD.
Measurement: Bidirectional reflectance
First Column: X
Second Column: Y
X Units: Wavelength (micrometer)
Y Units: Reflectance (percentage)
First X Value: 0.35
Last X Value: 2.5
Number of X Values: 2151
Additional Information: 

 0.3500	 8.4570
 0.3510	 9.7760
 0.3520	10.1520
 0.3530	 9.7790
 0.3540	 9.2340
 0.3550	 8.6480
 0.3560	 9.0470
 0.3570	 9.5290
 0.3580	 8.6570
 0.3590	 9.0960
 0.3600	 9.5540
 0.3610	 9.5240
 0.3620	10.0220
 0.3630	 9.4530
 0.3640	 9.1710
 0.3650	10.2780
 0.3660	10.2400
 0.3670	 9.6950
 0.3680	 9.3630
 0.3690	 9.8080
 0.3700	 9.3220
 0.3710	 9.1690
 0.3720	 9.8890
 0.3730	10.0250
 0.3740	 9.3950
 0.3750	 8.7940
 0.3760	 9.0280
 0.3770	 9.1350
 0.3780	 9.4820
 0.3790	 9.7500
 0.3800	 9.1340
 0.3810	 8.7900
 0.3820	 8.9710
 0.3830	 9.4900
 0.3840	 9.6850
 0.3850	 9.8650
 0.3860	 9.7170
 0.3870	 8.9850
 0.3880	 8.8330
 0.3890	 9.1550
 0.3900	 9.5220
 0.3910	 9.3210
 0.3920	 9.3150
 0.3930	 9.2590
 0.3940	 8.9870
 0.3950	 9.0230
 0.3960	 9.2820
 0.3970	 9.4420
 0.3980	 9.1980
 0.3990	 9.2160
 0.4000	 9.1540
 0.4010	 9.0080
 0.4020	 9.3260
 0.4030	 9.5080
 0.4040	 9.4500
 0.4050	 9.1970
 0.4060	 8.7490
 0.4070	 8.8070
 0.4080	 9.1890
 0.4090	 9.1740
 0.4100	 9.0990
 0.4110	 8.8880
 0.4120	 8.6500
 0.4130	 8.9470
 0.4140	 9.0520
 0.4150	 9.0270
 0.4160	 9.1200
 0.4170	 9.1900
 0.4180	 9.1750
 0.4190	 9.1200
 0.4200	 9.1560
 0.4210	 9.1440
 0.4220	 9.0940
 0.4230	 9.0780
 0.4240	 9.2760
 0.4250	 9.3040
 0.4260	 9.1800
 0.4270	 9.1130
 0.4280	 9.1480
 0.4290	 9.2050
 0.4300	 9.1980
 0.4310	 9.0490
 0.4320	 9.0310
 0.4330	 9.0290
 0.4340	 8.9150
 0.4350	 8.9140
 0.4360	 8.9010
 0.4370	 8.8720
 0.4380	 8.9110
 0.4390	 8.9720
 0.4400	 9.0000
 0.4410	 8.9940
 0.4420	 9.0970
 0.4430	 9.0300
 0.4440	 8.9480
 0.4450	 9.0830
 0.4460	 9.0260
 0.4470	 8.9870
 0.4480	 9.0370
 0.4490	 9.0240
 0.4500	 9.0620
 0.4510	 9.0930
 0.4520	 9.0630
 0.4530	 9.0690
 0.4540	 9.0520
 0.4550	 9.0290
 0.4560	 9.0550
 0.4570	 9.1170
 0.4580	 9.1150
 0.4590	 9.0250
 0.4600	 8.9630
 0.4610	 9.0050
 0.4620	 9.0770
 0.4630	 9.0720
 0.4640	 9.0500
 0.4650	 9.0710
 0.4660	 9.1010
 0.4670	 9.0280
 0.4680	 8.9810
 0.4690	 8.9910
 0.4700	 9.0360
 0.4710	 9.0130
 0.4720	 9.0000
 0.4730	 9.0410
 0.4740	 9.1390
 0.4750	 9.1350
 0.4760	 9.0800
 0.4770	 9.0310
 0.4780	 9.0090
 0.4790	 9.0300
 0.4800	 9.0660
 0.4810	 9.0850
 0.4820	 9.1030
 0.4830	 9.0510
 0.4840	 8.9750
 0.4850	 9.0160
 0.4860	 9.0850
 0.4870	 9.0810
 0.4880	 8.9880
 0.4890	 9.0070
 0.4900	 9.0950
 0.4910	 9.1370
 0.4920	 9.0310
 0.4930	 9.0560
 0.4940	 9.0650
 0.4950	 9.0100
 0.4960	 9.0350
 0.4970	 9.0600
 0.4980	 9.0840
 0.4990	 9.1210
 0.5000	 9.1340
 0.5010	 9.1680
 0.5020	 9.2150
 0.5030	 9.2290
 0.5040	 9.2120
 0.5050	 9.2090
 0.5060	 9.2370
 0.5070	 9.2290
 0.5080	 9.2500
 0.5090	 9.3100
 0.5100	 9.3860
 0.5110	 9.3880
 0.5120	 9.3830
 0.5130	 9.4200
 0.5140	 9.5070
 0.5150	 9.5820
 0.5160	 9.6410
 0.5170	 9.6940
 0.5180	 9.7500
 0.5190	 9.8110
 0.5200	 9.8880
 0.5210	 9.9990
 0.5220	10.1350
 0.5230	10.2470
 0.5240	10.3210
 0.5250	10.4340
 0.5260	10.5470
 0.5270	10.6550
 0.5280	10.7630
 0.5290	10.8730
 0.5300	10.9730
 0.5310	11.0580
 0.5320	11.1370
 0.5330	11.1970
 0.5340	11.2700
 0.5350	11.3700
 0.5360	11.4050
 0.5370	11.4270
 0.5380	11.4520
 0.5390	11.4730
 0.5400	11.5120
 0.5410	11.5280
 0.5420	11.5000
 0.5430	11.4480
 0.5440	11.4720
 0.5450	11.5460
 0.5460	11.5990
 0.5470	11.6590
 0.5480	11.7050
 0.5490	11.7350
 0.5500	11.7780
 0.5510	11.7690
 0.5520	11.7510
 0.5530	11.7670
 0.5540	11.7590
 0.5550	11.7370
 0.5560	11.7100
 0.5570	11.6830
 0.5580	11.6110
 0.5590	11.5420
 0.5600	11.5020
 0.5610	11.4520
 0.5620	11.3740
 0.5630	11.2920
 0.5640	11.2350
 0.5650	11.1370
 0.5660	11.0610
 0.5670	11.0170
 0.5680	10.9420
 0.5690	10.8340
 0.5700	10.7320
 0.5710	10.6630
 0.5720	10.5810
 0.5730	10.5300
 0.5740	10.4910
 0.5750	10.4080
 0.5760	10.3540
 0.5770	10.3070
 0.5780	10.2500
 0.5790	10.2110
 0.5800	10.1620
 0.5810	10.1230
 0.5820	10.1160
 0.5830	10.0670
 0.5840	10.0260
 0.5850	10.0060
 0.5860	 9.9810
 0.5870	 9.9670
 0.5880	 9.9600
 0.5890	 9.9500
 0.5900	 9.9200
 0.5910	 9.9040
 0.5920	 9.8990
 0.5930	 9.8840
 0.5940	 9.8980
 0.5950	 9.9090
 0.5960	 9.8970
 0.5970	 9.8680
 0.5980	 9.8170
 0.5990	 9.7940
 0.6000	 9.8390
 0.6010	 9.8490
 0.6020	 9.8310
 0.6030	 9.8000
 0.6040	 9.7800
 0.6050	 9.7640
 0.6060	 9.7470
 0.6070	 9.7230
 0.6080	 9.7020
 0.6090	 9.6730
 0.6100	 9.6190
 0.6110	 9.5340
 0.6120	 9.5110
 0.6130	 9.5160
 0.6140	 9.5240
 0.6150	 9.5330
 0.6160	 9.5280
 0.6170	 9.5150
 0.6180	 9.5030
 0.6190	 9.4620
 0.6200	 9.4470
 0.6210	 9.4670
 0.6220	 9.4890
 0.6230	 9.4620
 0.6240	 9.4380
 0.6250	 9.4510
 0.6260	 9.4660
 0.6270	 9.4520
 0.6280	 9.4380
 0.6290	 9.4620
 0.6300	 9.4500
 0.6310	 9.4350
 0.6320	 9.4390
 0.6330	 9.4640
 0.6340	 9.4400
 0.6350	 9.4230
 0.6360	 9.4540
 0.6370	 9.4270
 0.6380	 9.4100
 0.6390	 9.4210
 0.6400	 9.4400
 0.6410	 9.4010
 0.6420	 9.3800
 0.6430	 9.4000
 0.6440	 9.3770
 0.6450	 9.3900
 0.6460	 9.4000
 0.6470	 9.3610
 0.6480	 9.3340
 0.6490	 9.3370
 0.6500	 9.3650
 0.6510	 9.3960
 0.6520	 9.3800
 0.6530	 9.3570
 0.6540	 9.3610
 0.6550	 9.3730
 0.6560	 9.3740
 0.6570	 9.3760
 0.6580	 9.3960
 0.6590	 9.3900
 0.6600	 9.3900
 0.6610	 9.4040
 0.6620	 9.4090
 0.6630	 9.4180
 0.6640	 9.4340
 0.6650	 9.4530
 0.6660	 9.4560
 0.6670	 9.4500
 0.6680	 9.4540
 0.6690	 9.4830
 0.6700	 9.4900
 0.6710	 9.5040
 0.6720	 9.5360
 0.6730	 9.5590
 0.6740	 9.5820
 0.6750	 9.6080
 0.6760	 9.6410
 0.6770	 9.6730
 0.6780	 9.7000
 0.6790	 9.7340
 0.6800	 9.7890
 0.6810	 9.8120
 0.6820	 9.8220
 0.6830	 9.8420
 0.6840	 9.8850
 0.6850	 9.9310
 0.6860	 9.9680
 0.6870	 9.9900
 0.6880	10.0140
 0.6890	10.0350
 0.6900	10.0640
 0.6910	10.1190
 0.6920	10.1810
 0.6930	10.2880
 0.6940	10.4510
 0.6950	10.6260
 0.6960	10.8510
 0.6970	11.1390
 0.6980	11.4880
 0.6990	11.9100
 0.7000	12.4060
 0.7010	12.9650
 0.7020	13.5730
 0.7030	14.2250
 0.7040	14.9340
 0.7050	15.6980
 0.7060	16.4870
 0.7070	17.2980
 0.7080	18.1380
 0.7090	19.0190
 0.7100	19.9350
 0.7110	20.8840
 0.7120	21.8540
 0.7130	22.8340
 0.7140	23.8460
 0.7150	24.8730
 0.7160	25.9030
 0.7170	26.9490
 0.7180	28.0030
 0.7190	29.0710
 0.7200	30.1580
 0.7210	31.2490
 0.7220	32.3250
 0.7230	33.3790
 0.7240	34.4180
 0.7250	35.4610
 0.7260	36.4800
 0.7270	37.4530
 0.7280	38.4050
 0.7290	39.3510
 0.7300	40.2690
 0.7310	41.1280
 0.7320	41.9490
 0.7330	42.7480
 0.7340	43.5180
 0.7350	44.2380
 0.7360	44.9390
 0.7370	45.5990
 0.7380	46.2040
 0.7390	46.7710
 0.7400	47.3220
 0.7410	47.8470
 0.7420	48.3240
 0.7430	48.7320
 0.7440	49.1470
 0.7450	49.5650
 0.7460	49.9080
 0.7470	50.2320
 0.7480	50.5240
 0.7490	50.7760
 0.7500	51.0150
 0.7510	51.2440
 0.7520	51.4480
 0.7530	51.6160
 0.7540	51.8270
 0.7550	51.9850
 0.7560	52.0910
 0.7570	52.2200
 0.7580	52.3300
 0.7590	52.4460
 0.7600	52.5630
 0.7610	52.6110
 0.7620	52.6620
 0.7630	52.7290
 0.7640	52.8030
 0.7650	52.8780
 0.7660	52.9140
 0.7670	52.9300
 0.7680	52.9720
 0.7690	53.0200
 0.7700	53.0660
 0.7710	53.1000
 0.7720	53.1060
 0.7730	53.1200
 0.7740	53.1470
 0.7750	53.1770
 0.7760	53.1760
 0.7770	53.1860
 0.7780	53.2050
 0.7790	53.2150
 0.7800	53.2450
 0.7810	53.2660
 0.7820	53.2720
 0.7830	53.2930
 0.7840	53.3060
 0.7850	53.3120
 0.7860	53.3190
 0.7870	53.3260
 0.7880	53.3240
 0.7890	53.3300
 0.7900	53.3560
 0.7910	53.3670
 0.7920	53.3690
 0.7930	53.3730
 0.7940	53.3880
 0.7950	53.3840
 0.7960	53.3720
 0.7970	53.3680
 0.7980	53.3860
 0.7990	53.3750
 0.8000	53.3620
 0.8010	53.3710
 0.8020	53.3620
 0.8030	53.3620
 0.8040	53.3600
 0.8050	53.3410
 0.8060	53.3490
 0.8070	53.3560
 0.8080	53.3570
 0.8090	53.3660
 0.8100	53.3570
 0.8110	53.3480
 0.8120	53.3440
 0.8130	53.3120
 0.8140	53.3160
 0.8150	53.3290
 0.8160	53.3180
 0.8170	53.3180
 0.8180	53.3180
 0.8190	53.3120
 0.8200	53.3020
 0.8210	53.2940
 0.8220	53.3100
 0.8230	53.3250
 0.8240	53.2900
 0.8250	53.3000
 0.8260	53.3050
 0.8270	53.2790
 0.8280	53.2710
 0.8290	53.2600
 0.8300	53.2570
 0.8310	53.2670
 0.8320	53.2390
 0.8330	53.2290
 0.8340	53.2410
 0.8350	53.2530
 0.8360	53.2650
 0.8370	53.2660
 0.8380	53.2540
 0.8390	53.2410
 0.8400	53.2590
 0.8410	53.2660
 0.8420	53.2550
 0.8430	53.2700
 0.8440	53.2880
 0.8450	53.3020
 0.8460	53.3110
 0.8470	53.3160
 0.8480	53.3090
 0.8490	53.3130
 0.8500	53.3440
 0.8510	53.3570
 0.8520	53.3690
 0.8530	53.3850
 0.8540	53.3970
 0.8550	53.3980
 0.8560	53.4180
 0.8570	53.4410
 0.8580	53.4150
 0.8590	53.4490
 0.8600	53.4910
 0.8610	53.5020
 0.8620	53.5130
 0.8630	53.5650
 0.8640	53.5930
 0.8650	53.5610
 0.8660	53.6060
 0.8670	53.6250
 0.8680	53.6170
 0.8690	53.6190
 0.8700	53.6820
 0.8710	53.7120
 0.8720	53.7060
 0.8730	53.7130
 0.8740	53.7100
 0.8750	53.7630
 0.8760	53.8450
 0.8770	53.8540
 0.8780	53.8420
 0.8790	53.8440
 0.8800	53.8760
 0.8810	53.9230
 0.8820	53.9310
 0.8830	53.9320
 0.8840	53.9610
 0.8850	54.0110
 0.8860	54.0590
 0.8870	54.0780
 0.8880	54.0620
 0.8890	54.0620
 0.8900	54.0960
 0.8910	54.1400
 0.8920	54.1590
 0.8930	54.1610
 0.8940	54.1600
 0.8950	54.1820
 0.8960	54.2450
 0.8970	54.2510
 0.8980	54.2480
 0.8990	54.2790
 0.9000	54.3500
 0.9010	54.3560
 0.9020	54.3700
 0.9030	54.4170
 0.9040	54.4230
 0.9050	54.4500
 0.9060	54.4790
 0.9070	54.4900
 0.9080	54.4930
 0.9090	54.5070
 0.9100	54.5160
 0.9110	54.5020
 0.9120	54.4660
 0.9130	54.4970
 0.9140	54.5470
 0.9150	54.5570
 0.9160	54.6020
 0.9170	54.6270
 0.9180	54.6260
 0.9190	54.6170
 0.9200	54.6330
 0.9210	54.6290
 0.9220	54.6180
 0.9230	54.6390
 0.9240	54.6470
 0.9250	54.6800
 0.9260	54.6780
 0.9270	54.5570
 0.9280	54.5660
 0.9290	54.6000
 0.9300	54.6110
 0.9310	54.6410
 0.9320	54.6240
 0.9330	54.6090
 0.9340	54.6120
 0.9350	54.5970
 0.9360	54.5430
 0.9370	54.5050
 0.9380	54.5060
 0.9390	54.5100
 0.9400	54.4800
 0.9410	54.4590
 0.9420	54.4480
 0.9430	54.3570
 0.9440	54.3250
 0.9450	54.3310
 0.9460	54.3330
 0.9470	54.3260
 0.9480	54.2960
 0.9490	54.2580
 0.9500	54.2240
 0.9510	54.1910
 0.9520	54.1070
 0.9530	54.0350
 0.9540	54.0240
 0.9550	53.9680
 0.9560	53.9230
 0.9570	53.8940
 0.9580	53.8580
 0.9590	53.7620
 0.9600	53.7000
 0.9610	53.6950
 0.9620	53.7180
 0.9630	53.7060
 0.9640	53.6440
 0.9650	53.6000
 0.9660	53.6340
 0.9670	53.6260
 0.9680	53.5820
 0.9690	53.5580
 0.9700	53.5990
 0.9710	53.6230
 0.9720	53.5850
 0.9730	53.5260
 0.9740	53.5130
 0.9750	53.5460
 0.9760	53.5490
 0.9770	53.5590
 0.9780	53.6210
 0.9790	53.5390
 0.9800	53.5600
 0.9810	53.6370
 0.9820	53.6190
 0.9830	53.6850
 0.9840	53.7200
 0.9850	53.6920
 0.9860	53.6240
 0.9870	53.5120
 0.9880	53.5920
 0.9890	53.7070
 0.9900	53.6140
 0.9910	53.7220
 0.9920	53.7030
 0.9930	53.6350
 0.9940	53.7120
 0.9950	53.6250
 0.9960	53.6680
 0.9970	53.7710
 0.9980	53.7300
 0.9990	53.5980
 1.0000	53.6610
 1.0010	53.7340
 1.0020	53.7390
 1.0030	53.7820
 1.0040	53.8580
 1.0050	53.8700
 1.0060	53.8750
 1.0070	53.9210
 1.0080	53.9380
 1.0090	53.9050
 1.0100	53.9190
 1.0110	53.9600
 1.0120	53.9930
 1.0130	54.0280
 1.0140	54.0660
 1.0150	54.1330
 1.0160	54.1650
 1.0170	54.1340
 1.0180	54.1190
 1.0190	54.0860
 1.0200	54.0920
 1.0210	54.1660
 1.0220	54.2380
 1.0230	54.2760
 1.0240	54.3070
 1.0250	54.3160
 1.0260	54.2690
 1.0270	54.2860
 1.0280	54.3410
 1.0290	54.3600
 1.0300	54.3850
 1.0310	54.4110
 1.0320	54.4290
 1.0330	54.4220
 1.0340	54.4160
 1.0350	54.4400
 1.0360	54.4250
 1.0370	54.4300
 1.0380	54.4520
 1.0390	54.5140
 1.0400	54.5240
 1.0410	54.5190
 1.0420	54.5210
 1.0430	54.4930
 1.0440	54.4940
 1.0450	54.5210
 1.0460	54.5340
 1.0470	54.5430
 1.0480	54.5610
 1.0490	54.5880
 1.0500	54.6060
 1.0510	54.6400
 1.0520	54.6380
 1.0530	54.6430
 1.0540	54.6220
 1.0550	54.6450
 1.0560	54.7000
 1.0570	54.7150
 1.0580	54.7440
 1.0590	54.7450
 1.0600	54.7010
 1.0610	54.6760
 1.0620	54.6280
 1.0630	54.6220
 1.0640	54.6360
 1.0650	54.6510
 1.0660	54.7220
 1.0670	54.7530
 1.0680	54.7660
 1.0690	54.7550
 1.0700	54.7580
 1.0710	54.7370
 1.0720	54.7530
 1.0730	54.8010
 1.0740	54.8150
 1.0750	54.8310
 1.0760	54.8360
 1.0770	54.8170
 1.0780	54.8060
 1.0790	54.7840
 1.0800	54.7850
 1.0810	54.8070
 1.0820	54.8060
 1.0830	54.8120
 1.0840	54.8130
 1.0850	54.7960
 1.0860	54.7720
 1.0870	54.7730
 1.0880	54.7920
 1.0890	54.8040
 1.0900	54.8310
 1.0910	54.8330
 1.0920	54.8170
 1.0930	54.8160
 1.0940	54.7980
 1.0950	54.8030
 1.0960	54.8420
 1.0970	54.8510
 1.0980	54.8600
 1.0990	54.8550
 1.1000	54.8150
 1.1010	54.7970
 1.1020	54.7900
 1.1030	54.7710
 1.1040	54.7700
 1.1050	54.7710
 1.1060	54.7510
 1.1070	54.7050
 1.1080	54.6990
 1.1090	54.6960
 1.1100	54.6990
 1.1110	54.7470
 1.1120	54.7500
 1.1130	54.7340
 1.1140	54.7150
 1.1150	54.6720
 1.1160	54.6420
 1.1170	54.6050
 1.1180	54.5810
 1.1190	54.5570
 1.1200	54.5660
 1.1210	54.5610
 1.1220	54.5380
 1.1230	54.5100
 1.1240	54.4690
 1.1250	54.4340
 1.1260	54.4070
 1.1270	54.3560
 1.1280	54.2960
 1.1290	54.2320
 1.1300	54.1370
 1.1310	54.0700
 1.1320	54.0280
 1.1330	53.9640
 1.1340	53.9090
 1.1350	53.8320
 1.1360	53.7340
 1.1370	53.6350
 1.1380	53.5260
 1.1390	53.4170
 1.1400	53.3080
 1.1410	53.1820
 1.1420	53.0670
 1.1430	52.9630
 1.1440	52.8620
 1.1450	52.7730
 1.1460	52.6760
 1.1470	52.5760
 1.1480	52.4780
 1.1490	52.3820
 1.1500	52.2870
 1.1510	52.1870
 1.1520	52.1030
 1.1530	52.0180
 1.1540	51.9490
 1.1550	51.9020
 1.1560	51.8480
 1.1570	51.7910
 1.1580	51.7470
 1.1590	51.6920
 1.1600	51.6470
 1.1610	51.6210
 1.1620	51.5970
 1.1630	51.5780
 1.1640	51.5700
 1.1650	51.5530
 1.1660	51.5270
 1.1670	51.5110
 1.1680	51.4970
 1.1690	51.4890
 1.1700	51.4980
 1.1710	51.4950
 1.1720	51.4910
 1.1730	51.4770
 1.1740	51.4490
 1.1750	51.4260
 1.1760	51.4090
 1.1770	51.3980
 1.1780	51.3950
 1.1790	51.3920
 1.1800	51.3780
 1.1810	51.3720
 1.1820	51.3640
 1.1830	51.3490
 1.1840	51.3440
 1.1850	51.3410
 1.1860	51.3310
 1.1870	51.3220
 1.1880	51.3150
 1.1890	51.3010
 1.1900	51.2910
 1.1910	51.2790
 1.1920	51.2820
 1.1930	51.3030
 1.1940	51.3070
 1.1950	51.3110
 1.1960	51.3090
 1.1970	51.3010
 1.1980	51.2860
 1.1990	51.2870
 1.2000	51.2990
 1.2010	51.3140
 1.2020	51.3370
 1.2030	51.3660
 1.2040	51.3900
 1.2050	51.3990
 1.2060	51.4070
 1.2070	51.4290
 1.2080	51.4500
 1.2090	51.4700
 1.2100	51.4800
 1.2110	51.4870
 1.2120	51.4760
 1.2130	51.4760
 1.2140	51.4760
 1.2150	51.4900
 1.2160	51.5130
 1.2170	51.5270
 1.2180	51.5550
 1.2190	51.5820
 1.2200	51.5980
 1.2210	51.6190
 1.2220	51.6330
 1.2230	51.6510
 1.2240	51.6640
 1.2250	51.6740
 1.2260	51.7040
 1.2270	51.7300
 1.2280	51.7560
 1.2290	51.7850
 1.2300	51.8000
 1.2310	51.8090
 1.2320	51.8160
 1.2330	51.8280
 1.2340	51.8450
 1.2350	51.8690
 1.2360	51.8890
 1.2370	51.9100
 1.2380	51.9350
 1.2390	51.9520
 1.2400	51.9570
 1.2410	51.9780
 1.2420	51.9870
 1.2430	51.9820
 1.2440	51.9840
 1.2450	51.9870
 1.2460	51.9900
 1.2470	52.0040
 1.2480	52.0310
 1.2490	52.0540
 1.2500	52.0610
 1.2510	52.0790
 1.2520	52.0990
 1.2530	52.1050
 1.2540	52.1200
 1.2550	52.1200
 1.2560	52.1230
 1.2570	52.1350
 1.2580	52.1310
 1.2590	52.1330
 1.2600	52.1400
 1.2610	52.1400
 1.2620	52.1360
 1.2630	52.1290
 1.2640	52.1230
 1.2650	52.1090
 1.2660	52.0840
 1.2670	52.0680
 1.2680	52.0620
 1.2690	52.0650
 1.2700	52.0710
 1.2710	52.0870
 1.2720	52.0860
 1.2730	52.0590
 1.2740	52.0240
 1.2750	51.9870
 1.2760	51.9630
 1.2770	51.9490
 1.2780	51.9380
 1.2790	51.9260
 1.2800	51.9170
 1.2810	51.9110
 1.2820	51.9010
 1.2830	51.8980
 1.2840	51.8890
 1.2850	51.8580
 1.2860	51.8320
 1.2870	51.8070
 1.2880	51.7760
 1.2890	51.7460
 1.2900	51.7350
 1.2910	51.7160
 1.2920	51.6930
 1.2930	51.6650
 1.2940	51.6290
 1.2950	51.5870
 1.2960	51.5540
 1.2970	51.5320
 1.2980	51.4970
 1.2990	51.4700
 1.3000	51.4490
 1.3010	51.4030
 1.3020	51.3590
 1.3030	51.3140
 1.3040	51.2530
 1.3050	51.1800
 1.3060	51.1200
 1.3070	51.0660
 1.3080	50.9920
 1.3090	50.9220
 1.3100	50.8450
 1.3110	50.7590
 1.3120	50.6820
 1.3130	50.6110
 1.3140	50.5370
 1.3150	50.4580
 1.3160	50.3880
 1.3170	50.3220
 1.3180	50.2630
 1.3190	50.1960
 1.3200	50.1190
 1.3210	50.0160
 1.3220	49.8980
 1.3230	49.7910
 1.3240	49.6830
 1.3250	49.5920
 1.3260	49.5010
 1.3270	49.3940
 1.3280	49.2870
 1.3290	49.1700
 1.3300	49.0450
 1.3310	48.9250
 1.3320	48.8140
 1.3330	48.6990
 1.3340	48.5820
 1.3350	48.4730
 1.3360	48.3520
 1.3370	48.2330
 1.3380	48.1220
 1.3390	48.0070
 1.3400	47.8880
 1.3410	47.7710
 1.3420	47.6580
 1.3430	47.5420
 1.3440	47.4260
 1.3450	47.3130
 1.3460	47.2010
 1.3470	47.0910
 1.3480	46.9850
 1.3490	46.8780
 1.3500	46.7760
 1.3510	46.6590
 1.3520	46.5470
 1.3530	46.4330
 1.3540	46.3260
 1.3550	46.2260
 1.3560	46.1280
 1.3570	46.0330
 1.3580	45.9230
 1.3590	45.8110
 1.3600	45.6880
 1.3610	45.5540
 1.3620	45.4220
 1.3630	45.2840
 1.3640	45.1400
 1.3650	44.9830
 1.3660	44.8180
 1.3670	44.6380
 1.3680	44.4500
 1.3690	44.2580
 1.3700	44.0490
 1.3710	43.8290
 1.3720	43.5880
 1.3730	43.3350
 1.3740	43.0590
 1.3750	42.7620
 1.3760	42.4550
 1.3770	42.1250
 1.3780	41.7660
 1.3790	41.3930
 1.3800	40.9960
 1.3810	40.5600
 1.3820	40.1090
 1.3830	39.6440
 1.3840	39.1450
 1.3850	38.6180
 1.3860	38.0780
 1.3870	37.5020
 1.3880	36.9340
 1.3890	36.3610
 1.3900	35.7730
 1.3910	35.1840
 1.3920	34.5890
 1.3930	33.9830
 1.3940	33.3760
 1.3950	32.7740
 1.3960	32.1880
 1.3970	31.6120
 1.3980	31.0500
 1.3990	30.5040
 1.4000	29.9610
 1.4010	29.4360
 1.4020	28.9330
 1.4030	28.4540
 1.4040	28.0000
 1.4050	27.5690
 1.4060	27.1610
 1.4070	26.7850
 1.4080	26.4320
 1.4090	26.1060
 1.4100	25.8020
 1.4110	25.5050
 1.4120	25.2230
 1.4130	24.9590
 1.4140	24.7130
 1.4150	24.4960
 1.4160	24.2960
 1.4170	24.1040
 1.4180	23.9260
 1.4190	23.7570
 1.4200	23.6010
 1.4210	23.4590
 1.4220	23.3280
 1.4230	23.2140
 1.4240	23.1090
 1.4250	23.0120
 1.4260	22.9290
 1.4270	22.8480
 1.4280	22.7690
 1.4290	22.6980
 1.4300	22.6310
 1.4310	22.5750
 1.4320	22.5300
 1.4330	22.4870
 1.4340	22.4550
 1.4350	22.4220
 1.4360	22.3900
 1.4370	22.3620
 1.4380	22.3390
 1.4390	22.3230
 1.4400	22.3110
 1.4410	22.3050
 1.4420	22.3020
 1.4430	22.2950
 1.4440	22.2900
 1.4450	22.2930
 1.4460	22.2990
 1.4470	22.3100
 1.4480	22.3300
 1.4490	22.3430
 1.4500	22.3590
 1.4510	22.3780
 1.4520	22.3890
 1.4530	22.4050
 1.4540	22.4220
 1.4550	22.4430
 1.4560	22.4740
 1.4570	22.5120
 1.4580	22.5520
 1.4590	22.5960
 1.4600	22.6430
 1.4610	22.6930
 1.4620	22.7450
 1.4630	22.8050
 1.4640	22.8720
 1.4650	22.9420
 1.4660	23.0190
 1.4670	23.0980
 1.4680	23.1800
 1.4690	23.2730
 1.4700	23.3680
 1.4710	23.4720
 1.4720	23.5810
 1.4730	23.6860
 1.4740	23.7930
 1.4750	23.9080
 1.4760	24.0300
 1.4770	24.1530
 1.4780	24.2830
 1.4790	24.4140
 1.4800	24.5400
 1.4810	24.6720
 1.4820	24.8050
