Name: Umbellularia californica 2
Type: vegetation
Class: Shrub
Genus: Umbellularia
Species: californica
Sample No.: VH105
Owner: UCSB
Wavelength Range: VSWIR
Origin: 34.5074; -119.7632; WGS84
Collection Date: 6/3/2013
Description: Samples were collected as part of the HyspIRI Airborne Campaign. 48 individual plants were sampled in three times in 2013 - spring  summer  and fall. The name of the sample includes a 1  2  or 3 which references a different individual of the species. Samples were taken to JPL and processed within 48 hours of collection. The same leaves were processed in the Nicolet and then measured using the ASD.
Measurement: Bidirectional reflectance
First Column: X
Second Column: Y
X Units: Wavelength (micrometers)
Y Units: Reflectance (percentage)
First X Value: 0.35
Last X Value: 2.5
Number of X Values: 2151
Additional Information: vegetation.shrub.umbellularia.californica.vswir.vh105.ucsb.asd.ancillary.txt

 0.3500	 8.2550
 0.3510	 7.8790
 0.3520	 7.7700
 0.3530	 7.8680
 0.3540	 7.9710
 0.3550	 7.8820
 0.3560	 7.8710
 0.3570	 7.9160
 0.3580	 7.8610
 0.3590	 7.8340
 0.3600	 7.8610
 0.3610	 7.8900
 0.3620	 7.7670
 0.3630	 7.7720
 0.3640	 7.8020
 0.3650	 7.7290
 0.3660	 7.7340
 0.3670	 7.7840
 0.3680	 7.8190
 0.3690	 7.7760
 0.3700	 7.7490
 0.3710	 7.7140
 0.3720	 7.6590
 0.3730	 7.6100
 0.3740	 7.6670
 0.3750	 7.7460
 0.3760	 7.7320
 0.3770	 7.7020
 0.3780	 7.6340
 0.3790	 7.5620
 0.3800	 7.5640
 0.3810	 7.6200
 0.3820	 7.6800
 0.3830	 7.6920
 0.3840	 7.6070
 0.3850	 7.5670
 0.3860	 7.5690
 0.3870	 7.5630
 0.3880	 7.6000
 0.3890	 7.6330
 0.3900	 7.6280
 0.3910	 7.5680
 0.3920	 7.5850
 0.3930	 7.6200
 0.3940	 7.6110
 0.3950	 7.5750
 0.3960	 7.5940
 0.3970	 7.6450
 0.3980	 7.6580
 0.3990	 7.6490
 0.4000	 7.6690
 0.4010	 7.7020
 0.4020	 7.6400
 0.4030	 7.6300
 0.4040	 7.6510
 0.4050	 7.6570
 0.4060	 7.6710
 0.4070	 7.6800
 0.4080	 7.6860
 0.4090	 7.6990
 0.4100	 7.7390
 0.4110	 7.7790
 0.4120	 7.8020
 0.4130	 7.8300
 0.4140	 7.8150
 0.4150	 7.8030
 0.4160	 7.8490
 0.4170	 7.8790
 0.4180	 7.9190
 0.4190	 7.9630
 0.4200	 7.9740
 0.4210	 7.9950
 0.4220	 8.0190
 0.4230	 8.0400
 0.4240	 8.0830
 0.4250	 8.1120
 0.4260	 8.1230
 0.4270	 8.1300
 0.4280	 8.1650
 0.4290	 8.1900
 0.4300	 8.1970
 0.4310	 8.2230
 0.4320	 8.2370
 0.4330	 8.2400
 0.4340	 8.2400
 0.4350	 8.2520
 0.4360	 8.2600
 0.4370	 8.2730
 0.4380	 8.3140
 0.4390	 8.3310
 0.4400	 8.3450
 0.4410	 8.3690
 0.4420	 8.3740
 0.4430	 8.3990
 0.4440	 8.4280
 0.4450	 8.4350
 0.4460	 8.4430
 0.4470	 8.4580
 0.4480	 8.4780
 0.4490	 8.4920
 0.4500	 8.5030
 0.4510	 8.5220
 0.4520	 8.5500
 0.4530	 8.5550
 0.4540	 8.5560
 0.4550	 8.5650
 0.4560	 8.5900
 0.4570	 8.6060
 0.4580	 8.6120
 0.4590	 8.6150
 0.4600	 8.6250
 0.4610	 8.6280
 0.4620	 8.6300
 0.4630	 8.6370
 0.4640	 8.6290
 0.4650	 8.6270
 0.4660	 8.6350
 0.4670	 8.6410
 0.4680	 8.6500
 0.4690	 8.6560
 0.4700	 8.6540
 0.4710	 8.6490
 0.4720	 8.6440
 0.4730	 8.6430
 0.4740	 8.6470
 0.4750	 8.6480
 0.4760	 8.6550
 0.4770	 8.6660
 0.4780	 8.6570
 0.4790	 8.6600
 0.4800	 8.6740
 0.4810	 8.6840
 0.4820	 8.6910
 0.4830	 8.6950
 0.4840	 8.6990
 0.4850	 8.7070
 0.4860	 8.7150
 0.4870	 8.7270
 0.4880	 8.7440
 0.4890	 8.7590
 0.4900	 8.7800
 0.4910	 8.8030
 0.4920	 8.8240
 0.4930	 8.8500
 0.4940	 8.8830
 0.4950	 8.9200
 0.4960	 8.9540
 0.4970	 8.9970
 0.4980	 9.0410
 0.4990	 9.0820
 0.5000	 9.1420
 0.5010	 9.2130
 0.5020	 9.2890
 0.5030	 9.3660
 0.5040	 9.4490
 0.5050	 9.5420
 0.5060	 9.6470
 0.5070	 9.7570
 0.5080	 9.8840
 0.5090	10.0280
 0.5100	10.1820
 0.5110	10.3420
 0.5120	10.5160
 0.5130	10.7040
 0.5140	10.9050
 0.5150	11.1190
 0.5160	11.3420
 0.5170	11.5710
 0.5180	11.8140
 0.5190	12.0670
 0.5200	12.3230
 0.5210	12.5740
 0.5220	12.8310
 0.5230	13.0900
 0.5240	13.3400
 0.5250	13.5720
 0.5260	13.7990
 0.5270	14.0170
 0.5280	14.2180
 0.5290	14.4020
 0.5300	14.5750
 0.5310	14.7390
 0.5320	14.8830
 0.5330	15.0140
 0.5340	15.1350
 0.5350	15.2460
 0.5360	15.3450
 0.5370	15.4310
 0.5380	15.5080
 0.5390	15.5780
 0.5400	15.6370
 0.5410	15.6930
 0.5420	15.7500
 0.5430	15.8010
 0.5440	15.8520
 0.5450	15.9050
 0.5460	15.9590
 0.5470	16.0130
 0.5480	16.0660
 0.5490	16.1120
 0.5500	16.1420
 0.5510	16.1650
 0.5520	16.1780
 0.5530	16.1780
 0.5540	16.1640
 0.5550	16.1350
 0.5560	16.0880
 0.5570	16.0230
 0.5580	15.9440
 0.5590	15.8520
 0.5600	15.7470
 0.5610	15.6360
 0.5620	15.5130
 0.5630	15.3840
 0.5640	15.2520
 0.5650	15.0990
 0.5660	14.9350
 0.5670	14.7690
 0.5680	14.6020
 0.5690	14.4310
 0.5700	14.2550
 0.5710	14.0790
 0.5720	13.9100
 0.5730	13.7530
 0.5740	13.6080
 0.5750	13.4730
 0.5760	13.3480
 0.5770	13.2270
 0.5780	13.1090
 0.5790	13.0010
 0.5800	12.9010
 0.5810	12.8080
 0.5820	12.7220
 0.5830	12.6460
 0.5840	12.5710
 0.5850	12.4930
 0.5860	12.4130
 0.5870	12.3430
 0.5880	12.2830
 0.5890	12.2320
 0.5900	12.1930
 0.5910	12.1580
 0.5920	12.1260
 0.5930	12.0950
 0.5940	12.0610
 0.5950	12.0270
 0.5960	11.9970
 0.5970	11.9710
 0.5980	11.9380
 0.5990	11.9000
 0.6000	11.8630
 0.6010	11.8270
 0.6020	11.7860
 0.6030	11.7390
 0.6040	11.6890
 0.6050	11.6350
 0.6060	11.5730
 0.6070	11.5040
 0.6080	11.4390
 0.6090	11.3620
 0.6100	11.2740
 0.6110	11.1850
 0.6120	11.1120
 0.6130	11.0460
 0.6140	10.9790
 0.6150	10.9090
 0.6160	10.8420
 0.6170	10.7780
 0.6180	10.7160
 0.6190	10.6640
 0.6200	10.6180
 0.6210	10.5750
 0.6220	10.5370
 0.6230	10.5040
 0.6240	10.4750
 0.6250	10.4500
 0.6260	10.4310
 0.6270	10.4170
 0.6280	10.4060
 0.6290	10.3940
 0.6300	10.3800
 0.6310	10.3650
 0.6320	10.3460
 0.6330	10.3270
 0.6340	10.3040
 0.6350	10.2730
 0.6360	10.2320
 0.6370	10.1830
 0.6380	10.1270
 0.6390	10.0640
 0.6400	 9.9940
 0.6410	 9.9250
 0.6420	 9.8540
 0.6430	 9.7790
 0.6440	 9.7020
 0.6450	 9.6280
 0.6460	 9.5590
 0.6470	 9.4950
 0.6480	 9.4340
 0.6490	 9.3770
 0.6500	 9.3270
 0.6510	 9.2900
 0.6520	 9.2540
 0.6530	 9.2200
 0.6540	 9.1890
 0.6550	 9.1530
 0.6560	 9.1190
 0.6570	 9.0820
 0.6580	 9.0360
 0.6590	 8.9910
 0.6600	 8.9440
 0.6610	 8.8960
 0.6620	 8.8520
 0.6630	 8.8120
 0.6640	 8.7750
 0.6650	 8.7410
 0.6660	 8.7110
 0.6670	 8.6880
 0.6680	 8.6720
 0.6690	 8.6640
 0.6700	 8.6570
 0.6710	 8.6550
 0.6720	 8.6580
 0.6730	 8.6640
 0.6740	 8.6760
 0.6750	 8.6920
 0.6760	 8.7110
 0.6770	 8.7340
 0.6780	 8.7590
 0.6790	 8.7890
 0.6800	 8.8260
 0.6810	 8.8690
 0.6820	 8.9170
 0.6830	 8.9710
 0.6840	 9.0340
 0.6850	 9.1100
 0.6860	 9.2040
 0.6870	 9.3170
 0.6880	 9.4600
 0.6890	 9.6400
 0.6900	 9.8620
 0.6910	10.1330
 0.6920	10.4680
 0.6930	10.8720
 0.6940	11.3470
 0.6950	11.9040
 0.6960	12.5390
 0.6970	13.2500
 0.6980	14.0330
 0.6990	14.8810
 0.7000	15.7880
 0.7010	16.7450
 0.7020	17.7390
 0.7030	18.7690
 0.7040	19.8220
 0.7050	20.8860
 0.7060	21.9600
 0.7070	23.0360
 0.7080	24.1130
 0.7090	25.1930
 0.7100	26.2710
 0.7110	27.3470
 0.7120	28.4210
 0.7130	29.4920
 0.7140	30.5570
 0.7150	31.6200
 0.7160	32.6810
 0.7170	33.7330
 0.7180	34.7740
 0.7190	35.8040
 0.7200	36.8250
 0.7210	37.8360
 0.7220	38.8360
 0.7230	39.8210
 0.7240	40.7830
 0.7250	41.7260
 0.7260	42.6470
 0.7270	43.5430
 0.7280	44.4160
 0.7290	45.2660
 0.7300	46.0890
 0.7310	46.8810
 0.7320	47.6430
 0.7330	48.3770
 0.7340	49.0830
 0.7350	49.7620
 0.7360	50.4070
 0.7370	51.0240
 0.7380	51.6130
 0.7390	52.1720
 0.7400	52.7000
 0.7410	53.2000
 0.7420	53.6770
 0.7430	54.1290
 0.7440	54.5510
 0.7450	54.9440
 0.7460	55.3130
 0.7470	55.6560
 0.7480	55.9750
 0.7490	56.2720
 0.7500	56.5530
 0.7510	56.8070
 0.7520	57.0400
 0.7530	57.2610
 0.7540	57.4590
 0.7550	57.6400
 0.7560	57.8080
 0.7570	57.9600
 0.7580	58.1030
 0.7590	58.2360
 0.7600	58.3570
 0.7610	58.4690
 0.7620	58.5730
 0.7630	58.6670
 0.7640	58.7490
 0.7650	58.8250
 0.7660	58.8930
 0.7670	58.9550
 0.7680	59.0160
 0.7690	59.0690
 0.7700	59.1240
 0.7710	59.1770
 0.7720	59.2150
 0.7730	59.2570
 0.7740	59.2980
 0.7750	59.3330
 0.7760	59.3680
 0.7770	59.4010
 0.7780	59.4320
 0.7790	59.4620
 0.7800	59.4860
 0.7810	59.5130
 0.7820	59.5400
 0.7830	59.5520
 0.7840	59.5820
 0.7850	59.6130
 0.7860	59.6310
 0.7870	59.6460
 0.7880	59.6680
 0.7890	59.6910
 0.7900	59.7060
 0.7910	59.7250
 0.7920	59.7410
 0.7930	59.7520
 0.7940	59.7630
 0.7950	59.7770
 0.7960	59.7880
 0.7970	59.7970
 0.7980	59.8110
 0.7990	59.8180
 0.8000	59.8210
 0.8010	59.8250
 0.8020	59.8300
 0.8030	59.8330
 0.8040	59.8320
 0.8050	59.8300
 0.8060	59.8320
 0.8070	59.8340
 0.8080	59.8320
 0.8090	59.8220
 0.8100	59.8180
 0.8110	59.8130
 0.8120	59.8040
 0.8130	59.8010
 0.8140	59.7970
 0.8150	59.7890
 0.8160	59.7780
 0.8170	59.7700
 0.8180	59.7590
 0.8190	59.7500
 0.8200	59.7500
 0.8210	59.7370
 0.8220	59.7230
 0.8230	59.7130
 0.8240	59.7040
 0.8250	59.6860
 0.8260	59.6710
 0.8270	59.6660
 0.8280	59.6590
 0.8290	59.6490
 0.8300	59.6390
 0.8310	59.6290
 0.8320	59.6140
 0.8330	59.6010
 0.8340	59.5870
 0.8350	59.5720
 0.8360	59.5630
 0.8370	59.5600
 0.8380	59.5570
 0.8390	59.5470
 0.8400	59.5460
 0.8410	59.5460
 0.8420	59.5420
 0.8430	59.5380
 0.8440	59.5370
 0.8450	59.5410
 0.8460	59.5470
 0.8470	59.5410
 0.8480	59.5400
 0.8490	59.5400
 0.8500	59.5320
 0.8510	59.5350
 0.8520	59.5390
 0.8530	59.5410
 0.8540	59.5450
 0.8550	59.5410
 0.8560	59.5370
 0.8570	59.5380
 0.8580	59.5450
 0.8590	59.5550
 0.8600	59.5540
 0.8610	59.5450
 0.8620	59.5590
 0.8630	59.5670
 0.8640	59.5740
 0.8650	59.5850
 0.8660	59.5880
 0.8670	59.5840
 0.8680	59.5820
 0.8690	59.5890
 0.8700	59.6020
 0.8710	59.6070
 0.8720	59.6080
 0.8730	59.6160
 0.8740	59.6220
 0.8750	59.6300
 0.8760	59.6390
 0.8770	59.6460
 0.8780	59.6530
 0.8790	59.6580
 0.8800	59.6610
 0.8810	59.6700
 0.8820	59.6770
 0.8830	59.6890
 0.8840	59.7060
 0.8850	59.7070
 0.8860	59.7100
 0.8870	59.7170
 0.8880	59.7240
 0.8890	59.7330
 0.8900	59.7390
 0.8910	59.7430
 0.8920	59.7450
 0.8930	59.7480
 0.8940	59.7510
 0.8950	59.7580
 0.8960	59.7690
 0.8970	59.7660
 0.8980	59.7680
 0.8990	59.7790
 0.9000	59.7840
 0.9010	59.7850
 0.9020	59.7930
 0.9030	59.8070
 0.9040	59.8140
 0.9050	59.8160
 0.9060	59.8220
 0.9070	59.8350
 0.9080	59.8350
 0.9090	59.8330
 0.9100	59.8340
 0.9110	59.8370
 0.9120	59.8430
 0.9130	59.8500
 0.9140	59.8580
 0.9150	59.8640
 0.9160	59.8610
 0.9170	59.8610
 0.9180	59.8650
 0.9190	59.8660
 0.9200	59.8690
 0.9210	59.8640
 0.9220	59.8560
 0.9230	59.8540
 0.9240	59.8410
 0.9250	59.8300
 0.9260	59.8280
 0.9270	59.8340
 0.9280	59.8250
 0.9290	59.8120
 0.9300	59.8000
 0.9310	59.7850
 0.9320	59.7720
 0.9330	59.7600
 0.9340	59.7480
 0.9350	59.7310
 0.9360	59.6980
 0.9370	59.6690
 0.9380	59.6530
 0.9390	59.6320
 0.9400	59.6070
 0.9410	59.5750
 0.9420	59.5400
 0.9430	59.5090
 0.9440	59.4640
 0.9450	59.4210
 0.9460	59.3880
 0.9470	59.3370
 0.9480	59.2900
 0.9490	59.2340
 0.9500	59.1640
 0.9510	59.1060
 0.9520	59.0320
 0.9530	58.9550
 0.9540	58.8880
 0.9550	58.8210
 0.9560	58.7460
 0.9570	58.6790
 0.9580	58.6250
 0.9590	58.5530
 0.9600	58.4920
 0.9610	58.4360
 0.9620	58.3750
 0.9630	58.3410
 0.9640	58.3080
 0.9650	58.2730
 0.9660	58.2410
 0.9670	58.2080
 0.9680	58.1700
 0.9690	58.1380
 0.9700	58.1250
 0.9710	58.1040
 0.9720	58.1060
 0.9730	58.1080
 0.9740	58.0810
 0.9750	58.0620
 0.9760	58.0510
 0.9770	58.0370
 0.9780	58.0160
 0.9790	58.0150
 0.9800	58.0330
 0.9810	58.0470
 0.9820	58.0380
 0.9830	58.0460
 0.9840	58.0550
 0.9850	58.0600
 0.9860	58.0680
 0.9870	58.0810
 0.9880	58.0880
 0.9890	58.0910
 0.9900	58.1000
 0.9910	58.1140
 0.9920	58.1510
 0.9930	58.1880
 0.9940	58.2250
 0.9950	58.2620
 0.9960	58.2990
 0.9970	58.3360
 0.9980	58.3730
 0.9990	58.4100
 1.0000	58.4470
 1.0010	58.4840
 1.0020	58.5210
 1.0030	58.5580
 1.0040	58.5950
 1.0050	58.6320
 1.0060	58.6690
 1.0070	58.7060
 1.0080	58.7430
 1.0090	58.7800
 1.0100	58.7800
 1.0110	58.7970
 1.0120	58.8160
 1.0130	58.8310
 1.0140	58.8470
 1.0150	58.8620
 1.0160	58.8870
 1.0170	58.9070
 1.0180	58.9240
 1.0190	58.9500
 1.0200	58.9710
 1.0210	58.9890
 1.0220	59.0090
 1.0230	59.0250
 1.0240	59.0330
 1.0250	59.0470
 1.0260	59.0630
 1.0270	59.0790
 1.0280	59.1020
 1.0290	59.1180
 1.0300	59.1310
 1.0310	59.1460
 1.0320	59.1570
 1.0330	59.1760
 1.0340	59.1940
 1.0350	59.2110
 1.0360	59.2290
 1.0370	59.2440
 1.0380	59.2600
 1.0390	59.2770
 1.0400	59.2940
 1.0410	59.3130
 1.0420	59.3260
 1.0430	59.3360
 1.0440	59.3460
 1.0450	59.3520
 1.0460	59.3600
 1.0470	59.3690
 1.0480	59.3780
 1.0490	59.3870
 1.0500	59.3970
 1.0510	59.4060
 1.0520	59.4160
 1.0530	59.4270
 1.0540	59.4380
 1.0550	59.4500
 1.0560	59.4660
 1.0570	59.4760
 1.0580	59.4840
 1.0590	59.4900
 1.0600	59.4900
 1.0610	59.4940
 1.0620	59.4970
 1.0630	59.5000
 1.0640	59.5070
 1.0650	59.5090
 1.0660	59.5070
 1.0670	59.5060
 1.0680	59.5040
 1.0690	59.4990
 1.0700	59.4970
 1.0710	59.4960
 1.0720	59.4980
 1.0730	59.5040
 1.0740	59.5040
 1.0750	59.5050
 1.0760	59.5030
 1.0770	59.4960
 1.0780	59.4910
 1.0790	59.4860
 1.0800	59.4830
 1.0810	59.4810
 1.0820	59.4780
 1.0830	59.4790
 1.0840	59.4750
 1.0850	59.4660
 1.0860	59.4580
 1.0870	59.4490
 1.0880	59.4370
 1.0890	59.4270
 1.0900	59.4170
 1.0910	59.4080
 1.0920	59.3990
 1.0930	59.3900
 1.0940	59.3820
 1.0950	59.3710
 1.0960	59.3560
 1.0970	59.3450
 1.0980	59.3350
 1.0990	59.3220
 1.1000	59.3130
 1.1010	59.3000
 1.1020	59.2830
 1.1030	59.2650
 1.1040	59.2490
 1.1050	59.2310
 1.1060	59.2170
 1.1070	59.2070
 1.1080	59.1920
 1.1090	59.1790
 1.1100	59.1630
 1.1110	59.1430
 1.1120	59.1230
 1.1130	59.1020
 1.1140	59.0790
 1.1150	59.0540
 1.1160	59.0280
 1.1170	59.0020
 1.1180	58.9720
 1.1190	58.9430
 1.1200	58.9060
 1.1210	58.8660
 1.1220	58.8270
 1.1230	58.7800
 1.1240	58.7320
 1.1250	58.6760
 1.1260	58.6160
 1.1270	58.5470
 1.1280	58.4720
 1.1290	58.3880
 1.1300	58.2950
 1.1310	58.1960
 1.1320	58.0920
 1.1330	57.9770
 1.1340	57.8580
 1.1350	57.7270
 1.1360	57.5850
 1.1370	57.4340
 1.1380	57.2780
 1.1390	57.1150
 1.1400	56.9480
 1.1410	56.7820
 1.1420	56.6120
 1.1430	56.4380
 1.1440	56.2650
 1.1450	56.0880
 1.1460	55.9160
 1.1470	55.7420
 1.1480	55.5790
 1.1490	55.4180
 1.1500	55.2700
 1.1510	55.1280
 1.1520	54.9940
 1.1530	54.8710
 1.1540	54.7550
 1.1550	54.6450
 1.1560	54.5470
 1.1570	54.4580
 1.1580	54.3770
 1.1590	54.3040
 1.1600	54.2370
 1.1610	54.1750
 1.1620	54.1200
 1.1630	54.0680
 1.1640	54.0210
 1.1650	53.9790
 1.1660	53.9430
 1.1670	53.9080
 1.1680	53.8810
 1.1690	53.8500
 1.1700	53.8240
 1.1710	53.7940
 1.1720	53.7640
 1.1730	53.7330
 1.1740	53.7020
 1.1750	53.6700
 1.1760	53.6350
 1.1770	53.6010
 1.1780	53.5660
 1.1790	53.5290
 1.1800	53.4920
 1.1810	53.4560
 1.1820	53.4180
 1.1830	53.3790
 1.1840	53.3440
 1.1850	53.3090
 1.1860	53.2720
 1.1870	53.2370
 1.1880	53.2040
 1.1890	53.1700
 1.1900	53.1410
 1.1910	53.1170
 1.1920	53.0960
 1.1930	53.0760
 1.1940	53.0600
 1.1950	53.0480
 1.1960	53.0360
 1.1970	53.0260
 1.1980	53.0200
 1.1990	53.0200
 1.2000	53.0240
 1.2010	53.0330
 1.2020	53.0430
 1.2030	53.0540
 1.2040	53.0680
 1.2050	53.0880
 1.2060	53.1130
 1.2070	53.1440
 1.2080	53.1800
 1.2090	53.2190
 1.2100	53.2610
 1.2110	53.3030
 1.2120	53.3460
 1.2130	53.3900
 1.2140	53.4330
 1.2150	53.4810
 1.2160	53.5320
 1.2170	53.5860
 1.2180	53.6390
 1.2190	53.6930
 1.2200	53.7480
 1.2210	53.8030
 1.2220	53.8610
 1.2230	53.9180
 1.2240	53.9700
 1.2250	54.0230
 1.2260	54.0750
 1.2270	54.1260
 1.2280	54.1770
 1.2290	54.2270
 1.2300	54.2720
 1.2310	54.3150
 1.2320	54.3550
 1.2330	54.3940
 1.2340	54.4330
 1.2350	54.4700
 1.2360	54.5070
 1.2370	54.5450
 1.2380	54.5790
 1.2390	54.6100
 1.2400	54.6380
 1.2410	54.6660
 1.2420	54.6940
 1.2430	54.7200
 1.2440	54.7490
 1.2450	54.7730
 1.2460	54.7940
 1.2470	54.8180
 1.2480	54.8400
 1.2490	54.8600
 1.2500	54.8780
 1.2510	54.8930
 1.2520	54.9080
 1.2530	54.9230
 1.2540	54.9380
 1.2550	54.9500
 1.2560	54.9610
 1.2570	54.9710
 1.2580	54.9780
 1.2590	54.9840
 1.2600	54.9920
 1.2610	54.9970
 1.2620	54.9990
 1.2630	55.0020
 1.2640	55.0030
 1.2650	55.0010
 1.2660	54.9970
 1.2670	54.9930
 1.2680	54.9890
 1.2690	54.9860
 1.2700	54.9820
 1.2710	54.9750
 1.2720	54.9660
 1.2730	54.9580
 1.2740	54.9470
 1.2750	54.9350
 1.2760	54.9250
 1.2770	54.9120
 1.2780	54.8960
 1.2790	54.8810
 1.2800	54.8630
 1.2810	54.8410
 1.2820	54.8220
 1.2830	54.8010
 1.2840	54.7780
 1.2850	54.7550
 1.2860	54.7280
 1.2870	54.6980
 1.2880	54.6650
 1.2890	54.6310
 1.2900	54.5960
 1.2910	54.5580
 1.2920	54.5180
 1.2930	54.4740
 1.2940	54.4280
 1.2950	54.3760
 1.2960	54.3240
 1.2970	54.2710
 1.2980	54.2120
 1.2990	54.1510
 1.3000	54.0880
 1.3010	54.0210
 1.3020	53.9510
 1.3030	53.8780
 1.3040	53.8020
 1.3050	53.7220
 1.3060	53.6390
 1.3070	53.5530
 1.3080	53.4640
 1.3090	53.3720
 1.3100	53.2770
 1.3110	53.1790
 1.3120	53.0750
 1.3130	52.9690
 1.3140	52.8600
 1.3150	52.7450
 1.3160	52.6300
 1.3170	52.5140
 1.3180	52.3910
 1.3190	52.2650
 1.3200	52.1340
 1.3210	51.9980
 1.3220	51.8570
 1.3230	51.7130
 1.3240	51.5680
 1.3250	51.4220
 1.3260	51.2730
 1.3270	51.1220
 1.3280	50.9690
 1.3290	50.8090
 1.3300	50.6470
 1.3310	50.4840
 1.3320	50.3180
 1.3330	50.1520
 1.3340	49.9850
 1.3350	49.8170
 1.3360	49.6480
 1.3370	49.4760
 1.3380	49.3030
 1.3390	49.1270
 1.3400	48.9500
 1.3410	48.7780
 1.3420	48.6070
 1.3430	48.4400
 1.3440	48.2730
 1.3450	48.1050
 1.3460	47.9340
 1.3470	47.7670
 1.3480	47.6000
 1.3490	47.4340
 1.3500	47.2720
 1.3510	47.1090
 1.3520	46.9440
 1.3530	46.7820
 1.3540	46.6170
 1.3550	46.4500
 1.3560	46.2840
 1.3570	46.1140
 1.3580	45.9440
 1.3590	45.7740
 1.3600	45.5990
 1.3610	45.4200
 1.3620	45.2360
 1.3630	45.0460
 1.3640	44.8500
 1.3650	44.6460
 1.3660	44.4340
 1.3670	44.2120
 1.3680	43.9790
 1.3690	43.7340
 1.3700	43.4720
 1.3710	43.1950
 1.3720	42.9030
 1.3730	42.5900
 1.3740	42.2640
 1.3750	41.9170
 1.3760	41.5450
 1.3770	41.1510
 1.3780	40.7260
 1.3790	40.2780
 1.3800	39.8060
 1.3810	39.3050
 1.3820	38.7860
 1.3830	38.2460
 1.3840	37.6860
 1.3850	37.1030
 1.3860	36.5070
 1.3870	35.8860
 1.3880	35.2650
 1.3890	34.6310
 1.3900	33.9890
 1.3910	33.3500
 1.3920	32.7050
 1.3930	32.0550
 1.3940	31.4100
 1.3950	30.7640
 1.3960	30.1280
 1.3970	29.5070
 1.3980	28.8990
 1.3990	28.3150
 1.4000	27.7460
 1.4010	27.1930
 1.4020	26.6650
 1.4030	26.1540
 1.4040	25.6670
 1.4050	25.2060
 1.4060	24.7660
 1.4070	24.3540
 1.4080	23.9670
 1.4090	23.6010
 1.4100	23.2630
 1.4110	22.9450
 1.4120	22.6480
 1.4130	22.3750
 1.4140	22.1230
 1.4150	21.8930
 1.4160	21.6840
 1.4170	21.4900
 1.4180	21.3150
 1.4190	21.1530
 1.4200	21.0070
 1.4210	20.8750
 1.4220	20.7560
 1.4230	20.6480
 1.4240	20.5510
 1.4250	20.4640
 1.4260	20.3860
 1.4270	20.3170
 1.4280	20.2590
 1.4290	20.2060
 1.4300	20.1630
 1.4310	20.1250
 1.4320	20.0940
 1.4330	20.0690
 1.4340	20.0510
 1.4350	20.0370
 1.4360	20.0280
 1.4370	20.0240
 1.4380	20.0240
 1.4390	20.0270
 1.4400	20.0340
 1.4410	20.0460
 1.4420	20.0590
 1.4430	20.0750
 1.4440	20.0940
 1.4450	20.1150
 1.4460	20.1370
 1.4470	20.1620
 1.4480	20.1880
 1.4490	20.2150
 1.4500	20.2440
 1.4510	20.2740
 1.4520	20.3050
 1.4530	20.3380
 1.4540	20.3720
 1.4550	20.4080
 1.4560	20.4460
 1.4570	20.4870
 1.4580	20.5310
 1.4590	20.5800
 1.4600	20.6320
 1.4610	20.6890
 1.4620	20.7500
 1.4630	20.8170
 1.4640	20.8890
 1.4650	20.9650
 1.4660	21.0480
 1.4670	21.1350
 1.4680	21.2270
 1.4690	21.3250
