Name: Salvia leucophylla 3
Type: vegetation
Class: Shrub
Genus: Salvia
Species: leucophylla
Sample No.: VH289
Owner: UCSB
Wavelength Range: VSWIR
Origin: 34.698; -120.0477; WGS84
Collection Date: 11/2/2013
Description: Samples were collected as part of the HyspIRI Airborne Campaign. 48 individual plants were sampled in three times in 2013 - spring  summer  and fall. The name of the sample includes a 1  2  or 3 which references a different individual of the species. Samples were taken to JPL and processed within 48 hours of collection. The same leaves were processed in the Nicolet and then measured using the ASD.
Measurement: Bidirectional reflectance
First Column: X
Second Column: Y
X Units: Wavelength (micrometers)
Y Units: Reflectance (percentage)
First X Value: 0.35
Last X Value: 2.5
Number of X Values: 2151
Additional Information: vegetation.shrub.salvia.leucophylla.vswir.vh289.ucsb.asd.ancillary.txt

 0.3500	 6.6560
 0.3510	 7.1440
 0.3520	 7.3410
 0.3530	 7.2280
 0.3540	 7.1180
 0.3550	 7.4610
 0.3560	 7.4380
 0.3570	 7.2460
 0.3580	 7.5030
 0.3590	 7.5870
 0.3600	 7.5470
 0.3610	 7.5040
 0.3620	 7.5710
 0.3630	 7.7290
 0.3640	 7.8830
 0.3650	 7.9370
 0.3660	 7.8380
 0.3670	 7.9180
 0.3680	 8.0970
 0.3690	 8.0480
 0.3700	 8.1860
 0.3710	 8.3410
 0.3720	 8.4050
 0.3730	 8.5240
 0.3740	 8.5530
 0.3750	 8.5680
 0.3760	 8.6750
 0.3770	 8.7530
 0.3780	 8.9430
 0.3790	 9.1600
 0.3800	 9.1490
 0.3810	 9.2320
 0.3820	 9.4230
 0.3830	 9.6260
 0.3840	 9.6140
 0.3850	 9.6330
 0.3860	 9.7350
 0.3870	 9.8830
 0.3880	10.0130
 0.3890	10.0750
 0.3900	10.0950
 0.3910	10.1750
 0.3920	10.2260
 0.3930	10.2970
 0.3940	10.4190
 0.3950	10.5230
 0.3960	10.5950
 0.3970	10.6380
 0.3980	10.6750
 0.3990	10.8060
 0.4000	10.9050
 0.4010	10.9310
 0.4020	10.9750
 0.4030	11.1120
 0.4040	11.2350
 0.4050	11.2570
 0.4060	11.3090
 0.4070	11.3930
 0.4080	11.4720
 0.4090	11.4960
 0.4100	11.5450
 0.4110	11.6320
 0.4120	11.7270
 0.4130	11.7340
 0.4140	11.7910
 0.4150	11.8870
 0.4160	11.9660
 0.4170	11.9930
 0.4180	12.0500
 0.4190	12.1370
 0.4200	12.1830
 0.4210	12.2460
 0.4220	12.3090
 0.4230	12.3590
 0.4240	12.4430
 0.4250	12.5130
 0.4260	12.5620
 0.4270	12.6080
 0.4280	12.6830
 0.4290	12.7630
 0.4300	12.8330
 0.4310	12.8900
 0.4320	12.9630
 0.4330	13.0310
 0.4340	13.0780
 0.4350	13.1450
 0.4360	13.2120
 0.4370	13.2720
 0.4380	13.3280
 0.4390	13.3880
 0.4400	13.4410
 0.4410	13.4850
 0.4420	13.5380
 0.4430	13.5960
 0.4440	13.6570
 0.4450	13.7140
 0.4460	13.7550
 0.4470	13.7930
 0.4480	13.8360
 0.4490	13.8860
 0.4500	13.9260
 0.4510	13.9760
 0.4520	14.0450
 0.4530	14.0720
 0.4540	14.1140
 0.4550	14.1700
 0.4560	14.2040
 0.4570	14.2320
 0.4580	14.2750
 0.4590	14.3310
 0.4600	14.3640
 0.4610	14.3910
 0.4620	14.4270
 0.4630	14.4800
 0.4640	14.5260
 0.4650	14.5580
 0.4660	14.5860
 0.4670	14.6350
 0.4680	14.6610
 0.4690	14.6860
 0.4700	14.7310
 0.4710	14.7760
 0.4720	14.8140
 0.4730	14.8420
 0.4740	14.8580
 0.4750	14.9050
 0.4760	14.9440
 0.4770	14.9610
 0.4780	14.9910
 0.4790	15.0250
 0.4800	15.0590
 0.4810	15.0920
 0.4820	15.1170
 0.4830	15.1430
 0.4840	15.1760
 0.4850	15.2160
 0.4860	15.2450
 0.4870	15.2740
 0.4880	15.3100
 0.4890	15.3410
 0.4900	15.3770
 0.4910	15.4180
 0.4920	15.4580
 0.4930	15.4870
 0.4940	15.5250
 0.4950	15.5730
 0.4960	15.6040
 0.4970	15.6520
 0.4980	15.7100
 0.4990	15.7620
 0.5000	15.8050
 0.5010	15.8510
 0.5020	15.9090
 0.5030	15.9770
 0.5040	16.0340
 0.5050	16.0860
 0.5060	16.1430
 0.5070	16.2210
 0.5080	16.3000
 0.5090	16.3760
 0.5100	16.4520
 0.5110	16.5370
 0.5120	16.6300
 0.5130	16.7270
 0.5140	16.8220
 0.5150	16.9140
 0.5160	17.0030
 0.5170	17.0970
 0.5180	17.2020
 0.5190	17.3150
 0.5200	17.4290
 0.5210	17.5360
 0.5220	17.6330
 0.5230	17.7380
 0.5240	17.8550
 0.5250	17.9590
 0.5260	18.0620
 0.5270	18.1660
 0.5280	18.2680
 0.5290	18.3640
 0.5300	18.4620
 0.5310	18.5650
 0.5320	18.6670
 0.5330	18.7620
 0.5340	18.8580
 0.5350	18.9590
 0.5360	19.0490
 0.5370	19.1320
 0.5380	19.2140
 0.5390	19.3050
 0.5400	19.3970
 0.5410	19.4850
 0.5420	19.5660
 0.5430	19.6480
 0.5440	19.7300
 0.5450	19.8110
 0.5460	19.8870
 0.5470	19.9710
 0.5480	20.0520
 0.5490	20.1270
 0.5500	20.2000
 0.5510	20.2780
 0.5520	20.3590
 0.5530	20.4350
 0.5540	20.5020
 0.5550	20.5730
 0.5560	20.6450
 0.5570	20.7050
 0.5580	20.7650
 0.5590	20.8240
 0.5600	20.8800
 0.5610	20.9210
 0.5620	20.9700
 0.5630	21.0240
 0.5640	21.0730
 0.5650	21.1070
 0.5660	21.1360
 0.5670	21.1710
 0.5680	21.2250
 0.5690	21.2550
 0.5700	21.2780
 0.5710	21.3170
 0.5720	21.3660
 0.5730	21.4130
 0.5740	21.4570
 0.5750	21.5020
 0.5760	21.5380
 0.5770	21.5670
 0.5780	21.5960
 0.5790	21.6410
 0.5800	21.6800
 0.5810	21.7170
 0.5820	21.7650
 0.5830	21.8210
 0.5840	21.8710
 0.5850	21.9140
 0.5860	21.9610
 0.5870	22.0130
 0.5880	22.0620
 0.5890	22.1040
 0.5900	22.1390
 0.5910	22.1680
 0.5920	22.2010
 0.5930	22.2530
 0.5940	22.3030
 0.5950	22.3440
 0.5960	22.3770
 0.5970	22.4100
 0.5980	22.4560
 0.5990	22.5070
 0.6000	22.5540
 0.6010	22.6000
 0.6020	22.6460
 0.6030	22.6880
 0.6040	22.7230
 0.6050	22.7640
 0.6060	22.8030
 0.6070	22.8350
 0.6080	22.8710
 0.6090	22.9110
 0.6100	22.9490
 0.6110	22.9800
 0.6120	23.0120
 0.6130	23.0500
 0.6140	23.0920
 0.6150	23.1280
 0.6160	23.1660
 0.6170	23.2040
 0.6180	23.2390
 0.6190	23.2820
 0.6200	23.3240
 0.6210	23.3640
 0.6220	23.4060
 0.6230	23.4570
 0.6240	23.5100
 0.6250	23.5610
 0.6260	23.6100
 0.6270	23.6630
 0.6280	23.7180
 0.6290	23.7740
 0.6300	23.8270
 0.6310	23.8830
 0.6320	23.9340
 0.6330	23.9690
 0.6340	24.0090
 0.6350	24.0460
 0.6360	24.0710
 0.6370	24.0920
 0.6380	24.0950
 0.6390	24.0900
 0.6400	24.0930
 0.6410	24.0740
 0.6420	24.0450
 0.6430	24.0180
 0.6440	23.9980
 0.6450	23.9700
 0.6460	23.9430
 0.6470	23.9280
 0.6480	23.9150
 0.6490	23.9100
 0.6500	23.9120
 0.6510	23.9100
 0.6520	23.9240
 0.6530	23.9450
 0.6540	23.9620
 0.6550	23.9730
 0.6560	23.9790
 0.6570	23.9840
 0.6580	23.9910
 0.6590	23.9920
 0.6600	23.9810
 0.6610	23.9560
 0.6620	23.9220
 0.6630	23.9040
 0.6640	23.8800
 0.6650	23.8320
 0.6660	23.8040
 0.6670	23.7910
 0.6680	23.7820
 0.6690	23.7640
 0.6700	23.7610
 0.6710	23.7640
 0.6720	23.7700
 0.6730	23.7880
 0.6740	23.8110
 0.6750	23.8430
 0.6760	23.8840
 0.6770	23.9270
 0.6780	23.9750
 0.6790	24.0330
 0.6800	24.1070
 0.6810	24.1870
 0.6820	24.2890
 0.6830	24.4210
 0.6840	24.5660
 0.6850	24.7500
 0.6860	24.9630
 0.6870	25.1920
 0.6880	25.4650
 0.6890	25.7720
 0.6900	26.1040
 0.6910	26.4570
 0.6920	26.8470
 0.6930	27.2520
 0.6940	27.6600
 0.6950	28.0910
 0.6960	28.5330
 0.6970	28.9770
 0.6980	29.4150
 0.6990	29.8450
 0.7000	30.2770
 0.7010	30.7080
 0.7020	31.1260
 0.7030	31.5270
 0.7040	31.9140
 0.7050	32.2870
 0.7060	32.6370
 0.7070	32.9940
 0.7080	33.3360
 0.7090	33.6360
 0.7100	33.9360
 0.7110	34.2270
 0.7120	34.4990
 0.7130	34.7450
 0.7140	34.9920
 0.7150	35.2320
 0.7160	35.4580
 0.7170	35.6730
 0.7180	35.8870
 0.7190	36.0900
 0.7200	36.2700
 0.7210	36.4480
 0.7220	36.6260
 0.7230	36.7990
 0.7240	36.9570
 0.7250	37.1120
 0.7260	37.2650
 0.7270	37.4130
 0.7280	37.5440
 0.7290	37.6770
 0.7300	37.8100
 0.7310	37.9330
 0.7320	38.0600
 0.7330	38.1810
 0.7340	38.2950
 0.7350	38.4130
 0.7360	38.5070
 0.7370	38.6100
 0.7380	38.7380
 0.7390	38.8280
 0.7400	38.9210
 0.7410	39.0230
 0.7420	39.1270
 0.7430	39.2140
 0.7440	39.3070
 0.7450	39.4040
 0.7460	39.4840
 0.7470	39.5670
 0.7480	39.6540
 0.7490	39.7420
 0.7500	39.8270
 0.7510	39.9060
 0.7520	39.9810
 0.7530	40.0570
 0.7540	40.1350
 0.7550	40.2170
 0.7560	40.2990
 0.7570	40.3680
 0.7580	40.4320
 0.7590	40.5110
 0.7600	40.6020
 0.7610	40.6570
 0.7620	40.7190
 0.7630	40.7920
 0.7640	40.8680
 0.7650	40.9350
 0.7660	41.0030
 0.7670	41.0740
 0.7680	41.1440
 0.7690	41.2050
 0.7700	41.2680
 0.7710	41.3380
 0.7720	41.4070
 0.7730	41.4690
 0.7740	41.5290
 0.7750	41.5930
 0.7760	41.6560
 0.7770	41.7200
 0.7780	41.7870
 0.7790	41.8600
 0.7800	41.9300
 0.7810	41.9870
 0.7820	42.0430
 0.7830	42.1220
 0.7840	42.1960
 0.7850	42.2570
 0.7860	42.3070
 0.7870	42.3680
 0.7880	42.4370
 0.7890	42.5060
 0.7900	42.5700
 0.7910	42.6290
 0.7920	42.6850
 0.7930	42.7410
 0.7940	42.8020
 0.7950	42.8790
 0.7960	42.9560
 0.7970	43.0230
 0.7980	43.0860
 0.7990	43.1580
 0.8000	43.2220
 0.8010	43.2720
 0.8020	43.3390
 0.8030	43.4110
 0.8040	43.4800
 0.8050	43.5450
 0.8060	43.6140
 0.8070	43.6850
 0.8080	43.7500
 0.8090	43.8000
 0.8100	43.8790
 0.8110	43.9480
 0.8120	43.9910
 0.8130	44.0560
 0.8140	44.1350
 0.8150	44.2160
 0.8160	44.2850
 0.8170	44.3320
 0.8180	44.3920
 0.8190	44.4640
 0.8200	44.5290
 0.8210	44.5920
 0.8220	44.6580
 0.8230	44.7240
 0.8240	44.7790
 0.8250	44.8500
 0.8260	44.9200
 0.8270	44.9790
 0.8280	45.0410
 0.8290	45.1070
 0.8300	45.1740
 0.8310	45.2380
 0.8320	45.2880
 0.8330	45.3370
 0.8340	45.3970
 0.8350	45.4720
 0.8360	45.5400
 0.8370	45.5840
 0.8380	45.6230
 0.8390	45.7000
 0.8400	45.7810
 0.8410	45.8440
 0.8420	45.8930
 0.8430	45.9540
 0.8440	46.0150
 0.8450	46.0710
 0.8460	46.1250
 0.8470	46.1920
 0.8480	46.2500
 0.8490	46.3000
 0.8500	46.3540
 0.8510	46.4240
 0.8520	46.4910
 0.8530	46.5460
 0.8540	46.5870
 0.8550	46.6300
 0.8560	46.6910
 0.8570	46.7610
 0.8580	46.8140
 0.8590	46.8660
 0.8600	46.9090
 0.8610	46.9490
 0.8620	47.0170
 0.8630	47.0820
 0.8640	47.1320
 0.8650	47.1690
 0.8660	47.2250
 0.8670	47.2610
 0.8680	47.3010
 0.8690	47.3720
 0.8700	47.4010
 0.8710	47.4270
 0.8720	47.4750
 0.8730	47.5490
 0.8740	47.6110
 0.8750	47.6600
 0.8760	47.7050
 0.8770	47.7600
 0.8780	47.7890
 0.8790	47.8220
 0.8800	47.8760
 0.8810	47.9360
 0.8820	47.9790
 0.8830	48.0110
 0.8840	48.0440
 0.8850	48.0800
 0.8860	48.1240
 0.8870	48.1660
 0.8880	48.1990
 0.8890	48.2500
 0.8900	48.2920
 0.8910	48.3230
 0.8920	48.3530
 0.8930	48.3980
 0.8940	48.4300
 0.8950	48.4580
 0.8960	48.5110
 0.8970	48.5470
 0.8980	48.5880
 0.8990	48.6350
 0.9000	48.6700
 0.9010	48.6890
 0.9020	48.7130
 0.9030	48.7520
 0.9040	48.8000
 0.9050	48.8400
 0.9060	48.8760
 0.9070	48.9110
 0.9080	48.9370
 0.9090	48.9550
 0.9100	48.9840
 0.9110	49.0290
 0.9120	49.0620
 0.9130	49.0960
 0.9140	49.1320
 0.9150	49.1690
 0.9160	49.2080
 0.9170	49.2460
 0.9180	49.2870
 0.9190	49.3350
 0.9200	49.3840
 0.9210	49.4260
 0.9220	49.4710
 0.9230	49.5270
 0.9240	49.5440
 0.9250	49.5460
 0.9260	49.5640
 0.9270	49.6250
 0.9280	49.6780
 0.9290	49.7040
 0.9300	49.7170
 0.9310	49.7510
 0.9320	49.7980
 0.9330	49.8490
 0.9340	49.8870
 0.9350	49.8920
 0.9360	49.9260
 0.9370	49.9510
 0.9380	49.9600
 0.9390	50.0090
 0.9400	50.0540
 0.9410	50.0800
 0.9420	50.0920
 0.9430	50.1230
 0.9440	50.1460
 0.9450	50.1570
 0.9460	50.1650
 0.9470	50.1950
 0.9480	50.2260
 0.9490	50.2270
 0.9500	50.2030
 0.9510	50.2370
 0.9520	50.2680
 0.9530	50.2750
 0.9540	50.2650
 0.9550	50.2800
 0.9560	50.2910
 0.9570	50.2940
 0.9580	50.2950
 0.9590	50.3110
 0.9600	50.3100
 0.9610	50.3140
 0.9620	50.3510
 0.9630	50.3820
 0.9640	50.3990
 0.9650	50.4200
 0.9660	50.4580
 0.9670	50.4710
 0.9680	50.5000
 0.9690	50.5340
 0.9700	50.5470
 0.9710	50.5790
 0.9720	50.5940
 0.9730	50.6070
 0.9740	50.6500
 0.9750	50.7050
 0.9760	50.7330
 0.9770	50.7590
 0.9780	50.8170
 0.9790	50.8510
 0.9800	50.8660
 0.9810	50.8930
 0.9820	50.9520
 0.9830	50.9790
 0.9840	50.9960
 0.9850	51.0460
 0.9860	51.1450
 0.9870	51.1590
 0.9880	51.1950
 0.9890	51.2500
 0.9900	51.2780
 0.9910	51.3200
 0.9920	51.3780
 0.9930	51.4320
 0.9940	51.4670
 0.9950	51.5170
 0.9960	51.5530
 0.9970	51.5760
 0.9980	51.6080
 0.9990	51.6870
 1.0000	51.7940
 1.0010	51.9010
 1.0020	52.0100
 1.0030	52.0600
 1.0040	52.1100
 1.0050	52.1530
 1.0060	52.1920
 1.0070	52.2350
 1.0080	52.2800
 1.0090	52.3240
 1.0100	52.3750
 1.0110	52.4390
 1.0120	52.4910
 1.0130	52.5380
 1.0140	52.5890
 1.0150	52.6360
 1.0160	52.6820
 1.0170	52.7380
 1.0180	52.7870
 1.0190	52.8280
 1.0200	52.8690
 1.0210	52.9090
 1.0220	52.9580
 1.0230	53.0070
 1.0240	53.0650
 1.0250	53.1130
 1.0260	53.1580
 1.0270	53.2040
 1.0280	53.2470
 1.0290	53.2930
 1.0300	53.3410
 1.0310	53.3870
 1.0320	53.4350
 1.0330	53.4790
 1.0340	53.5220
 1.0350	53.5610
 1.0360	53.6020
 1.0370	53.6410
 1.0380	53.6840
 1.0390	53.7360
 1.0400	53.7750
 1.0410	53.8060
 1.0420	53.8440
 1.0430	53.8750
 1.0440	53.9110
 1.0450	53.9550
 1.0460	53.9970
 1.0470	54.0350
 1.0480	54.0750
 1.0490	54.1200
 1.0500	54.1580
 1.0510	54.1910
 1.0520	54.2270
 1.0530	54.2600
 1.0540	54.2860
 1.0550	54.3240
 1.0560	54.3690
 1.0570	54.4050
 1.0580	54.4450
 1.0590	54.4780
 1.0600	54.4970
 1.0610	54.5280
 1.0620	54.5690
 1.0630	54.6010
 1.0640	54.6310
 1.0650	54.6630
 1.0660	54.6960
 1.0670	54.7240
 1.0680	54.7490
 1.0690	54.7740
 1.0700	54.8020
 1.0710	54.8270
 1.0720	54.8540
 1.0730	54.8900
 1.0740	54.9200
 1.0750	54.9460
 1.0760	54.9740
 1.0770	55.0080
 1.0780	55.0370
 1.0790	55.0610
 1.0800	55.0880
 1.0810	55.1180
 1.0820	55.1440
 1.0830	55.1730
 1.0840	55.1950
 1.0850	55.2130
 1.0860	55.2230
 1.0870	55.2400
 1.0880	55.2560
 1.0890	55.2730
 1.0900	55.2950
 1.0910	55.3140
 1.0920	55.3300
 1.0930	55.3480
 1.0940	55.3670
 1.0950	55.3850
 1.0960	55.4020
 1.0970	55.4170
 1.0980	55.4280
 1.0990	55.4430
 1.1000	55.4590
 1.1010	55.4740
 1.1020	55.4910
 1.1030	55.5100
 1.1040	55.5240
 1.1050	55.5340
 1.1060	55.5460
 1.1070	55.5570
 1.1080	55.5680
 1.1090	55.5800
 1.1100	55.5900
 1.1110	55.5960
 1.1120	55.6060
 1.1130	55.6190
 1.1140	55.6300
 1.1150	55.6450
 1.1160	55.6550
 1.1170	55.6630
 1.1180	55.6650
 1.1190	55.6610
 1.1200	55.6580
 1.1210	55.6550
 1.1220	55.6480
 1.1230	55.6520
 1.1240	55.6510
 1.1250	55.6420
 1.1260	55.6300
 1.1270	55.6120
 1.1280	55.5840
 1.1290	55.5550
 1.1300	55.5260
 1.1310	55.4880
 1.1320	55.4450
 1.1330	55.3960
 1.1340	55.3390
 1.1350	55.2780
 1.1360	55.2110
 1.1370	55.1440
 1.1380	55.0760
 1.1390	55.0040
 1.1400	54.9310
 1.1410	54.8550
 1.1420	54.7710
 1.1430	54.6880
 1.1440	54.6060
 1.1450	54.5240
 1.1460	54.4430
 1.1470	54.3620
 1.1480	54.2840
 1.1490	54.2040
 1.1500	54.1330
 1.1510	54.0680
 1.1520	54.0030
 1.1530	53.9420
 1.1540	53.8860
 1.1550	53.8320
 1.1560	53.7800
 1.1570	53.7370
 1.1580	53.6970
 1.1590	53.6590
 1.1600	53.6290
 1.1610	53.6010
 1.1620	53.5720
 1.1630	53.5440
 1.1640	53.5170
 1.1650	53.4900
 1.1660	53.4640
 1.1670	53.4370
 1.1680	53.4100
 1.1690	53.3840
 1.1700	53.3620
 1.1710	53.3360
 1.1720	53.3100
 1.1730	53.2850
 1.1740	53.2590
 1.1750	53.2300
 1.1760	53.2020
 1.1770	53.1730
 1.1780	53.1380
 1.1790	53.1020
 1.1800	53.0690
 1.1810	53.0370
 1.1820	53.0080
 1.1830	52.9850
 1.1840	52.9620
 1.1850	52.9420
 1.1860	52.9290
 1.1870	52.9210
 1.1880	52.9200
 1.1890	52.9260
 1.1900	52.9360
 1.1910	52.9550
 1.1920	52.9740
 1.1930	52.9990
 1.1940	53.0270
 1.1950	53.0580
 1.1960	53.0930
 1.1970	53.1330
 1.1980	53.1710
 1.1990	53.2110
 1.2000	53.2550
 1.2010	53.3010
 1.2020	53.3500
 1.2030	53.3960
 1.2040	53.4450
 1.2050	53.4970
 1.2060	53.5500
 1.2070	53.6070
 1.2080	53.6640
 1.2090	53.7270
 1.2100	53.7940
 1.2110	53.8580
 1.2120	53.9220
 1.2130	53.9900
 1.2140	54.0520
 1.2150	54.1230
 1.2160	54.2010
 1.2170	54.2810
 1.2180	54.3600
 1.2190	54.4410
 1.2200	54.5210
 1.2210	54.6010
 1.2220	54.6790
 1.2230	54.7540
 1.2240	54.8310
 1.2250	54.9070
 1.2260	54.9820
 1.2270	55.0590
 1.2280	55.1290
 1.2290	55.1950
 1.2300	55.2610
 1.2310	55.3270
 1.2320	55.3950
 1.2330	55.4630
 1.2340	55.5260
 1.2350	55.5860
 1.2360	55.6420
 1.2370	55.6930
 1.2380	55.7450
 1.2390	55.7970
 1.2400	55.8530
 1.2410	55.9070
 1.2420	55.9590
 1.2430	56.0100
 1.2440	56.0590
 1.2450	56.1090
 1.2460	56.1590
 1.2470	56.2030
 1.2480	56.2440
 1.2490	56.2850
 1.2500	56.3240
 1.2510	56.3660
 1.2520	56.4080
 1.2530	56.4490
 1.2540	56.4890
 1.2550	56.5250
 1.2560	56.5610
 1.2570	56.5980
 1.2580	56.6320
 1.2590	56.6660
 1.2600	56.7000
 1.2610	56.7310
 1.2620	56.7570
 1.2630	56.7860
 1.2640	56.8130
 1.2650	56.8380
 1.2660	56.8630
 1.2670	56.8870
 1.2680	56.9120
 1.2690	56.9360
 1.2700	56.9640
 1.2710	56.9910
 1.2720	57.0130
 1.2730	57.0370
 1.2740	57.0590
 1.2750	57.0780
 1.2760	57.0980
 1.2770	57.1150
 1.2780	57.1320
 1.2790	57.1520
 1.2800	57.1730
 1.2810	57.1910
 1.2820	57.2100
 1.2830	57.2260
 1.2840	57.2390
 1.2850	57.2550
 1.2860	57.2630
 1.2870	57.2690
 1.2880	57.2720
 1.2890	57.2750
 1.2900	57.2740
 1.2910	57.2770
 1.2920	57.2760
 1.2930	57.2740
 1.2940	57.2700
 1.2950	57.2620
 1.2960	57.2560
 1.2970	57.2480
 1.2980	57.2360
 1.2990	57.2220
 1.3000	57.2030
 1.3010	57.1820
 1.3020	57.1620
 1.3030	57.1400
 1.3040	57.1170
 1.3050	57.0940
 1.3060	57.0690
 1.3070	57.0380
 1.3080	57.0020
 1.3090	56.9580
 1.3100	56.9110
 1.3110	56.8660
 1.3120	56.8200
 1.3130	56.7790
 1.3140	56.7330
 1.3150	56.6820
 1.3160	56.6300
 1.3170	56.5760
 1.3180	56.5170
 1.3190	56.4540
 1.3200	56.3940
 1.3210	56.3330
 1.3220	56.2680
 1.3230	56.1980
 1.3240	56.1230
 1.3250	56.0420
 1.3260	55.9600
 1.3270	55.8810
 1.3280	55.8040
 1.3290	55.7270
 1.3300	55.6500
 1.3310	55.5650
 1.3320	55.4770
 1.3330	55.3850
 1.3340	55.2900
 1.3350	55.1950
 1.3360	55.1000
 1.3370	55.0030
 1.3380	54.9080
 1.3390	54.8100
 1.3400	54.7100
 1.3410	54.6140
 1.3420	54.5170
 1.3430	54.4170
 1.3440	54.3160
 1.3450	54.2140
 1.3460	54.1060
 1.3470	54.0020
 1.3480	53.8970
 1.3490	53.7930
 1.3500	53.6900
 1.3510	53.5850
 1.3520	53.4790
 1.3530	53.3720
 1.3540	53.2600
 1.3550	53.1490
 1.3560	53.0400
 1.3570	52.9290
 1.3580	52.8230
 1.3590	52.7160
 1.3600	52.6080
 1.3610	52.4980
 1.3620	52.3870
 1.3630	52.2810
 1.3640	52.1720
 1.3650	52.0560
 1.3660	51.9410
 1.3670	51.8150
 1.3680	51.6800
 1.3690	51.5450
 1.3700	51.4000
 1.3710	51.2480
 1.3720	51.0900
 1.3730	50.9220
 1.3740	50.7450
 1.3750	50.5560
 1.3760	50.3550
 1.3770	50.1450
 1.3780	49.9160
 1.3790	49.6760
 1.3800	49.4230
 1.3810	49.1570
 1.3820	48.8800
 1.3830	48.5930
 1.3840	48.2920
 1.3850	47.9810
 1.3860	47.6570
 1.3870	47.3190
 1.3880	46.9780
 1.3890	46.6260
 1.3900	46.2650
 1.3910	45.9060
 1.3920	45.5400
 1.3930	45.1700
 1.3940	44.8000
 1.3950	44.4240
 1.3960	44.0500
 1.3970	43.6800
 1.3980	43.3120
 1.3990	42.9520
 1.4000	42.5960
 1.4010	42.2420
 1.4020	41.8980
 1.4030	41.5620
 1.4040	41.2340
 1.4050	40.9180
 1.4060	40.6070
 1.4070	40.3110
 1.4080	40.0260
 1.4090	39.7510
 1.4100	39.4930
 1.4110	39.2480
 1.4120	39.0140
 1.4130	38.7960
 1.4140	38.5910
 1.4150	38.3990
 1.4160	38.2220
 1.4170	38.0590
 1.4180	37.9060
 1.4190	37.7620
 1.4200	37.6280
 1.4210	37.5040
 1.4220	37.3890
 1.4230	37.2870
 1.4240	37.1930
 1.4250	37.1070
 1.4260	37.0290
 1.4270	36.9560
 1.4280	36.8890
 1.4290	36.8280
 1.4300	36.7730
 1.4310	36.7260
 1.4320	36.6880
 1.4330	36.6540
 1.4340	36.6280
 1.4350	36.6040
 1.4360	36.5860
 1.4370	36.5730
 1.4380	36.5630
 1.4390	36.5590
 1.4400	36.5590
 1.4410	36.5600
 1.4420	36.5660
 1.4430	36.5740
 1.4440	36.5790
 1.4450	36.5870
 1.4460	36.5960
 1.4470	36.6070
 1.4480	36.6230
 1.4490	36.6410
 1.4500	36.6600
 1.4510	36.6810
 1.4520	36.7030
 1.4530	36.7280
 1.4540	36.7570
 1.4550	36.7860
 1.4560	36.8180
 1.4570	36.8490
 1.4580	36.8800
 1.4590	36.9160
 1.4600	36.9560
 1.4610	37.0010
 1.4620	37.0520
 1.4630	37.1050
 1.4640	37.1590
 1.4650	37.2170
 1.4660	37.2780
 1.4670	37.3420
 1.4680	37.4130
 1.4690	37.4860
 1.4700	37.5580
