Name: Fagus grandifolia
Type: Vegetation
Class: Tree
Genus: Fagus
Species: grandifolia
Sample No.: FAGR-1-41
Owner: UCSB
Wavelength Range: VSWIR
Origin: USA; Massachusetts; Harvard Forest
Collection Date: 7/8/2013
Description: Samples were collected as part of NSF Macrosystem Biology proposal titled: Collaborative Research: Thermal controls on ecosystem metabolism and function: scaling from leaves to canopies to regions. Samples were collected and overnighted to JPL facilities for processing. The same leaves were processed in the Nicolet and then measured using the ASD.
Measurement: Bidirectional reflectance
First Column: X
Second Column: Y
X Units: Wavelength (micrometers)
Y Units: Reflectance (percentage)
First X Value: 0.35
Last X Value: 2.5
Number of X Values: 2151
Additional Information: vegetation.tree.fagus.grandifolia.vswir.fagr-1-41.ucsb.asd.ancillary.txt

 0.3500	 6.7540
 0.3510	 6.6270
 0.3520	 6.6810
 0.3530	 6.7850
 0.3540	 6.8450
 0.3550	 6.9800
 0.3560	 7.0380
 0.3570	 6.9880
 0.3580	 6.8700
 0.3590	 6.6970
 0.3600	 6.7420
 0.3610	 6.9530
 0.3620	 6.8040
 0.3630	 6.6560
 0.3640	 6.5850
 0.3650	 6.5970
 0.3660	 6.7380
 0.3670	 6.8570
 0.3680	 6.8590
 0.3690	 6.7210
 0.3700	 6.6930
 0.3710	 6.7160
 0.3720	 6.7140
 0.3730	 6.6720
 0.3740	 6.5940
 0.3750	 6.5520
 0.3760	 6.6000
 0.3770	 6.5910
 0.3780	 6.6410
 0.3790	 6.7620
 0.3800	 6.8570
 0.3810	 6.7420
 0.3820	 6.6000
 0.3830	 6.5840
 0.3840	 6.6390
 0.3850	 6.7260
 0.3860	 6.7680
 0.3870	 6.7140
 0.3880	 6.7270
 0.3890	 6.7650
 0.3900	 6.7890
 0.3910	 6.7800
 0.3920	 6.7610
 0.3930	 6.7510
 0.3940	 6.7530
 0.3950	 6.7630
 0.3960	 6.6880
 0.3970	 6.6450
 0.3980	 6.7860
 0.3990	 6.7790
 0.4000	 6.7530
 0.4010	 6.7700
 0.4020	 6.7480
 0.4030	 6.8200
 0.4040	 6.8400
 0.4050	 6.7120
 0.4060	 6.7340
 0.4070	 6.7410
 0.4080	 6.7210
 0.4090	 6.7600
 0.4100	 6.7780
 0.4110	 6.7690
 0.4120	 6.7530
 0.4130	 6.7780
 0.4140	 6.7950
 0.4150	 6.8060
 0.4160	 6.8150
 0.4170	 6.7790
 0.4180	 6.7590
 0.4190	 6.7600
 0.4200	 6.7400
 0.4210	 6.7620
 0.4220	 6.7850
 0.4230	 6.7740
 0.4240	 6.7490
 0.4250	 6.7380
 0.4260	 6.7420
 0.4270	 6.7510
 0.4280	 6.7670
 0.4290	 6.7610
 0.4300	 6.7350
 0.4310	 6.7390
 0.4320	 6.7210
 0.4330	 6.7040
 0.4340	 6.7110
 0.4350	 6.7200
 0.4360	 6.7250
 0.4370	 6.7230
 0.4380	 6.7150
 0.4390	 6.7220
 0.4400	 6.7220
 0.4410	 6.7020
 0.4420	 6.6920
 0.4430	 6.6790
 0.4440	 6.6800
 0.4450	 6.7110
 0.4460	 6.6920
 0.4470	 6.6820
 0.4480	 6.6990
 0.4490	 6.7000
 0.4500	 6.6980
 0.4510	 6.7090
 0.4520	 6.7300
 0.4530	 6.6950
 0.4540	 6.6890
 0.4550	 6.7160
 0.4560	 6.7230
 0.4570	 6.7140
 0.4580	 6.7140
 0.4590	 6.7250
 0.4600	 6.7150
 0.4610	 6.7100
 0.4620	 6.7110
 0.4630	 6.7140
 0.4640	 6.6980
 0.4650	 6.6860
 0.4660	 6.6870
 0.4670	 6.6940
 0.4680	 6.6890
 0.4690	 6.6820
 0.4700	 6.6810
 0.4710	 6.6760
 0.4720	 6.6640
 0.4730	 6.6570
 0.4740	 6.6670
 0.4750	 6.6760
 0.4760	 6.6810
 0.4770	 6.6810
 0.4780	 6.6730
 0.4790	 6.6760
 0.4800	 6.6820
 0.4810	 6.6810
 0.4820	 6.6690
 0.4830	 6.6680
 0.4840	 6.6760
 0.4850	 6.6740
 0.4860	 6.6720
 0.4870	 6.6780
 0.4880	 6.6930
 0.4890	 6.7030
 0.4900	 6.7090
 0.4910	 6.7120
 0.4920	 6.7160
 0.4930	 6.7370
 0.4940	 6.7610
 0.4950	 6.7750
 0.4960	 6.7730
 0.4970	 6.7930
 0.4980	 6.8280
 0.4990	 6.8630
 0.5000	 6.8850
 0.5010	 6.9160
 0.5020	 6.9590
 0.5030	 7.0020
 0.5040	 7.0520
 0.5050	 7.1130
 0.5060	 7.1850
 0.5070	 7.2670
 0.5080	 7.3560
 0.5090	 7.4550
 0.5100	 7.5690
 0.5110	 7.6950
 0.5120	 7.8370
 0.5130	 7.9970
 0.5140	 8.1680
 0.5150	 8.3610
 0.5160	 8.5730
 0.5170	 8.7970
 0.5180	 9.0230
 0.5190	 9.2620
 0.5200	 9.5110
 0.5210	 9.7580
 0.5220	10.0160
 0.5230	10.2670
 0.5240	10.5020
 0.5250	10.7350
 0.5260	10.9620
 0.5270	11.1750
 0.5280	11.3650
 0.5290	11.5400
 0.5300	11.7010
 0.5310	11.8450
 0.5320	11.9640
 0.5330	12.0740
 0.5340	12.1730
 0.5350	12.2570
 0.5360	12.3250
 0.5370	12.3800
 0.5380	12.4280
 0.5390	12.4770
 0.5400	12.5140
 0.5410	12.5480
 0.5420	12.5830
 0.5430	12.6150
 0.5440	12.6540
 0.5450	12.6940
 0.5460	12.7260
 0.5470	12.7440
 0.5480	12.7570
 0.5490	12.7700
 0.5500	12.7780
 0.5510	12.7820
 0.5520	12.7790
 0.5530	12.7690
 0.5540	12.7420
 0.5550	12.6950
 0.5560	12.6320
 0.5570	12.5650
 0.5580	12.4820
 0.5590	12.3860
 0.5600	12.2790
 0.5610	12.1580
 0.5620	12.0290
 0.5630	11.8930
 0.5640	11.7500
 0.5650	11.5920
 0.5660	11.4300
 0.5670	11.2680
 0.5680	11.1010
 0.5690	10.9290
 0.5700	10.7580
 0.5710	10.5950
 0.5720	10.4400
 0.5730	10.2970
 0.5740	10.1660
 0.5750	10.0420
 0.5760	 9.9210
 0.5770	 9.8120
 0.5780	 9.7200
 0.5790	 9.6300
 0.5800	 9.5390
 0.5810	 9.4520
 0.5820	 9.3740
 0.5830	 9.2930
 0.5840	 9.2210
 0.5850	 9.1580
 0.5860	 9.0950
 0.5870	 9.0370
 0.5880	 8.9860
 0.5890	 8.9410
 0.5900	 8.8990
 0.5910	 8.8580
 0.5920	 8.8240
 0.5930	 8.8010
 0.5940	 8.7720
 0.5950	 8.7440
 0.5960	 8.7230
 0.5970	 8.7020
 0.5980	 8.6770
 0.5990	 8.6490
 0.6000	 8.6230
 0.6010	 8.5990
 0.6020	 8.5710
 0.6030	 8.5370
 0.6040	 8.4960
 0.6050	 8.4560
 0.6060	 8.4180
 0.6070	 8.3800
 0.6080	 8.3290
 0.6090	 8.2780
 0.6100	 8.2290
 0.6110	 8.1770
 0.6120	 8.1290
 0.6130	 8.0820
 0.6140	 8.0360
 0.6150	 7.9940
 0.6160	 7.9500
 0.6170	 7.9080
 0.6180	 7.8740
 0.6190	 7.8370
 0.6200	 7.8040
 0.6210	 7.7780
 0.6220	 7.7590
 0.6230	 7.7400
 0.6240	 7.7200
 0.6250	 7.7030
 0.6260	 7.6920
 0.6270	 7.6850
 0.6280	 7.6800
 0.6290	 7.6750
 0.6300	 7.6690
 0.6310	 7.6600
 0.6320	 7.6480
 0.6330	 7.6390
 0.6340	 7.6230
 0.6350	 7.5990
 0.6360	 7.5690
 0.6370	 7.5400
 0.6380	 7.5060
 0.6390	 7.4660
 0.6400	 7.4240
 0.6410	 7.3790
 0.6420	 7.3340
 0.6430	 7.2920
 0.6440	 7.2520
 0.6450	 7.2140
 0.6460	 7.1780
 0.6470	 7.1460
 0.6480	 7.1280
 0.6490	 7.1080
 0.6500	 7.0860
 0.6510	 7.0710
 0.6520	 7.0630
 0.6530	 7.0600
 0.6540	 7.0580
 0.6550	 7.0480
 0.6560	 7.0400
 0.6570	 7.0330
 0.6580	 7.0270
 0.6590	 7.0160
 0.6600	 7.0070
 0.6610	 7.0010
 0.6620	 6.9900
 0.6630	 6.9890
 0.6640	 6.9920
 0.6650	 6.9940
 0.6660	 6.9950
 0.6670	 7.0050
 0.6680	 7.0210
 0.6690	 7.0360
 0.6700	 7.0560
 0.6710	 7.0820
 0.6720	 7.1120
 0.6730	 7.1410
 0.6740	 7.1760
 0.6750	 7.2140
 0.6760	 7.2530
 0.6770	 7.2940
 0.6780	 7.3400
 0.6790	 7.3900
 0.6800	 7.4440
 0.6810	 7.4990
 0.6820	 7.5570
 0.6830	 7.6170
 0.6840	 7.6730
 0.6850	 7.7340
 0.6860	 7.8010
 0.6870	 7.8750
 0.6880	 7.9540
 0.6890	 8.0550
 0.6900	 8.1860
 0.6910	 8.3500
 0.6920	 8.5640
 0.6930	 8.8410
 0.6940	 9.1890
 0.6950	 9.6100
 0.6960	10.1140
 0.6970	10.7020
 0.6980	11.3710
 0.6990	12.1120
 0.7000	12.9170
 0.7010	13.7750
 0.7020	14.6760
 0.7030	15.6110
 0.7040	16.5650
 0.7050	17.5300
 0.7060	18.4990
 0.7070	19.4700
 0.7080	20.4400
 0.7090	21.4070
 0.7100	22.3640
 0.7110	23.3120
 0.7120	24.2510
 0.7130	25.1740
 0.7140	26.0850
 0.7150	26.9740
 0.7160	27.8410
 0.7170	28.7070
 0.7180	29.5510
 0.7190	30.3730
 0.7200	31.1760
 0.7210	31.9480
 0.7220	32.6990
 0.7230	33.4310
 0.7240	34.1360
 0.7250	34.8070
 0.7260	35.4490
 0.7270	36.0670
 0.7280	36.6540
 0.7290	37.2180
 0.7300	37.7500
 0.7310	38.2450
 0.7320	38.7310
 0.7330	39.1820
 0.7340	39.5960
 0.7350	40.0000
 0.7360	40.3890
 0.7370	40.7470
 0.7380	41.0680
 0.7390	41.3730
 0.7400	41.6630
 0.7410	41.9280
 0.7420	42.1560
 0.7430	42.3750
 0.7440	42.5870
 0.7450	42.7820
 0.7460	42.9450
 0.7470	43.0920
 0.7480	43.2250
 0.7490	43.3460
 0.7500	43.4610
 0.7510	43.5570
 0.7520	43.6340
 0.7530	43.7020
 0.7540	43.7860
 0.7550	43.8530
 0.7560	43.8970
 0.7570	43.9360
 0.7580	43.9820
 0.7590	44.0200
 0.7600	44.0400
 0.7610	44.0670
 0.7620	44.0970
 0.7630	44.1210
 0.7640	44.1300
 0.7650	44.1260
 0.7660	44.1370
 0.7670	44.1630
 0.7680	44.1780
 0.7690	44.1650
 0.7700	44.1590
 0.7710	44.1680
 0.7720	44.1570
 0.7730	44.1530
 0.7740	44.1520
 0.7750	44.1480
 0.7760	44.1600
 0.7770	44.1720
 0.7780	44.1750
 0.7790	44.1690
 0.7800	44.1570
 0.7810	44.1550
 0.7820	44.1650
 0.7830	44.1690
 0.7840	44.1700
 0.7850	44.1690
 0.7860	44.1690
 0.7870	44.1790
 0.7880	44.1710
 0.7890	44.1640
 0.7900	44.1750
 0.7910	44.1710
 0.7920	44.1730
 0.7930	44.1780
 0.7940	44.1710
 0.7950	44.1800
 0.7960	44.1840
 0.7970	44.1760
 0.7980	44.1810
 0.7990	44.1880
 0.8000	44.1850
 0.8010	44.1700
 0.8020	44.1700
 0.8030	44.1680
 0.8040	44.1650
 0.8050	44.1640
 0.8060	44.1580
 0.8070	44.1550
 0.8080	44.1580
 0.8090	44.1680
 0.8100	44.1560
 0.8110	44.1440
 0.8120	44.1470
 0.8130	44.1460
 0.8140	44.1320
 0.8150	44.1180
 0.8160	44.1150
 0.8170	44.1110
 0.8180	44.0990
 0.8190	44.0900
 0.8200	44.0960
 0.8210	44.1030
 0.8220	44.0980
 0.8230	44.0810
 0.8240	44.0670
 0.8250	44.0790
 0.8260	44.0780
 0.8270	44.0500
 0.8280	44.0350
 0.8290	44.0380
 0.8300	44.0450
 0.8310	44.0410
 0.8320	44.0330
 0.8330	44.0180
 0.8340	44.0070
 0.8350	44.0100
 0.8360	44.0140
 0.8370	44.0070
 0.8380	43.9960
 0.8390	43.9950
 0.8400	43.9900
 0.8410	43.9840
 0.8420	43.9830
 0.8430	43.9900
 0.8440	43.9800
 0.8450	43.9650
 0.8460	43.9600
 0.8470	43.9620
 0.8480	43.9660
 0.8490	43.9620
 0.8500	43.9420
 0.8510	43.9390
 0.8520	43.9470
 0.8530	43.9520
 0.8540	43.9450
 0.8550	43.9610
 0.8560	43.9590
 0.8570	43.9400
 0.8580	43.9530
 0.8590	43.9580
 0.8600	43.9530
 0.8610	43.9430
 0.8620	43.9350
 0.8630	43.9450
 0.8640	43.9570
 0.8650	43.9530
 0.8660	43.9490
 0.8670	43.9500
 0.8680	43.9500
 0.8690	43.9440
 0.8700	43.9400
 0.8710	43.9410
 0.8720	43.9480
 0.8730	43.9620
 0.8740	43.9640
 0.8750	43.9540
 0.8760	43.9450
 0.8770	43.9560
 0.8780	43.9660
 0.8790	43.9720
 0.8800	43.9720
 0.8810	43.9600
 0.8820	43.9630
 0.8830	43.9660
 0.8840	43.9570
 0.8850	43.9620
 0.8860	43.9610
 0.8870	43.9680
 0.8880	43.9890
 0.8890	43.9870
 0.8900	43.9770
 0.8910	43.9720
 0.8920	43.9810
 0.8930	43.9770
 0.8940	43.9790
 0.8950	43.9880
 0.8960	43.9920
 0.8970	44.0050
 0.8980	44.0110
 0.8990	43.9980
 0.9000	43.9720
 0.9010	43.9800
 0.9020	43.9990
 0.9030	44.0070
 0.9040	44.0000
 0.9050	44.0030
 0.9060	44.0110
 0.9070	44.0130
 0.9080	44.0080
 0.9090	44.0240
 0.9100	44.0280
 0.9110	44.0020
 0.9120	44.0020
 0.9130	44.0080
 0.9140	44.0180
 0.9150	44.0300
 0.9160	44.0280
 0.9170	44.0130
 0.9180	44.0050
 0.9190	44.0190
 0.9200	44.0080
 0.9210	44.0020
 0.9220	44.0060
 0.9230	44.0070
 0.9240	43.9880
 0.9250	43.9900
 0.9260	44.0110
 0.9270	44.0140
 0.9280	44.0200
 0.9290	44.0030
 0.9300	43.9840
 0.9310	44.0200
 0.9320	44.0220
 0.9330	43.9960
 0.9340	43.9630
 0.9350	43.9420
 0.9360	43.9300
 0.9370	43.9300
 0.9380	43.9400
 0.9390	43.9490
 0.9400	43.9480
 0.9410	43.9340
 0.9420	43.9170
 0.9430	43.9200
 0.9440	43.8860
 0.9450	43.8570
 0.9460	43.8660
 0.9470	43.8610
 0.9480	43.8630
 0.9490	43.8530
 0.9500	43.8210
 0.9510	43.8040
 0.9520	43.7970
 0.9530	43.7990
 0.9540	43.7980
 0.9550	43.7550
 0.9560	43.7070
 0.9570	43.6870
 0.9580	43.7000
 0.9590	43.6900
 0.9600	43.6770
 0.9610	43.6610
 0.9620	43.6360
 0.9630	43.6210
 0.9640	43.6060
 0.9650	43.5900
 0.9660	43.5800
 0.9670	43.5920
 0.9680	43.5910
 0.9690	43.5840
 0.9700	43.5840
 0.9710	43.5680
 0.9720	43.5640
 0.9730	43.5580
 0.9740	43.5320
 0.9750	43.5230
 0.9760	43.5150
 0.9770	43.5120
 0.9780	43.5200
 0.9790	43.4940
 0.9800	43.4820
 0.9810	43.4860
 0.9820	43.4860
 0.9830	43.4960
 0.9840	43.5030
 0.9850	43.5020
 0.9860	43.4940
 0.9870	43.4970
 0.9880	43.5140
 0.9890	43.5280
 0.9900	43.5190
 0.9910	43.4750
 0.9920	43.4580
 0.9930	43.4410
 0.9940	43.4230
 0.9950	43.4060
 0.9960	43.3890
 0.9970	43.3710
 0.9980	43.3540
 0.9990	43.3370
 1.0000	43.3200
 1.0010	43.3020
 1.0020	43.2850
 1.0030	43.2680
 1.0040	43.2500
 1.0050	43.2330
 1.0060	43.2160
 1.0070	43.1980
 1.0080	43.1810
 1.0090	43.1640
 1.0100	43.1640
 1.0110	43.1640
 1.0120	43.1680
 1.0130	43.1730
 1.0140	43.1780
 1.0150	43.1910
 1.0160	43.1980
 1.0170	43.1970
 1.0180	43.2030
 1.0190	43.2050
 1.0200	43.2040
 1.0210	43.2030
 1.0220	43.1940
 1.0230	43.1920
 1.0240	43.1910
 1.0250	43.1910
 1.0260	43.1930
 1.0270	43.1940
 1.0280	43.1930
 1.0290	43.1940
 1.0300	43.2020
 1.0310	43.2050
 1.0320	43.2080
 1.0330	43.2060
 1.0340	43.1970
 1.0350	43.1940
 1.0360	43.2000
 1.0370	43.2060
 1.0380	43.2100
 1.0390	43.2220
 1.0400	43.2230
 1.0410	43.2120
 1.0420	43.2100
 1.0430	43.2070
 1.0440	43.2090
 1.0450	43.2170
 1.0460	43.2230
 1.0470	43.2310
 1.0480	43.2390
 1.0490	43.2490
 1.0500	43.2550
 1.0510	43.2580
 1.0520	43.2610
 1.0530	43.2630
 1.0540	43.2560
 1.0550	43.2600
 1.0560	43.2720
 1.0570	43.2730
 1.0580	43.2730
 1.0590	43.2740
 1.0600	43.2680
 1.0610	43.2690
 1.0620	43.2810
 1.0630	43.2840
 1.0640	43.2780
 1.0650	43.2830
 1.0660	43.2950
 1.0670	43.3010
 1.0680	43.3070
 1.0690	43.3220
 1.0700	43.3230
 1.0710	43.3110
 1.0720	43.3130
 1.0730	43.3180
 1.0740	43.3220
 1.0750	43.3350
 1.0760	43.3360
 1.0770	43.3250
 1.0780	43.3230
 1.0790	43.3160
 1.0800	43.3160
 1.0810	43.3280
 1.0820	43.3330
 1.0830	43.3420
 1.0840	43.3440
 1.0850	43.3400
 1.0860	43.3330
 1.0870	43.3310
 1.0880	43.3260
 1.0890	43.3210
 1.0900	43.3180
 1.0910	43.3160
 1.0920	43.3140
 1.0930	43.3110
 1.0940	43.3140
 1.0950	43.3100
 1.0960	43.2970
 1.0970	43.2920
 1.0980	43.2920
 1.0990	43.2900
 1.1000	43.2960
 1.1010	43.2950
 1.1020	43.2910
 1.1030	43.2830
 1.1040	43.2750
 1.1050	43.2660
 1.1060	43.2580
 1.1070	43.2530
 1.1080	43.2430
 1.1090	43.2310
 1.1100	43.2210
 1.1110	43.2100
 1.1120	43.2020
 1.1130	43.1970
 1.1140	43.1900
 1.1150	43.1790
 1.1160	43.1720
 1.1170	43.1650
 1.1180	43.1590
 1.1190	43.1600
 1.1200	43.1560
 1.1210	43.1420
 1.1220	43.1300
 1.1230	43.1140
 1.1240	43.0970
 1.1250	43.0830
 1.1260	43.0730
 1.1270	43.0570
 1.1280	43.0390
 1.1290	43.0190
 1.1300	42.9970
 1.1310	42.9750
 1.1320	42.9520
 1.1330	42.9260
 1.1340	42.9000
 1.1350	42.8710
 1.1360	42.8360
 1.1370	42.8040
 1.1380	42.7780
 1.1390	42.7460
 1.1400	42.7120
 1.1410	42.6800
 1.1420	42.6430
 1.1430	42.6020
 1.1440	42.5650
 1.1450	42.5260
 1.1460	42.4930
 1.1470	42.4630
 1.1480	42.4320
 1.1490	42.4040
 1.1500	42.3750
 1.1510	42.3410
 1.1520	42.3130
 1.1530	42.2880
 1.1540	42.2630
 1.1550	42.2400
 1.1560	42.2180
 1.1570	42.1990
 1.1580	42.1820
 1.1590	42.1670
 1.1600	42.1560
 1.1610	42.1430
 1.1620	42.1320
 1.1630	42.1260
 1.1640	42.1190
 1.1650	42.1160
 1.1660	42.1180
 1.1670	42.1160
 1.1680	42.1140
 1.1690	42.1100
 1.1700	42.1020
 1.1710	42.0980
 1.1720	42.0930
 1.1730	42.0900
 1.1740	42.0890
 1.1750	42.0880
 1.1760	42.0890
 1.1770	42.0900
 1.1780	42.0880
 1.1790	42.0880
 1.1800	42.0860
 1.1810	42.0820
 1.1820	42.0750
 1.1830	42.0660
 1.1840	42.0610
 1.1850	42.0570
 1.1860	42.0560
 1.1870	42.0570
 1.1880	42.0560
 1.1890	42.0520
 1.1900	42.0510
 1.1910	42.0540
 1.1920	42.0540
 1.1930	42.0530
 1.1940	42.0530
 1.1950	42.0500
 1.1960	42.0520
 1.1970	42.0560
 1.1980	42.0570
 1.1990	42.0560
 1.2000	42.0540
 1.2010	42.0570
 1.2020	42.0620
 1.2030	42.0650
 1.2040	42.0710
 1.2050	42.0700
 1.2060	42.0710
 1.2070	42.0760
 1.2080	42.0810
 1.2090	42.0880
 1.2100	42.0890
 1.2110	42.0900
 1.2120	42.0880
 1.2130	42.0920
 1.2140	42.0960
 1.2150	42.1000
 1.2160	42.1090
 1.2170	42.1120
 1.2180	42.1160
 1.2190	42.1240
 1.2200	42.1350
 1.2210	42.1460
 1.2220	42.1530
 1.2230	42.1580
 1.2240	42.1620
 1.2250	42.1640
 1.2260	42.1700
 1.2270	42.1760
 1.2280	42.1810
 1.2290	42.1870
 1.2300	42.1940
 1.2310	42.1990
 1.2320	42.2030
 1.2330	42.2060
 1.2340	42.2080
 1.2350	42.2080
 1.2360	42.2110
 1.2370	42.2170
 1.2380	42.2240
 1.2390	42.2310
 1.2400	42.2370
 1.2410	42.2430
 1.2420	42.2490
 1.2430	42.2510
 1.2440	42.2560
 1.2450	42.2650
 1.2460	42.2710
 1.2470	42.2770
 1.2480	42.2840
 1.2490	42.2860
 1.2500	42.2850
 1.2510	42.2850
 1.2520	42.2860
 1.2530	42.2850
 1.2540	42.2830
 1.2550	42.2810
 1.2560	42.2810
 1.2570	42.2810
 1.2580	42.2810
 1.2590	42.2830
 1.2600	42.2870
 1.2610	42.2900
 1.2620	42.2940
 1.2630	42.2970
 1.2640	42.2990
 1.2650	42.3000
 1.2660	42.2970
 1.2670	42.2920
 1.2680	42.2910
 1.2690	42.2890
 1.2700	42.2830
 1.2710	42.2790
 1.2720	42.2770
 1.2730	42.2720
 1.2740	42.2700
 1.2750	42.2690
 1.2760	42.2670
 1.2770	42.2670
 1.2780	42.2660
 1.2790	42.2660
 1.2800	42.2670
 1.2810	42.2620
 1.2820	42.2570
 1.2830	42.2550
 1.2840	42.2490
 1.2850	42.2470
 1.2860	42.2470
 1.2870	42.2430
 1.2880	42.2370
 1.2890	42.2320
 1.2900	42.2250
 1.2910	42.2210
 1.2920	42.2190
 1.2930	42.2170
 1.2940	42.2140
 1.2950	42.2080
 1.2960	42.2040
 1.2970	42.1990
 1.2980	42.1950
 1.2990	42.1910
 1.3000	42.1820
 1.3010	42.1700
 1.3020	42.1570
 1.3030	42.1440
 1.3040	42.1350
 1.3050	42.1280
 1.3060	42.1210
 1.3070	42.1130
 1.3080	42.1030
 1.3090	42.0910
 1.3100	42.0700
 1.3110	42.0510
 1.3120	42.0280
 1.3130	42.0010
 1.3140	41.9740
 1.3150	41.9470
 1.3160	41.9160
 1.3170	41.8810
 1.3180	41.8460
 1.3190	41.8090
 1.3200	41.7740
 1.3210	41.7410
 1.3220	41.7060
 1.3230	41.6710
 1.3240	41.6380
 1.3250	41.6030
 1.3260	41.5650
 1.3270	41.5250
 1.3280	41.4840
 1.3290	41.4410
 1.3300	41.3950
 1.3310	41.3480
 1.3320	41.3000
 1.3330	41.2490
 1.3340	41.2030
 1.3350	41.1580
 1.3360	41.1150
 1.3370	41.0730
 1.3380	41.0280
 1.3390	40.9810
 1.3400	40.9300
 1.3410	40.8780
 1.3420	40.8290
 1.3430	40.7760
 1.3440	40.7230
 1.3450	40.6730
 1.3460	40.6230
 1.3470	40.5720
 1.3480	40.5260
 1.3490	40.4750
 1.3500	40.4220
 1.3510	40.3690
 1.3520	40.3190
 1.3530	40.2710
 1.3540	40.2230
 1.3550	40.1750
 1.3560	40.1250
 1.3570	40.0750
 1.3580	40.0250
 1.3590	39.9750
 1.3600	39.9220
 1.3610	39.8660
 1.3620	39.8090
 1.3630	39.7530
 1.3640	39.6950
 1.3650	39.6340
 1.3660	39.5720
 1.3670	39.5030
 1.3680	39.4270
 1.3690	39.3500
 1.3700	39.2670
 1.3710	39.1780
 1.3720	39.0880
 1.3730	38.9890
 1.3740	38.8820
 1.3750	38.7680
 1.3760	38.6430
 1.3770	38.5060
 1.3780	38.3570
 1.3790	38.1950
 1.3800	38.0210
 1.3810	37.8360
 1.3820	37.6400
 1.3830	37.4350
 1.3840	37.2160
 1.3850	36.9860
 1.3860	36.7440
 1.3870	36.4870
 1.3880	36.2260
 1.3890	35.9550
 1.3900	35.6730
 1.3910	35.3890
 1.3920	35.0940
 1.3930	34.7870
 1.3940	34.4780
 1.3950	34.1590
 1.3960	33.8390
 1.3970	33.5220
 1.3980	33.2010
 1.3990	32.8870
 1.4000	32.5740
 1.4010	32.2640
 1.4020	31.9670
 1.4030	31.6720
 1.4040	31.3870
 1.4050	31.1140
 1.4060	30.8460
 1.4070	30.5960
 1.4080	30.3570
 1.4090	30.1260
 1.4100	29.9110
 1.4110	29.7100
 1.4120	29.5200
 1.4130	29.3470
 1.4140	29.1840
 1.4150	29.0300
 1.4160	28.8870
 1.4170	28.7550
 1.4180	28.6330
 1.4190	28.5220
 1.4200	28.4210
 1.4210	28.3290
 1.4220	28.2450
 1.4230	28.1720
 1.4240	28.1050
 1.4250	28.0460
 1.4260	27.9990
 1.4270	27.9550
 1.4280	27.9160
 1.4290	27.8850
 1.4300	27.8610
 1.4310	27.8390
 1.4320	27.8210
 1.4330	27.8080
 1.4340	27.7970
 1.4350	27.7900
 1.4360	27.7870
 1.4370	27.7900
 1.4380	27.7930
 1.4390	27.8000
 1.4400	27.8110
 1.4410	27.8230
 1.4420	27.8350
 1.4430	27.8510
 1.4440	27.8680
 1.4450	27.8860
 1.4460	27.9080
 1.4470	27.9280
 1.4480	27.9490
 1.4490	27.9710
 1.4500	27.9910
 1.4510	28.0140
 1.4520	28.0400
 1.4530	28.0690
 1.4540	28.1000
 1.4550	28.1340
 1.4560	28.1700
 1.4570	28.2050
 1.4580	28.2430
 1.4590	28.2850
 1.4600	28.3290
 1.4610	28.3770
 1.4620	28.4300
 1.4630	28.4850
 1.4640	28.5430
 1.4650	28.6040
 1.4660	28.6670
 1.4670	28.7340
 1.4680	28.8070
 1.4690	28.8860
 1.4700	28.9660
 1.4710	29.0490
 1.4720	29.1370
