Name: Salvia leucophylla 1
Type: vegetation
Class: Shrub
Genus: Salvia
Species: leucophylla
Sample No.: VH188
Owner: UCSB
Wavelength Range: TIR
Origin: 34.698; -120.0477; WGS84
Collection Date: 6/9/2013
Description: Samples were collected as part of the HyspIRI Airborne Campaign. 48 individual plants were sampled in three times in 2013 - spring  summer  and fall. The name of the sample includes a 1  2  or 3 which references a different individual of the species. Samples were taken to JPL and processed within 48 hours of collection. The same leaves were processed in the Nicolet and then measured using the ASD.
Measurement: Hemispherical reflectance
First Column: X
Second Column: Y
X Units: Wavelength (micrometers)
Y Units: Reflectance (percentage)
First X Value: 2.501
Last X Value: 15.387
Number of X Values: 1737
Additional Information: vegetation.shrub.salvia.leucophylla.tir.vh188.ucsb.nicolet.ancillary.txt

 2.5010	25.4080
 2.5030	25.3060
 2.5040	25.2720
 2.5050	25.0650
 2.5060	25.2100
 2.5070	25.2220
 2.5090	25.2610
 2.5100	25.3270
 2.5110	25.5020
 2.5120	25.5700
 2.5140	25.4150
 2.5150	25.4830
 2.5160	25.5400
 2.5170	25.3890
 2.5180	25.4410
 2.5200	25.3490
 2.5210	25.3860
 2.5220	25.4200
 2.5230	25.4480
 2.5250	25.3880
 2.5260	25.4480
 2.5270	25.4300
 2.5280	25.5900
 2.5290	25.6090
 2.5310	25.5930
 2.5320	25.5570
 2.5330	25.4610
 2.5340	25.5320
 2.5360	25.5610
 2.5370	25.4510
 2.5380	25.4300
 2.5390	25.5160
 2.5410	25.6540
 2.5420	25.6370
 2.5430	25.5770
 2.5440	25.5050
 2.5460	25.8590
 2.5470	25.9360
 2.5480	25.6940
 2.5490	25.4820
 2.5510	25.5990
 2.5520	25.8960
 2.5530	26.0650
 2.5540	25.9320
 2.5560	25.9100
 2.5570	25.8560
 2.5580	25.9210
 2.5590	25.9860
 2.5610	26.0070
 2.5620	25.9810
 2.5630	26.0800
 2.5640	26.1220
 2.5660	26.1610
 2.5670	26.0200
 2.5680	25.8420
 2.5700	25.7980
 2.5710	26.0030
 2.5720	26.0990
 2.5730	26.2740
 2.5750	26.2940
 2.5760	26.1620
 2.5770	25.8980
 2.5790	25.6670
 2.5800	25.7490
 2.5810	25.9190
 2.5820	26.1430
 2.5840	26.1580
 2.5850	26.0460
 2.5860	26.2530
 2.5880	26.1480
 2.5890	25.9100
 2.5900	25.7930
 2.5910	25.8060
 2.5930	25.8380
 2.5940	25.8570
 2.5950	25.9250
 2.5970	26.1420
 2.5980	26.2130
 2.5990	26.2580
 2.6000	26.1850
 2.6020	25.9810
 2.6030	25.9270
 2.6040	26.1110
 2.6060	26.0720
 2.6070	26.0000
 2.6080	25.8650
 2.6100	25.8300
 2.6110	25.7110
 2.6120	25.7570
 2.6140	25.7880
 2.6150	25.8960
 2.6160	25.8300
 2.6180	25.6060
 2.6190	25.4620
 2.6200	25.4880
 2.6220	25.3020
 2.6230	25.2230
 2.6240	25.3610
 2.6260	25.4010
 2.6270	25.4430
 2.6280	25.5290
 2.6300	25.3820
 2.6310	25.3470
 2.6320	25.3110
 2.6340	25.1860
 2.6350	25.0440
 2.6360	25.1000
 2.6380	25.1250
 2.6390	25.0310
 2.6400	24.9350
 2.6420	24.9540
 2.6430	24.8050
 2.6440	24.7120
 2.6460	24.7240
 2.6470	24.6950
 2.6480	24.6700
 2.6500	24.6710
 2.6510	24.4660
 2.6520	24.5060
 2.6540	24.5570
 2.6550	24.3440
 2.6560	24.2090
 2.6580	24.2400
 2.6590	24.1160
 2.6610	24.1780
 2.6620	24.0180
 2.6630	23.7310
 2.6650	23.6230
 2.6660	23.5760
 2.6670	23.6450
 2.6690	23.7340
 2.6700	23.5400
 2.6720	23.4710
 2.6730	23.3430
 2.6740	23.0700
 2.6760	22.8830
 2.6770	22.7800
 2.6780	22.5650
 2.6800	22.4430
 2.6810	22.4550
 2.6830	22.4240
 2.6840	22.1710
 2.6850	21.9980
 2.6870	21.9040
 2.6880	21.7920
 2.6900	21.6060
 2.6910	21.5250
 2.6920	21.2600
 2.6940	20.9950
 2.6950	20.8750
 2.6970	20.7650
 2.6980	20.4490
 2.6990	20.2010
 2.7010	20.0340
 2.7020	19.7360
 2.7040	19.2830
 2.7050	19.0360
 2.7060	18.8540
 2.7080	18.8050
 2.7090	18.6940
 2.7110	18.3960
 2.7120	17.9430
 2.7130	17.6140
 2.7150	17.2890
 2.7160	16.9940
 2.7180	16.7080
 2.7190	16.5180
 2.7210	16.3680
 2.7220	15.9940
 2.7230	15.5120
 2.7250	15.1670
 2.7260	14.9390
 2.7280	14.9210
 2.7290	14.7550
 2.7310	14.2970
 2.7320	13.6380
 2.7330	13.2350
 2.7350	12.9180
 2.7360	12.7000
 2.7380	12.5850
 2.7390	12.5700
 2.7410	12.2480
 2.7420	11.9740
 2.7440	11.8740
 2.7450	11.6370
 2.7470	11.1100
 2.7480	10.7670
 2.7490	10.6890
 2.7510	10.2170
 2.7520	 9.9060
 2.7540	 9.8610
 2.7550	 9.5000
 2.7570	 9.4730
 2.7580	 9.6240
 2.7600	 9.4240
 2.7610	 9.1260
 2.7630	 8.9430
 2.7640	 8.8930
 2.7660	 8.6210
 2.7670	 8.3580
 2.7680	 8.4750
 2.7700	 8.3020
 2.7710	 8.0400
 2.7730	 7.9270
 2.7740	 7.8960
 2.7760	 7.4730
 2.7770	 7.2240
 2.7790	 7.4150
 2.7800	 7.4000
 2.7820	 7.2210
 2.7830	 7.1050
 2.7850	 6.8330
 2.7860	 6.6210
 2.7880	 6.5840
 2.7890	 6.5190
 2.7910	 6.4610
 2.7920	 6.5290
 2.7940	 6.5150
 2.7950	 6.3690
 2.7970	 6.3850
 2.7980	 6.3950
 2.8000	 6.1310
 2.8010	 6.0900
 2.8030	 6.0130
 2.8040	 5.6040
 2.8060	 5.4340
 2.8070	 5.4240
 2.8090	 5.1860
 2.8110	 5.2720
 2.8120	 5.3760
 2.8140	 5.3020
 2.8150	 5.2090
 2.8170	 5.0670
 2.8180	 4.9510
 2.8200	 5.0820
 2.8210	 4.8480
 2.8230	 4.9500
 2.8240	 4.8430
 2.8260	 4.5860
 2.8270	 4.4250
 2.8290	 4.6030
 2.8300	 4.7520
 2.8320	 4.8630
 2.8340	 4.6870
 2.8350	 4.5040
 2.8370	 4.5280
 2.8380	 4.5110
 2.8400	 4.2990
 2.8410	 4.1790
 2.8430	 4.1820
 2.8440	 4.2510
 2.8460	 4.2420
 2.8480	 4.2050
 2.8490	 4.1480
 2.8510	 4.0280
 2.8520	 3.9460
 2.8540	 4.1390
 2.8550	 3.9680
 2.8570	 3.8010
 2.8590	 3.8180
 2.8600	 3.8520
 2.8620	 3.8820
 2.8630	 3.8070
 2.8650	 3.7230
 2.8660	 3.6410
 2.8680	 3.4350
 2.8700	 3.3910
 2.8710	 3.2440
 2.8730	 3.3090
 2.8740	 3.3930
 2.8760	 3.5370
 2.8780	 3.7440
 2.8790	 3.7590
 2.8810	 3.2530
 2.8820	 2.8190
 2.8840	 3.1400
 2.8860	 3.7030
 2.8870	 3.2920
 2.8890	 3.1270
 2.8900	 3.4040
 2.8920	 3.5410
 2.8940	 3.4290
 2.8950	 3.5950
 2.8970	 3.5340
 2.8980	 3.3550
 2.9000	 3.1850
 2.9020	 2.9410
 2.9030	 2.8990
 2.9050	 3.1220
 2.9070	 3.4400
 2.9080	 3.5910
 2.9100	 3.2920
 2.9120	 3.2820
 2.9130	 3.3140
 2.9150	 3.3140
 2.9160	 3.1000
 2.9180	 3.0910
 2.9200	 3.0480
 2.9210	 3.1560
 2.9230	 3.2190
 2.9250	 3.2340
 2.9260	 3.2680
 2.9280	 3.2380
 2.9300	 3.1610
 2.9310	 3.2010
 2.9330	 3.1690
 2.9350	 3.1950
 2.9360	 3.1480
 2.9380	 3.1570
 2.9400	 2.9440
 2.9410	 2.8570
 2.9430	 2.7340
 2.9450	 2.7490
 2.9460	 2.9180
 2.9480	 2.9300
 2.9500	 2.7580
 2.9510	 3.1240
 2.9530	 3.7210
 2.9550	 3.7790
 2.9560	 3.1040
 2.9580	 2.8520
 2.9600	 3.0690
 2.9610	 3.3500
 2.9630	 3.1650
 2.9650	 2.2610
 2.9660	 1.4120
 2.9680	 2.3420
 2.9700	 2.2960
 2.9720	 2.4930
 2.9730	 3.9540
 2.9750	 2.8260
 2.9770	 -0.855
 2.9780	 -0.735
 2.9800	 1.8680
 2.9820	 2.0310
 2.9840	 2.4750
 2.9850	 3.9740
 2.9870	 4.9410
 2.9890	 4.1040
 2.9900	 3.4830
 2.9920	 4.8820
 2.9940	 5.0230
 2.9960	 4.6150
 2.9970	 3.9810
 2.9990	 2.4460
 3.0010	 1.1190
 3.0030	 1.9490
 3.0040	 3.8140
 3.0060	 4.4180
 3.0080	 3.7490
 3.0100	 3.8450
 3.0110	 3.6800
 3.0130	 3.3030
 3.0150	 3.3110
 3.0170	 2.5520
 3.0180	 1.4270
 3.0200	 1.8440
 3.0220	 3.2450
 3.0240	 3.8750
 3.0250	 3.8690
 3.0270	 3.8130
 3.0290	 3.7160
 3.0310	 3.6910
 3.0320	 2.8390
 3.0340	 2.5360
 3.0360	 3.0240
 3.0380	 3.7370
 3.0400	 3.0870
 3.0410	 2.2390
 3.0430	 3.5530
 3.0450	 4.0310
 3.0470	 3.2600
 3.0480	 1.4190
 3.0500	 0.1530
 3.0520	 1.3090
 3.0540	 2.9320
 3.0560	 4.3640
 3.0570	 4.7430
 3.0590	 2.7880
 3.0610	 2.0900
 3.0630	 3.8080
 3.0650	 3.1000
 3.0660	 2.1940
 3.0680	 2.5950
 3.0700	 3.4200
 3.0720	 3.9610
 3.0740	 4.4720
 3.0760	 4.4050
 3.0770	 4.4640
 3.0790	 4.3350
 3.0810	 4.1950
 3.0830	 3.9540
 3.0850	 4.2200
 3.0870	 4.3070
 3.0880	 4.4540
 3.0900	 4.2340
 3.0920	 4.3410
 3.0940	 4.5690
 3.0960	 4.6730
 3.0980	 4.6010
 3.0990	 4.6580
 3.1010	 4.6990
 3.1030	 4.4420
 3.1050	 4.1440
 3.1070	 4.5710
 3.1090	 4.8760
 3.1110	 4.9840
 3.1120	 5.0330
 3.1140	 5.2280
 3.1160	 5.0190
 3.1180	 4.9070
 3.1200	 4.8100
 3.1220	 4.7750
 3.1240	 4.9230
 3.1260	 4.9100
 3.1270	 4.7300
 3.1290	 4.5650
 3.1310	 4.6690
 3.1330	 5.6110
 3.1350	 6.4680
 3.1370	 4.9110
 3.1390	 3.3450
 3.1410	 4.5240
 3.1430	 6.9220
 3.1450	 7.4460
 3.1460	 6.4460
 3.1480	 6.1060
 3.1500	 5.4380
 3.1520	 5.3900
 3.1540	 5.5480
 3.1560	 5.5940
 3.1580	 5.5440
 3.1600	 5.9850
 3.1620	 6.8800
 3.1640	 6.6270
 3.1660	 6.2720
 3.1680	 5.4490
 3.1700	 4.5740
 3.1710	 4.9170
 3.1730	 5.1160
 3.1750	 4.0410
 3.1770	 4.3910
 3.1790	 5.2930
 3.1810	 5.1820
 3.1830	 6.2800
 3.1850	 6.8170
 3.1870	 6.2980
 3.1890	 5.9140
 3.1910	 5.9970
 3.1930	 6.0220
 3.1950	 6.1020
 3.1970	 6.1960
 3.1990	 6.3430
 3.2010	 6.3160
 3.2030	 6.3850
 3.2050	 6.1960
 3.2070	 6.2410
 3.2090	 6.3040
 3.2110	 6.1540
 3.2130	 6.3940
 3.2150	 6.4090
 3.2170	 6.1090
 3.2190	 6.3190
 3.2210	 6.4650
 3.2230	 6.4930
 3.2250	 6.3310
 3.2270	 6.0470
 3.2290	 6.0410
 3.2310	 6.3820
 3.2330	 6.3730
 3.2350	 6.5330
 3.2370	 6.5040
 3.2390	 6.4180
 3.2410	 6.4100
 3.2430	 6.7520
 3.2450	 6.6140
 3.2470	 6.4120
 3.2490	 6.5730
 3.2510	 6.9090
 3.2530	 6.5720
 3.2550	 6.5220
 3.2570	 6.7320
 3.2590	 6.6960
 3.2610	 6.9280
 3.2630	 7.0820
 3.2650	 6.5900
 3.2670	 7.3170
 3.2690	 7.4750
 3.2720	 6.8480
 3.2740	 6.5790
 3.2760	 6.8190
 3.2780	 6.9210
 3.2800	 6.9090
 3.2820	 6.8300
 3.2840	 6.8220
 3.2860	 6.7950
 3.2880	 6.8730
 3.2900	 7.0980
 3.2920	 7.2420
 3.2940	 7.2120
 3.2960	 7.2970
 3.2990	 6.8740
 3.3010	 6.5290
 3.3030	 6.6570
 3.3050	 6.2310
 3.3070	 5.6650
 3.3090	 6.1940
 3.3110	 6.6800
 3.3130	 6.4470
 3.3150	 6.0470
 3.3180	 6.0600
 3.3200	 6.0700
 3.3220	 5.8640
 3.3240	 5.7540
 3.3260	 5.9090
 3.3280	 5.5620
 3.3300	 5.4330
 3.3330	 5.3250
 3.3350	 5.1800
 3.3370	 5.2380
 3.3390	 5.1970
 3.3410	 4.8630
 3.3430	 4.6340
 3.3450	 4.5390
 3.3480	 4.3670
 3.3500	 4.2030
 3.3520	 4.2620
 3.3540	 4.2320
 3.3560	 4.3080
 3.3580	 4.1820
 3.3610	 3.7450
 3.3630	 3.3870
 3.3650	 3.4820
 3.3670	 3.5300
 3.3690	 3.4730
 3.3720	 3.3400
 3.3740	 3.3640
 3.3760	 3.2960
 3.3780	 3.1560
 3.3800	 3.0840
 3.3830	 3.1840
 3.3850	 3.0360
 3.3870	 2.7080
 3.3890	 2.7060
 3.3910	 2.5500
 3.3940	 2.1890
 3.3960	 2.2120
 3.3980	 2.3380
 3.4000	 2.2860
 3.4020	 2.0200
 3.4050	 2.1340
 3.4070	 2.1550
 3.4090	 2.2010
 3.4110	 2.1810
 3.4140	 2.1730
 3.4160	 2.1960
 3.4180	 2.2870
 3.4200	 2.4070
 3.4230	 2.5300
 3.4250	 2.5120
 3.4270	 2.5500
 3.4290	 2.7620
 3.4320	 2.9780
 3.4340	 3.0610
 3.4360	 2.9500
 3.4390	 2.8770
 3.4410	 3.0350
 3.4430	 3.2070
 3.4450	 3.5030
 3.4480	 3.5610
 3.4500	 3.1290
 3.4520	 3.1680
 3.4550	 3.6920
 3.4570	 3.5600
 3.4590	 3.6420
 3.4620	 4.0320
 3.4640	 4.2780
 3.4660	 4.1570
 3.4680	 4.1540
 3.4710	 4.2460
 3.4730	 4.2640
 3.4750	 4.1760
 3.4780	 4.1210
 3.4800	 4.0780
 3.4820	 4.1030
 3.4850	 4.0760
 3.4870	 4.0400
 3.4890	 3.8910
 3.4920	 3.9000
 3.4940	 3.7330
 3.4970	 3.5020
 3.4990	 3.4540
 3.5010	 3.4770
 3.5040	 3.4650
 3.5060	 3.5260
 3.5080	 3.6040
 3.5110	 3.8880
 3.5130	 4.2980
 3.5160	 4.7350
 3.5180	 5.2290
 3.5200	 5.6000
 3.5230	 5.7800
 3.5250	 6.0740
 3.5270	 6.4420
 3.5300	 6.8290
 3.5320	 7.1100
 3.5350	 7.2390
 3.5370	 7.3120
 3.5400	 7.4960
 3.5420	 7.7040
 3.5440	 7.9250
 3.5470	 7.8910
 3.5490	 7.8910
 3.5520	 8.0350
 3.5540	 8.1700
 3.5570	 8.3390
 3.5590	 8.5670
 3.5610	 8.7290
 3.5640	 8.9170
 3.5660	 8.8360
 3.5690	 8.8610
 3.5710	 8.9230
 3.5740	 9.0540
 3.5760	 9.1480
 3.5790	 9.2810
 3.5810	 9.4940
 3.5840	 9.7260
 3.5860	 9.5300
 3.5890	 9.6890
 3.5910	 9.9290
 3.5930	 9.9670
 3.5960	 9.9420
 3.5980	10.0240
 3.6010	10.2190
 3.6030	10.0650
 3.6060	 9.9590
 3.6080	10.1850
 3.6110	10.2400
 3.6140	10.1730
 3.6160	10.2100
 3.6190	10.3170
 3.6210	10.3210
 3.6240	10.4190
 3.6260	10.4900
 3.6290	10.6210
 3.6310	10.7100
 3.6340	10.7630
 3.6360	10.6730
 3.6390	10.6450
 3.6410	10.6930
 3.6440	10.7010
 3.6470	10.7040
 3.6490	10.6970
 3.6520	10.5970
 3.6540	10.6460
 3.6570	10.6820
 3.6590	10.7280
 3.6620	10.8700
 3.6650	10.9380
 3.6670	10.7940
 3.6700	10.8440
 3.6720	10.9320
 3.6750	10.8940
 3.6780	10.8450
 3.6800	10.9550
 3.6830	10.9790
 3.6850	10.9200
 3.6880	10.9120
 3.6910	10.8910
 3.6930	10.9690
 3.6960	11.2460
 3.6990	11.2990
 3.7010	11.2700
 3.7040	11.2250
 3.7060	11.1740
 3.7090	11.0970
 3.7120	11.2010
 3.7140	11.2280
 3.7170	11.1750
 3.7200	11.0960
 3.7220	11.1500
 3.7250	11.1120
 3.7280	11.1840
 3.7300	11.0950
 3.7330	11.0370
 3.7360	11.2390
 3.7390	11.3550
 3.7410	11.3390
 3.7440	11.1310
 3.7470	11.1660
 3.7490	11.4390
 3.7520	11.4280
 3.7550	11.3630
 3.7580	11.2270
 3.7600	11.1990
 3.7630	11.2900
 3.7660	11.2920
 3.7680	11.4270
 3.7710	11.6190
 3.7740	11.5690
 3.7770	11.5430
 3.7790	11.5340
 3.7820	11.5640
 3.7850	11.6250
 3.7880	11.6640
 3.7900	11.7510
 3.7930	11.8310
 3.7960	11.8580
 3.7990	11.8550
 3.8020	11.8960
 3.8040	12.0290
 3.8070	12.0270
 3.8100	11.9220
 3.8130	11.9300
 3.8160	12.0480
 3.8180	12.0920
 3.8210	12.1220
 3.8240	12.1100
 3.8270	12.1820
 3.8300	12.2160
 3.8330	12.2080
 3.8350	12.2720
 3.8380	12.3740
 3.8410	12.3950
 3.8440	12.3400
 3.8470	12.3860
 3.8500	12.6350
 3.8520	12.6620
 3.8550	12.5860
 3.8580	12.5830
 3.8610	12.7050
 3.8640	12.7100
 3.8670	12.6900
 3.8700	12.6900
 3.8730	12.7810
 3.8750	12.9040
 3.8780	12.9550
 3.8810	12.9330
 3.8840	12.9620
 3.8870	12.9590
 3.8900	13.0270
 3.8930	13.1060
 3.8960	13.1570
 3.8990	13.2720
 3.9020	13.3870
 3.9050	13.3200
 3.9080	13.3310
 3.9110	13.4860
 3.9140	13.5170
 3.9160	13.5260
 3.9190	13.6190
 3.9220	13.6590
 3.9250	13.6440
 3.9280	13.5850
 3.9310	13.6740
 3.9340	13.8060
 3.9370	13.8570
 3.9400	13.7330
 3.9430	13.7360
 3.9460	13.9200
 3.9490	14.0290
 3.9520	13.9910
 3.9550	14.0470
 3.9580	14.1470
 3.9610	14.2500
 3.9640	14.2920
 3.9670	14.3060
 3.9700	14.3570
 3.9730	14.4160
 3.9770	14.4670
 3.9800	14.6370
 3.9830	14.6850
 3.9860	14.6260
 3.9890	14.6650
 3.9920	14.8350
 3.9950	14.9810
 3.9980	15.0750
 4.0010	15.0700
 4.0040	15.1100
 4.0070	15.2500
 4.0100	15.3930
 4.0130	15.4240
 4.0170	15.5110
 4.0200	15.5330
 4.0230	15.6220
 4.0260	15.7090
 4.0290	15.6960
 4.0320	15.7610
 4.0350	15.8740
 4.0380	15.9250
 4.0420	16.1290
 4.0450	16.2770
 4.0480	16.2530
 4.0510	16.1720
 4.0540	16.1740
 4.0570	16.3310
 4.0610	16.4080
 4.0640	16.3460
 4.0670	16.4880
 4.0700	16.6860
 4.0730	16.7040
 4.0770	16.7060
 4.0800	16.8540
 4.0830	16.9410
 4.0860	16.9490
 4.0890	17.0270
 4.0930	17.0160
 4.0960	17.0320
 4.0990	17.1180
 4.1020	17.2500
 4.1060	17.3190
 4.1090	17.2860
 4.1120	17.3730
 4.1150	17.5200
 4.1190	17.5660
 4.1220	17.5830
 4.1250	17.7040
 4.1280	17.6990
 4.1320	17.7770
 4.1350	17.8650
 4.1380	17.8160
 4.1420	17.8130
 4.1450	17.9030
 4.1480	17.9670
 4.1520	17.9630
 4.1550	18.0100
 4.1580	18.0160
 4.1620	17.9590
 4.1650	18.0410
 4.1680	18.0940
 4.1720	18.1410
 4.1750	18.2570
 4.1780	18.3400
 4.1820	18.3940
 4.1850	18.3810
 4.1890	18.3160
 4.1920	18.2690
 4.1950	18.2770
 4.1990	18.3080
 4.2020	18.2520
 4.2060	18.0910
 4.2090	18.0470
 4.2120	18.1160
 4.2160	18.1310
 4.2190	18.1690
 4.2230	17.9660
 4.2260	17.6060
 4.2300	17.6130
 4.2330	17.7890
 4.2360	17.7070
 4.2400	17.6780
 4.2430	17.9240
 4.2470	17.9060
 4.2500	17.9180
 4.2540	18.1250
 4.2570	18.3430
 4.2610	18.3190
 4.2640	18.0520
 4.2680	17.9890
 4.2710	18.0870
 4.2750	18.1950
 4.2780	18.2860
 4.2820	18.3670
 4.2850	18.2460
 4.2890	18.1340
 4.2930	18.1940
 4.2960	18.3030
 4.3000	18.3570
 4.3030	18.3600
 4.3070	18.3590
 4.3100	18.5220
 4.3140	18.7260
 4.3180	18.8810
 4.3210	18.8580
 4.3250	18.7490
 4.3280	18.7250
 4.3320	18.7160
 4.3360	18.8850
 4.3390	19.0870
 4.3430	19.0380
 4.3470	19.0000
 4.3500	18.9830
 4.3540	19.0770
 4.3570	19.2070
 4.3610	19.2390
 4.3650	19.2500
 4.3680	19.2170
 4.3720	19.1550
 4.3760	19.2000
 4.3800	19.2570
 4.3830	19.3150
 4.3870	19.3360
 4.3910	19.3660
 4.3940	19.3460
 4.3980	19.3550
 4.4020	19.3290
 4.4060	19.3900
 4.4090	19.3960
 4.4130	19.3430
 4.4170	19.3280
 4.4210	19.3570
 4.4240	19.3590
 4.4280	19.3450
 4.4320	19.3630
 4.4360	19.3470
 4.4400	19.2910
 4.4430	19.2400
 4.4470	19.2410
 4.4510	19.3540
 4.4550	19.5010
 4.4590	19.4740
 4.4620	19.3940
 4.4660	19.3280
 4.4700	19.3280
 4.4740	19.3530
 4.4780	19.3090
 4.4820	19.2770
 4.4860	19.2660
 4.4900	19.2760
 4.4930	19.2840
 4.4970	19.2150
 4.5010	19.1680
 4.5050	19.2500
 4.5090	19.2970
 4.5130	19.2220
 4.5170	19.2020
 4.5210	19.2740
 4.5250	19.2710
 4.5290	19.2460
 4.5330	19.1960
 4.5370	19.1430
 4.5410	19.1030
 4.5450	19.1470
 4.5490	19.1110
 4.5530	19.0320
 4.5570	19.0610
 4.5610	19.0770
 4.5650	19.0180
 4.5690	18.9240
 4.5730	18.9610
 4.5770	19.0350
 4.5810	18.9920
 4.5850	18.9530
 4.5890	18.9790
 4.5930	18.8900
 4.5970	18.9180
 4.6010	18.9650
 4.6050	18.9680
 4.6090	18.9440
 4.6130	19.0350
 4.6170	19.0650
 4.6220	18.9750
 4.6260	18.8040
 4.6300	18.8100
 4.6340	18.7600
 4.6380	18.8780
 4.6420	18.8840
 4.6460	18.8610
 4.6510	18.9660
 4.6550	19.0380
 4.6590	18.9190
 4.6630	18.8460
 4.6670	18.9040
 4.6720	18.9600
 4.6760	18.9560
 4.6800	18.9020
 4.6840	18.9820
 4.6880	19.0040
 4.6930	18.9830
 4.6970	19.0870
 4.7010	19.1010
 4.7050	19.0290
 4.7100	19.0770
 4.7140	19.2030
 4.7180	19.1540
 4.7230	19.0850
 4.7270	19.0520
 4.7310	19.1080
 4.7360	19.1180
 4.7400	19.1420
 4.7440	19.2090
 4.7490	19.1880
 4.7530	19.1740
 4.7570	19.1920
 4.7620	19.2010
 4.7660	19.1890
 4.7700	19.1420
 4.7750	19.1080
 4.7790	19.0480
 4.7840	19.1620
 4.7880	19.1500
 4.7920	19.2300
 4.7970	19.5570
 4.8010	19.4870
 4.8060	19.4400
 4.8100	19.5150
 4.8150	19.5060
 4.8190	19.5440
 4.8240	19.5770
 4.8280	19.5130
 4.8330	19.4530
 4.8370	19.4750
 4.8420	19.4150
 4.8460	19.4190
 4.8510	19.4430
 4.8550	19.4740
 4.8600	19.4860
 4.8640	19.4900
 4.8690	19.5940
 4.8730	19.6770
 4.8780	19.6310
 4.8830	19.5740
 4.8870	19.5100
 4.8920	19.4810
 4.8960	19.5470
 4.9010	19.6020
 4.9060	19.5920
 4.9100	19.6820
 4.9150	19.7120
 4.9200	19.6480
 4.9240	19.6400
 4.9290	19.6860
 4.9340	19.6940
 4.9380	19.7900
 4.9430	19.9080
 4.9480	19.9130
 4.9530	19.8810
 4.9570	19.9210
 4.9620	20.0200
 4.9670	20.0300
 4.9720	20.0560
 4.9760	20.1290
 4.9810	20.1340
 4.9860	20.0980
 4.9910	20.0460
 4.9960	20.1510
 5.0000	20.2210
 5.0050	20.1430
 5.0100	20.1660
 5.0150	20.2620
 5.0200	20.2010
 5.0250	20.2410
 5.0290	20.3390
 5.0340	20.3600
 5.0390	20.3480
 5.0440	20.3660
 5.0490	20.3800
 5.0540	20.4390
 5.0590	20.4300
 5.0640	20.4810
 5.0690	20.4620
 5.0740	20.4390
 5.0790	20.4550
 5.0840	20.5180
 5.0890	20.5450
 5.0940	20.5780
 5.0990	20.5960
 5.1040	20.6350
 5.1090	20.6160
 5.1140	20.5730
 5.1190	20.5220
 5.1240	20.5530
 5.1290	20.5700
 5.1340	20.6280
 5.1390	20.6990
 5.1440	20.6830
 5.1490	20.6100
 5.1540	20.6140
 5.1600	20.5860
 5.1650	20.5910
 5.1700	20.5860
 5.1750	20.5740
 5.1800	20.5380
 5.1850	20.4880
 5.1910	20.5360
 5.1960	20.6070
 5.2010	20.5640
 5.2060	20.5570
 5.2110	20.4840
 5.2170	20.4230
 5.2220	20.3820
 5.2270	20.3560
 5.2320	20.4000
 5.2380	20.4680
 5.2430	20.3840
 5.2480	20.3260
 5.2540	20.3250
 5.2590	20.3240
 5.2640	20.3290
 5.2700	20.3050
 5.2750	20.2340
 5.2800	20.1480
 5.2860	20.1420
 5.2910	20.1940
 5.2970	20.1110
 5.3020	20.0050
 5.3070	19.9400
 5.3130	19.8840
 5.3180	19.8760
 5.3240	19.9420
 5.3290	19.8730
 5.3350	19.8070
 5.3400	19.7900
 5.3460	19.7600
 5.3510	19.7530
 5.3570	19.7710
 5.3620	19.7620
 5.3680	19.7330
 5.3730	19.7180
 5.3790	19.6890
 5.3850	19.5070
 5.3900	19.4140
 5.3960	19.4800
 5.4010	19.5150
 5.4070	19.4260
 5.4130	19.3990
 5.4180	19.2970
 5.4240	19.2530
 5.4300	19.2000
 5.4350	19.1360
 5.4410	19.0420
