Name: Ceanothus megacarpus 2
Type: vegetation
Class: Shrub
Genus: Ceanothus
Species: megacarpus
Sample No.: VH022
Owner: UCSB
Wavelength Range: VSWIR
Origin: 34.4909; -119.7914; WGS84
Collection Date: 4/1/2013
Description: Samples were collected as part of the HyspIRI Airborne Campaign. 48 individual plants were sampled in three times in 2013 - spring  summer  and fall. The name of the sample includes a 1  2  or 3 which references a different individual of the species. Samples were taken to JPL and processed within 48 hours of collection. The same leaves were processed in the Nicolet and then measured using the ASD.
Measurement: Bidirectional reflectance
First Column: X
Second Column: Y
X Units: Wavelength (micrometers)
Y Units: Reflectance (percentage)
First X Value: 0.35
Last X Value: 2.5
Number of X Values: 2151
Additional Information: vegetation.shrub.ceanothus.megacarpus.vswir.vh022.ucsb.asd.ancillary.txt

 0.3500	 4.4700
 0.3510	 4.5520
 0.3520	 4.4880
 0.3530	 4.4500
 0.3540	 4.5390
 0.3550	 4.4370
 0.3560	 4.3660
 0.3570	 4.3680
 0.3580	 4.3830
 0.3590	 4.3300
 0.3600	 4.3190
 0.3610	 4.3720
 0.3620	 4.3670
 0.3630	 4.4210
 0.3640	 4.4650
 0.3650	 4.4380
 0.3660	 4.4640
 0.3670	 4.4450
 0.3680	 4.3590
 0.3690	 4.2490
 0.3700	 4.2470
 0.3710	 4.3580
 0.3720	 4.4910
 0.3730	 4.3930
 0.3740	 4.3830
 0.3750	 4.4290
 0.3760	 4.4100
 0.3770	 4.3730
 0.3780	 4.3170
 0.3790	 4.2930
 0.3800	 4.3770
 0.3810	 4.4250
 0.3820	 4.4460
 0.3830	 4.4320
 0.3840	 4.2510
 0.3850	 4.2540
 0.3860	 4.3350
 0.3870	 4.2710
 0.3880	 4.2560
 0.3890	 4.2830
 0.3900	 4.3050
 0.3910	 4.2530
 0.3920	 4.2100
 0.3930	 4.2220
 0.3940	 4.2770
 0.3950	 4.2250
 0.3960	 4.2440
 0.3970	 4.2940
 0.3980	 4.2540
 0.3990	 4.2090
 0.4000	 4.1940
 0.4010	 4.2090
 0.4020	 4.2160
 0.4030	 4.2330
 0.4040	 4.2350
 0.4050	 4.2110
 0.4060	 4.2190
 0.4070	 4.2440
 0.4080	 4.2610
 0.4090	 4.2440
 0.4100	 4.2510
 0.4110	 4.2660
 0.4120	 4.2660
 0.4130	 4.2190
 0.4140	 4.2060
 0.4150	 4.2260
 0.4160	 4.2560
 0.4170	 4.3020
 0.4180	 4.3020
 0.4190	 4.2740
 0.4200	 4.3050
 0.4210	 4.3130
 0.4220	 4.3150
 0.4230	 4.3380
 0.4240	 4.3800
 0.4250	 4.4190
 0.4260	 4.4430
 0.4270	 4.4520
 0.4280	 4.4570
 0.4290	 4.4720
 0.4300	 4.4950
 0.4310	 4.4990
 0.4320	 4.5160
 0.4330	 4.5420
 0.4340	 4.5680
 0.4350	 4.5970
 0.4360	 4.6070
 0.4370	 4.6070
 0.4380	 4.6250
 0.4390	 4.6280
 0.4400	 4.6350
 0.4410	 4.6560
 0.4420	 4.6760
 0.4430	 4.6930
 0.4440	 4.7070
 0.4450	 4.7210
 0.4460	 4.7180
 0.4470	 4.7250
 0.4480	 4.7470
 0.4490	 4.7630
 0.4500	 4.7880
 0.4510	 4.8110
 0.4520	 4.8210
 0.4530	 4.8270
 0.4540	 4.8340
 0.4550	 4.8500
 0.4560	 4.8790
 0.4570	 4.8890
 0.4580	 4.8850
 0.4590	 4.8800
 0.4600	 4.8900
 0.4610	 4.9040
 0.4620	 4.9130
 0.4630	 4.9110
 0.4640	 4.9140
 0.4650	 4.9170
 0.4660	 4.9160
 0.4670	 4.9100
 0.4680	 4.9150
 0.4690	 4.9250
 0.4700	 4.9290
 0.4710	 4.9360
 0.4720	 4.9430
 0.4730	 4.9450
 0.4740	 4.9340
 0.4750	 4.9230
 0.4760	 4.9190
 0.4770	 4.9250
 0.4780	 4.9380
 0.4790	 4.9410
 0.4800	 4.9410
 0.4810	 4.9500
 0.4820	 4.9530
 0.4830	 4.9470
 0.4840	 4.9450
 0.4850	 4.9730
 0.4860	 4.9760
 0.4870	 4.9750
 0.4880	 4.9920
 0.4890	 5.0010
 0.4900	 5.0130
 0.4910	 5.0290
 0.4920	 5.0420
 0.4930	 5.0550
 0.4940	 5.0720
 0.4950	 5.0930
 0.4960	 5.1070
 0.4970	 5.1360
 0.4980	 5.1680
 0.4990	 5.1880
 0.5000	 5.2240
 0.5010	 5.2640
 0.5020	 5.3000
 0.5030	 5.3330
 0.5040	 5.3820
 0.5050	 5.4420
 0.5060	 5.5050
 0.5070	 5.5620
 0.5080	 5.6300
 0.5090	 5.7090
 0.5100	 5.7930
 0.5110	 5.8800
 0.5120	 5.9760
 0.5130	 6.0820
 0.5140	 6.1960
 0.5150	 6.3220
 0.5160	 6.4530
 0.5170	 6.5850
 0.5180	 6.7280
 0.5190	 6.8840
 0.5200	 7.0490
 0.5210	 7.2160
 0.5220	 7.3760
 0.5230	 7.5360
 0.5240	 7.7000
 0.5250	 7.8600
 0.5260	 8.0200
 0.5270	 8.1770
 0.5280	 8.3270
 0.5290	 8.4640
 0.5300	 8.5920
 0.5310	 8.7120
 0.5320	 8.8250
 0.5330	 8.9270
 0.5340	 9.0210
 0.5350	 9.1080
 0.5360	 9.1900
 0.5370	 9.2600
 0.5380	 9.3200
 0.5390	 9.3800
 0.5400	 9.4420
 0.5410	 9.5000
 0.5420	 9.5530
 0.5430	 9.6020
 0.5440	 9.6500
 0.5450	 9.6960
 0.5460	 9.7360
 0.5470	 9.7670
 0.5480	 9.7950
 0.5490	 9.8210
 0.5500	 9.8420
 0.5510	 9.8560
 0.5520	 9.8600
 0.5530	 9.8550
 0.5540	 9.8400
 0.5550	 9.8120
 0.5560	 9.7710
 0.5570	 9.7190
 0.5580	 9.6600
 0.5590	 9.5930
 0.5600	 9.5180
 0.5610	 9.4440
 0.5620	 9.3680
 0.5630	 9.2880
 0.5640	 9.2060
 0.5650	 9.1190
 0.5660	 9.0240
 0.5670	 8.9230
 0.5680	 8.8190
 0.5690	 8.7080
 0.5700	 8.5930
 0.5710	 8.4830
 0.5720	 8.3790
 0.5730	 8.2800
 0.5740	 8.1850
 0.5750	 8.0970
 0.5760	 8.0160
 0.5770	 7.9380
 0.5780	 7.8630
 0.5790	 7.7920
 0.5800	 7.7250
 0.5810	 7.6650
 0.5820	 7.6190
 0.5830	 7.5790
 0.5840	 7.5350
 0.5850	 7.4880
 0.5860	 7.4440
 0.5870	 7.3950
 0.5880	 7.3500
 0.5890	 7.3160
 0.5900	 7.2960
 0.5910	 7.2840
 0.5920	 7.2760
 0.5930	 7.2620
 0.5940	 7.2470
 0.5950	 7.2330
 0.5960	 7.2170
 0.5970	 7.1950
 0.5980	 7.1730
 0.5990	 7.1530
 0.6000	 7.1330
 0.6010	 7.1060
 0.6020	 7.0810
 0.6030	 7.0560
 0.6040	 7.0210
 0.6050	 6.9830
 0.6060	 6.9420
 0.6070	 6.9010
 0.6080	 6.8550
 0.6090	 6.8090
 0.6100	 6.7620
 0.6110	 6.7130
 0.6120	 6.6630
 0.6130	 6.6120
 0.6140	 6.5610
 0.6150	 6.5090
 0.6160	 6.4630
 0.6170	 6.4230
 0.6180	 6.3850
 0.6190	 6.3490
 0.6200	 6.3170
 0.6210	 6.2900
 0.6220	 6.2660
 0.6230	 6.2470
 0.6240	 6.2290
 0.6250	 6.2120
 0.6260	 6.1960
 0.6270	 6.1880
 0.6280	 6.1830
 0.6290	 6.1780
 0.6300	 6.1700
 0.6310	 6.1660
 0.6320	 6.1630
 0.6330	 6.1550
 0.6340	 6.1420
 0.6350	 6.1270
 0.6360	 6.1070
 0.6370	 6.0830
 0.6380	 6.0550
 0.6390	 6.0230
 0.6400	 5.9880
 0.6410	 5.9500
 0.6420	 5.9090
 0.6430	 5.8670
 0.6440	 5.8280
 0.6450	 5.7840
 0.6460	 5.7390
 0.6470	 5.6960
 0.6480	 5.6540
 0.6490	 5.6150
 0.6500	 5.5800
 0.6510	 5.5500
 0.6520	 5.5240
 0.6530	 5.4990
 0.6540	 5.4700
 0.6550	 5.4400
 0.6560	 5.4100
 0.6570	 5.3760
 0.6580	 5.3400
 0.6590	 5.3000
 0.6600	 5.2590
 0.6610	 5.2190
 0.6620	 5.1810
 0.6630	 5.1450
 0.6640	 5.1100
 0.6650	 5.0790
 0.6660	 5.0520
 0.6670	 5.0300
 0.6680	 5.0130
 0.6690	 4.9970
 0.6700	 4.9860
 0.6710	 4.9760
 0.6720	 4.9680
 0.6730	 4.9670
 0.6740	 4.9690
 0.6750	 4.9750
 0.6760	 4.9840
 0.6770	 4.9920
 0.6780	 5.0000
 0.6790	 5.0120
 0.6800	 5.0330
 0.6810	 5.0560
 0.6820	 5.0850
 0.6830	 5.1220
 0.6840	 5.1690
 0.6850	 5.2220
 0.6860	 5.2890
 0.6870	 5.3740
 0.6880	 5.4720
 0.6890	 5.5970
 0.6900	 5.7520
 0.6910	 5.9330
 0.6920	 6.1470
 0.6930	 6.4010
 0.6940	 6.6990
 0.6950	 7.0410
 0.6960	 7.4280
 0.6970	 7.8600
 0.6980	 8.3350
 0.6990	 8.8530
 0.7000	 9.4100
 0.7010	10.0030
 0.7020	10.6330
 0.7030	11.2960
 0.7040	11.9840
 0.7050	12.6910
 0.7060	13.4180
 0.7070	14.1640
 0.7080	14.9270
 0.7090	15.7060
 0.7100	16.5010
 0.7110	17.3130
 0.7120	18.1400
 0.7130	18.9740
 0.7140	19.8220
 0.7150	20.6840
 0.7160	21.5560
 0.7170	22.4350
 0.7180	23.3200
 0.7190	24.2100
 0.7200	25.1030
 0.7210	25.9990
 0.7220	26.8910
 0.7230	27.7770
 0.7240	28.6600
 0.7250	29.5240
 0.7260	30.3740
 0.7270	31.2130
 0.7280	32.0310
 0.7290	32.8250
 0.7300	33.5940
 0.7310	34.3390
 0.7320	35.0560
 0.7330	35.7470
 0.7340	36.4130
 0.7350	37.0490
 0.7360	37.6580
 0.7370	38.2360
 0.7380	38.7850
 0.7390	39.3120
 0.7400	39.8080
 0.7410	40.2760
 0.7420	40.7220
 0.7430	41.1360
 0.7440	41.5240
 0.7450	41.8900
 0.7460	42.2380
 0.7470	42.5560
 0.7480	42.8530
 0.7490	43.1310
 0.7500	43.3780
 0.7510	43.6150
 0.7520	43.8380
 0.7530	44.0380
 0.7540	44.2220
 0.7550	44.3940
 0.7560	44.5520
 0.7570	44.6930
 0.7580	44.8240
 0.7590	44.9440
 0.7600	45.0540
 0.7610	45.1570
 0.7620	45.2530
 0.7630	45.3410
 0.7640	45.4180
 0.7650	45.4920
 0.7660	45.5630
 0.7670	45.6270
 0.7680	45.6850
 0.7690	45.7360
 0.7700	45.7870
 0.7710	45.8400
 0.7720	45.8920
 0.7730	45.9300
 0.7740	45.9660
 0.7750	46.0090
 0.7760	46.0480
 0.7770	46.0820
 0.7780	46.1120
 0.7790	46.1450
 0.7800	46.1780
 0.7810	46.2080
 0.7820	46.2360
 0.7830	46.2660
 0.7840	46.2930
 0.7850	46.3170
 0.7860	46.3390
 0.7870	46.3630
 0.7880	46.3850
 0.7890	46.4050
 0.7900	46.4260
 0.7910	46.4450
 0.7920	46.4650
 0.7930	46.4860
 0.7940	46.5080
 0.7950	46.5210
 0.7960	46.5310
 0.7970	46.5430
 0.7980	46.5620
 0.7990	46.5750
 0.8000	46.5860
 0.8010	46.5980
 0.8020	46.6080
 0.8030	46.6150
 0.8040	46.6210
 0.8050	46.6260
 0.8060	46.6280
 0.8070	46.6340
 0.8080	46.6430
 0.8090	46.6460
 0.8100	46.6410
 0.8110	46.6380
 0.8120	46.6430
 0.8130	46.6490
 0.8140	46.6470
 0.8150	46.6420
 0.8160	46.6410
 0.8170	46.6420
 0.8180	46.6410
 0.8190	46.6360
 0.8200	46.6320
 0.8210	46.6320
 0.8220	46.6270
 0.8230	46.6160
 0.8240	46.6070
 0.8250	46.6000
 0.8260	46.5900
 0.8270	46.5770
 0.8280	46.5670
 0.8290	46.5570
 0.8300	46.5430
 0.8310	46.5230
 0.8320	46.5120
 0.8330	46.5020
 0.8340	46.4910
 0.8350	46.4810
 0.8360	46.4750
 0.8370	46.4700
 0.8380	46.4670
 0.8390	46.4690
 0.8400	46.4650
 0.8410	46.4630
 0.8420	46.4650
 0.8430	46.4620
 0.8440	46.4620
 0.8450	46.4650
 0.8460	46.4690
 0.8470	46.4670
 0.8480	46.4720
 0.8490	46.4770
 0.8500	46.4770
 0.8510	46.4830
 0.8520	46.4850
 0.8530	46.4850
 0.8540	46.4910
 0.8550	46.4900
 0.8560	46.4940
 0.8570	46.5040
 0.8580	46.5030
 0.8590	46.5030
 0.8600	46.5080
 0.8610	46.5150
 0.8620	46.5180
 0.8630	46.5250
 0.8640	46.5300
 0.8650	46.5330
 0.8660	46.5420
 0.8670	46.5480
 0.8680	46.5550
 0.8690	46.5690
 0.8700	46.5810
 0.8710	46.5890
 0.8720	46.5930
 0.8730	46.5980
 0.8740	46.6070
 0.8750	46.6160
 0.8760	46.6250
 0.8770	46.6370
 0.8780	46.6510
 0.8790	46.6580
 0.8800	46.6610
 0.8810	46.6730
 0.8820	46.6810
 0.8830	46.6870
 0.8840	46.6940
 0.8850	46.6950
 0.8860	46.7030
 0.8870	46.7150
 0.8880	46.7220
 0.8890	46.7190
 0.8900	46.7180
 0.8910	46.7240
 0.8920	46.7360
 0.8930	46.7390
 0.8940	46.7410
 0.8950	46.7430
 0.8960	46.7460
 0.8970	46.7490
 0.8980	46.7570
 0.8990	46.7640
 0.9000	46.7580
 0.9010	46.7660
 0.9020	46.7740
 0.9030	46.7740
 0.9040	46.7730
 0.9050	46.7740
 0.9060	46.7770
 0.9070	46.7810
 0.9080	46.7740
 0.9090	46.7790
 0.9100	46.7860
 0.9110	46.7850
 0.9120	46.7840
 0.9130	46.7840
 0.9140	46.7830
 0.9150	46.7790
 0.9160	46.7800
 0.9170	46.7780
 0.9180	46.7670
 0.9190	46.7480
 0.9200	46.7460
 0.9210	46.7380
 0.9220	46.7240
 0.9230	46.7120
 0.9240	46.6980
 0.9250	46.6730
 0.9260	46.6420
 0.9270	46.6190
 0.9280	46.5820
 0.9290	46.5490
 0.9300	46.5230
 0.9310	46.4810
 0.9320	46.4420
 0.9330	46.3950
 0.9340	46.3440
 0.9350	46.3080
 0.9360	46.2550
 0.9370	46.2030
 0.9380	46.1540
 0.9390	46.0800
 0.9400	46.0140
 0.9410	45.9520
 0.9420	45.8900
 0.9430	45.8250
 0.9440	45.7600
 0.9450	45.6940
 0.9460	45.6150
 0.9470	45.4990
 0.9480	45.3930
 0.9490	45.2910
 0.9500	45.1800
 0.9510	45.0660
 0.9520	44.9340
 0.9530	44.7960
 0.9540	44.6650
 0.9550	44.5170
 0.9560	44.3800
 0.9570	44.2590
 0.9580	44.1420
 0.9590	44.0070
 0.9600	43.8900
 0.9610	43.8010
 0.9620	43.7310
 0.9630	43.6500
 0.9640	43.5660
 0.9650	43.4920
 0.9660	43.4380
 0.9670	43.4120
 0.9680	43.3810
 0.9690	43.3400
 0.9700	43.2980
 0.9710	43.2620
 0.9720	43.2460
 0.9730	43.2350
 0.9740	43.2100
 0.9750	43.1840
 0.9760	43.1730
 0.9770	43.1730
 0.9780	43.1740
 0.9790	43.1730
 0.9800	43.1790
 0.9810	43.1900
 0.9820	43.2060
 0.9830	43.2390
 0.9840	43.2580
 0.9850	43.2700
 0.9860	43.2960
 0.9870	43.3330
 0.9880	43.3600
 0.9890	43.3860
 0.9900	43.4290
 0.9910	43.4620
 0.9920	43.5570
 0.9930	43.6510
 0.9940	43.7460
 0.9950	43.8400
 0.9960	43.9350
 0.9970	44.0290
 0.9980	44.1240
 0.9990	44.2180
 1.0000	44.3120
 1.0010	44.4070
 1.0020	44.5010
 1.0030	44.5960
 1.0040	44.6900
 1.0050	44.7850
 1.0060	44.8790
 1.0070	44.9740
 1.0080	45.0680
 1.0090	45.1630
 1.0100	45.1630
 1.0110	45.2180
 1.0120	45.2730
 1.0130	45.3310
 1.0140	45.3840
 1.0150	45.4330
 1.0160	45.4830
 1.0170	45.5340
 1.0180	45.5850
 1.0190	45.6370
 1.0200	45.6880
 1.0210	45.7350
 1.0220	45.7880
 1.0230	45.8360
 1.0240	45.8830
 1.0250	45.9300
 1.0260	45.9720
 1.0270	46.0190
 1.0280	46.0730
 1.0290	46.1190
 1.0300	46.1660
 1.0310	46.2090
 1.0320	46.2450
 1.0330	46.2820
 1.0340	46.3240
 1.0350	46.3630
 1.0360	46.4030
 1.0370	46.4410
 1.0380	46.4760
 1.0390	46.5090
 1.0400	46.5430
 1.0410	46.5770
 1.0420	46.6070
 1.0430	46.6340
 1.0440	46.6610
 1.0450	46.6860
 1.0460	46.7130
 1.0470	46.7440
 1.0480	46.7710
 1.0490	46.7940
 1.0500	46.8180
 1.0510	46.8420
 1.0520	46.8620
 1.0530	46.8830
 1.0540	46.9040
 1.0550	46.9250
 1.0560	46.9450
 1.0570	46.9660
 1.0580	46.9900
 1.0590	47.0070
 1.0600	47.0200
 1.0610	47.0330
 1.0620	47.0430
 1.0630	47.0550
 1.0640	47.0720
 1.0650	47.0810
 1.0660	47.0820
 1.0670	47.0890
 1.0680	47.0970
 1.0690	47.1040
 1.0700	47.1090
 1.0710	47.1210
 1.0720	47.1250
 1.0730	47.1230
 1.0740	47.1240
 1.0750	47.1270
 1.0760	47.1280
 1.0770	47.1260
 1.0780	47.1250
 1.0790	47.1220
 1.0800	47.1170
 1.0810	47.1110
 1.0820	47.1040
 1.0830	47.0970
 1.0840	47.0880
 1.0850	47.0790
 1.0860	47.0710
 1.0870	47.0620
 1.0880	47.0530
 1.0890	47.0390
 1.0900	47.0230
 1.0910	47.0050
 1.0920	46.9820
 1.0930	46.9620
 1.0940	46.9440
 1.0950	46.9230
 1.0960	46.9010
 1.0970	46.8780
 1.0980	46.8550
 1.0990	46.8290
 1.1000	46.8040
 1.1010	46.7740
 1.1020	46.7410
 1.1030	46.7050
 1.1040	46.6720
 1.1050	46.6420
 1.1060	46.6090
 1.1070	46.5790
 1.1080	46.5440
 1.1090	46.5060
 1.1100	46.4650
 1.1110	46.4210
 1.1120	46.3760
 1.1130	46.3290
 1.1140	46.2790
 1.1150	46.2290
 1.1160	46.1730
 1.1170	46.1160
 1.1180	46.0520
 1.1190	45.9860
 1.1200	45.9130
 1.1210	45.8320
 1.1220	45.7430
 1.1230	45.6440
 1.1240	45.5420
 1.1250	45.4320
 1.1260	45.3170
 1.1270	45.1890
 1.1280	45.0530
 1.1290	44.9040
 1.1300	44.7440
 1.1310	44.5720
 1.1320	44.3860
 1.1330	44.1910
 1.1340	43.9860
 1.1350	43.7670
 1.1360	43.5370
 1.1370	43.2970
 1.1380	43.0450
 1.1390	42.7840
 1.1400	42.5150
 1.1410	42.2410
 1.1420	41.9630
 1.1430	41.6790
 1.1440	41.3990
 1.1450	41.1130
 1.1460	40.8390
 1.1470	40.5650
 1.1480	40.3030
 1.1490	40.0470
 1.1500	39.8070
 1.1510	39.5740
 1.1520	39.3620
 1.1530	39.1670
 1.1540	38.9860
 1.1550	38.8210
 1.1560	38.6730
 1.1570	38.5380
 1.1580	38.4190
 1.1590	38.3150
 1.1600	38.2230
 1.1610	38.1430
 1.1620	38.0740
 1.1630	38.0120
 1.1640	37.9610
 1.1650	37.9170
 1.1660	37.8830
 1.1670	37.8520
 1.1680	37.8300
 1.1690	37.8070
 1.1700	37.7890
 1.1710	37.7700
 1.1720	37.7540
 1.1730	37.7380
 1.1740	37.7250
 1.1750	37.7100
 1.1760	37.6940
 1.1770	37.6800
 1.1780	37.6640
 1.1790	37.6460
 1.1800	37.6270
 1.1810	37.6050
 1.1820	37.5830
 1.1830	37.5630
 1.1840	37.5450
 1.1850	37.5250
 1.1860	37.5050
 1.1870	37.4830
 1.1880	37.4650
 1.1890	37.4450
 1.1900	37.4310
 1.1910	37.4210
 1.1920	37.4120
 1.1930	37.4060
 1.1940	37.4010
 1.1950	37.3970
 1.1960	37.3970
 1.1970	37.3980
 1.1980	37.4040
 1.1990	37.4130
 1.2000	37.4240
 1.2010	37.4370
 1.2020	37.4520
 1.2030	37.4700
 1.2040	37.4930
 1.2050	37.5180
 1.2060	37.5450
 1.2070	37.5730
 1.2080	37.6020
 1.2090	37.6310
 1.2100	37.6660
 1.2110	37.7040
 1.2120	37.7450
 1.2130	37.7870
 1.2140	37.8340
 1.2150	37.8790
 1.2160	37.9240
 1.2170	37.9700
 1.2180	38.0180
 1.2190	38.0660
 1.2200	38.1160
 1.2210	38.1680
 1.2220	38.2200
 1.2230	38.2720
 1.2240	38.3240
 1.2250	38.3740
 1.2260	38.4210
 1.2270	38.4660
 1.2280	38.5120
 1.2290	38.5560
 1.2300	38.6010
 1.2310	38.6470
 1.2320	38.6910
 1.2330	38.7320
 1.2340	38.7720
 1.2350	38.8100
 1.2360	38.8480
 1.2370	38.8830
 1.2380	38.9190
 1.2390	38.9540
 1.2400	38.9890
 1.2410	39.0220
 1.2420	39.0540
 1.2430	39.0860
 1.2440	39.1170
 1.2450	39.1460
 1.2460	39.1760
 1.2470	39.2030
 1.2480	39.2290
 1.2490	39.2550
 1.2500	39.2770
 1.2510	39.2980
 1.2520	39.3200
 1.2530	39.3390
 1.2540	39.3580
 1.2550	39.3750
 1.2560	39.3880
 1.2570	39.3990
 1.2580	39.4090
 1.2590	39.4180
 1.2600	39.4260
 1.2610	39.4320
 1.2620	39.4360
 1.2630	39.4370
 1.2640	39.4370
 1.2650	39.4360
 1.2660	39.4350
 1.2670	39.4310
 1.2680	39.4280
 1.2690	39.4220
 1.2700	39.4110
 1.2710	39.4000
 1.2720	39.3860
 1.2730	39.3690
 1.2740	39.3510
 1.2750	39.3310
 1.2760	39.3060
 1.2770	39.2780
 1.2780	39.2510
 1.2790	39.2220
 1.2800	39.1890
 1.2810	39.1550
 1.2820	39.1160
 1.2830	39.0760
 1.2840	39.0330
 1.2850	38.9870
 1.2860	38.9380
 1.2870	38.8860
 1.2880	38.8280
 1.2890	38.7700
 1.2900	38.7110
 1.2910	38.6460
 1.2920	38.5800
 1.2930	38.5100
 1.2940	38.4350
 1.2950	38.3590
 1.2960	38.2780
 1.2970	38.1940
 1.2980	38.1070
 1.2990	38.0160
 1.3000	37.9210
 1.3010	37.8210
 1.3020	37.7160
 1.3030	37.6070
 1.3040	37.4940
 1.3050	37.3760
 1.3060	37.2550
 1.3070	37.1290
 1.3080	36.9990
 1.3090	36.8640
 1.3100	36.7220
 1.3110	36.5760
 1.3120	36.4250
 1.3130	36.2690
 1.3140	36.1060
 1.3150	35.9390
 1.3160	35.7680
 1.3170	35.5930
 1.3180	35.4120
 1.3190	35.2270
 1.3200	35.0380
 1.3210	34.8390
 1.3220	34.6360
 1.3230	34.4290
 1.3240	34.2160
 1.3250	34.0050
 1.3260	33.7910
 1.3270	33.5740
 1.3280	33.3580
 1.3290	33.1360
 1.3300	32.9100
 1.3310	32.6850
 1.3320	32.4560
 1.3330	32.2270
 1.3340	31.9990
 1.3350	31.7680
 1.3360	31.5380
 1.3370	31.3080
 1.3380	31.0790
 1.3390	30.8550
 1.3400	30.6310
 1.3410	30.4110
 1.3420	30.1950
 1.3430	29.9790
 1.3440	29.7670
 1.3450	29.5570
 1.3460	29.3470
 1.3470	29.1440
 1.3480	28.9440
 1.3490	28.7470
 1.3500	28.5560
 1.3510	28.3670
 1.3520	28.1780
 1.3530	27.9910
 1.3540	27.8050
 1.3550	27.6210
 1.3560	27.4370
 1.3570	27.2530
 1.3580	27.0710
 1.3590	26.8870
 1.3600	26.6980
 1.3610	26.5080
 1.3620	26.3120
 1.3630	26.1120
 1.3640	25.9050
 1.3650	25.6900
 1.3660	25.4690
 1.3670	25.2370
 1.3680	24.9950
 1.3690	24.7420
 1.3700	24.4720
 1.3710	24.1890
 1.3720	23.8920
 1.3730	23.5750
 1.3740	23.2470
 1.3750	22.9000
 1.3760	22.5330
 1.3770	22.1470
 1.3780	21.7400
 1.3790	21.3130
 1.3800	20.8690
 1.3810	20.4030
 1.3820	19.9290
 1.3830	19.4380
 1.3840	18.9410
 1.3850	18.4320
 1.3860	17.9200
 1.3870	17.3950
 1.3880	16.8770
 1.3890	16.3570
 1.3900	15.8380
 1.3910	15.3300
 1.3920	14.8280
 1.3930	14.3330
 1.3940	13.8530
 1.3950	13.3800
 1.3960	12.9240
 1.3970	12.4870
 1.3980	12.0670
 1.3990	11.6710
 1.4000	11.2940
 1.4010	10.9340
 1.4020	10.5970
 1.4030	10.2780
 1.4040	 9.9790
 1.4050	 9.7000
 1.4060	 9.4400
 1.4070	 9.2010
 1.4080	 8.9790
 1.4090	 8.7720
 1.4100	 8.5830
 1.4110	 8.4080
 1.4120	 8.2480
 1.4130	 8.1020
 1.4140	 7.9680
 1.4150	 7.8470
 1.4160	 7.7360
 1.4170	 7.6340
 1.4180	 7.5420
 1.4190	 7.4590
 1.4200	 7.3820
 1.4210	 7.3130
 1.4220	 7.2510
 1.4230	 7.1950
 1.4240	 7.1450
 1.4250	 7.0990
 1.4260	 7.0590
 1.4270	 7.0230
 1.4280	 6.9900
 1.4290	 6.9610
 1.4300	 6.9370
 1.4310	 6.9150
 1.4320	 6.8970
 1.4330	 6.8810
 1.4340	 6.8680
 1.4350	 6.8570
 1.4360	 6.8490
 1.4370	 6.8420
 1.4380	 6.8380
 1.4390	 6.8350
 1.4400	 6.8350
 1.4410	 6.8350
 1.4420	 6.8370
 1.4430	 6.8400
 1.4440	 6.8440
 1.4450	 6.8490
 1.4460	 6.8540
 1.4470	 6.8610
 1.4480	 6.8690
 1.4490	 6.8780
 1.4500	 6.8880
 1.4510	 6.8980
 1.4520	 6.9090
 1.4530	 6.9190
 1.4540	 6.9310
 1.4550	 6.9450
 1.4560	 6.9590
 1.4570	 6.9740
 1.4580	 6.9900
 1.4590	 7.0070
 1.4600	 7.0270
 1.4610	 7.0490
 1.4620	 7.0720
 1.4630	 7.0980
 1.4640	 7.1260
 1.4650	 7.1560
 1.4660	 7.1890
 1.4670	 7.2240
 1.4680	 7.2610
 1.4690	 7.3000
