Name: Calocedrus decrruens 2
Type: vegetation
Class: Tree
Genus: Calocedrus
Species: decurrens
Sample No.: VH056
Owner: UCSB
Wavelength Range: VSWIR
Origin: 37.0441; -119.3033; WGS84
Collection Date: 4/20/2013
Description: Samples were collected as part of the HyspIRI Airborne Campaign. 48 individual plants were sampled in three times in 2013 - spring  summer  and fall. The name of the sample includes a 1  2  or 3 which references a different individual of the species. Samples were taken to JPL and processed within 48 hours of collection. The same leaves were processed in the Nicolet and then measured using the ASD.
Measurement: Bidirectional reflectance
First Column: X
Second Column: Y
X Units: Wavelength (micrometers)
Y Units: Reflectance (percentage)
First X Value: 0.35
Last X Value: 2.5
Number of X Values: 2151
Additional Information: vegetation.tree.calocedrus.decurrens.vswir.vh056.ucsb.asd.ancillary.txt

 0.3500	 5.0060
 0.3510	 4.9980
 0.3520	 4.8700
 0.3530	 4.7690
 0.3540	 4.7760
 0.3550	 4.6690
 0.3560	 4.5340
 0.3570	 4.5180
 0.3580	 4.7240
 0.3590	 4.6200
 0.3600	 4.4990
 0.3610	 4.5360
 0.3620	 4.6300
 0.3630	 4.5240
 0.3640	 4.3870
 0.3650	 4.4150
 0.3660	 4.4470
 0.3670	 4.4800
 0.3680	 4.4810
 0.3690	 4.4180
 0.3700	 4.4510
 0.3710	 4.4640
 0.3720	 4.4180
 0.3730	 4.4910
 0.3740	 4.5130
 0.3750	 4.4520
 0.3760	 4.3510
 0.3770	 4.3460
 0.3780	 4.4170
 0.3790	 4.4740
 0.3800	 4.3960
 0.3810	 4.3960
 0.3820	 4.4130
 0.3830	 4.3950
 0.3840	 4.4140
 0.3850	 4.4510
 0.3860	 4.4500
 0.3870	 4.3760
 0.3880	 4.3610
 0.3890	 4.3980
 0.3900	 4.4360
 0.3910	 4.4010
 0.3920	 4.4010
 0.3930	 4.4300
 0.3940	 4.4570
 0.3950	 4.4470
 0.3960	 4.4530
 0.3970	 4.5060
 0.3980	 4.6030
 0.3990	 4.5860
 0.4000	 4.5650
 0.4010	 4.6010
 0.4020	 4.6690
 0.4030	 4.7060
 0.4040	 4.7290
 0.4050	 4.7690
 0.4060	 4.8360
 0.4070	 4.8710
 0.4080	 4.8900
 0.4090	 4.9470
 0.4100	 4.9850
 0.4110	 4.9940
 0.4120	 4.9970
 0.4130	 5.0690
 0.4140	 5.1210
 0.4150	 5.1600
 0.4160	 5.2160
 0.4170	 5.2600
 0.4180	 5.2840
 0.4190	 5.2980
 0.4200	 5.3280
 0.4210	 5.3420
 0.4220	 5.3610
 0.4230	 5.3980
 0.4240	 5.4230
 0.4250	 5.4560
 0.4260	 5.4960
 0.4270	 5.5300
 0.4280	 5.5390
 0.4290	 5.5520
 0.4300	 5.5760
 0.4310	 5.5860
 0.4320	 5.5990
 0.4330	 5.6200
 0.4340	 5.6470
 0.4350	 5.6520
 0.4360	 5.6580
 0.4370	 5.6750
 0.4380	 5.6960
 0.4390	 5.7070
 0.4400	 5.7250
 0.4410	 5.7550
 0.4420	 5.7630
 0.4430	 5.7760
 0.4440	 5.8000
 0.4450	 5.8290
 0.4460	 5.8550
 0.4470	 5.8710
 0.4480	 5.8840
 0.4490	 5.9110
 0.4500	 5.9460
 0.4510	 5.9760
 0.4520	 5.9960
 0.4530	 6.0140
 0.4540	 6.0330
 0.4550	 6.0540
 0.4560	 6.0740
 0.4570	 6.0950
 0.4580	 6.1090
 0.4590	 6.1150
 0.4600	 6.1390
 0.4610	 6.1480
 0.4620	 6.1520
 0.4630	 6.1700
 0.4640	 6.1730
 0.4650	 6.1760
 0.4660	 6.1840
 0.4670	 6.1930
 0.4680	 6.1910
 0.4690	 6.1830
 0.4700	 6.1790
 0.4710	 6.1930
 0.4720	 6.2010
 0.4730	 6.2030
 0.4740	 6.2130
 0.4750	 6.2220
 0.4760	 6.2200
 0.4770	 6.2110
 0.4780	 6.2230
 0.4790	 6.2350
 0.4800	 6.2400
 0.4810	 6.2410
 0.4820	 6.2430
 0.4830	 6.2490
 0.4840	 6.2580
 0.4850	 6.2760
 0.4860	 6.2880
 0.4870	 6.3010
 0.4880	 6.3240
 0.4890	 6.3550
 0.4900	 6.3850
 0.4910	 6.4130
 0.4920	 6.4460
 0.4930	 6.4900
 0.4940	 6.5390
 0.4950	 6.5930
 0.4960	 6.6620
 0.4970	 6.7370
 0.4980	 6.8180
 0.4990	 6.9090
 0.5000	 7.0100
 0.5010	 7.1220
 0.5020	 7.2440
 0.5030	 7.3770
 0.5040	 7.5140
 0.5050	 7.6720
 0.5060	 7.8610
 0.5070	 8.0590
 0.5080	 8.2790
 0.5090	 8.5140
 0.5100	 8.7560
 0.5110	 9.0180
 0.5120	 9.2990
 0.5130	 9.5970
 0.5140	 9.9180
 0.5150	10.2440
 0.5160	10.5820
 0.5170	10.9370
 0.5180	11.3040
 0.5190	11.6720
 0.5200	12.0420
 0.5210	12.4200
 0.5220	12.7830
 0.5230	13.1390
 0.5240	13.4900
 0.5250	13.8220
 0.5260	14.1340
 0.5270	14.4280
 0.5280	14.7050
 0.5290	14.9610
 0.5300	15.1940
 0.5310	15.4060
 0.5320	15.5950
 0.5330	15.7730
 0.5340	15.9340
 0.5350	16.0740
 0.5360	16.1940
 0.5370	16.3020
 0.5380	16.4020
 0.5390	16.4940
 0.5400	16.5730
 0.5410	16.6500
 0.5420	16.7290
 0.5430	16.7980
 0.5440	16.8650
 0.5450	16.9310
 0.5460	16.9920
 0.5470	17.0420
 0.5480	17.0860
 0.5490	17.1280
 0.5500	17.1650
 0.5510	17.1880
 0.5520	17.1980
 0.5530	17.1940
 0.5540	17.1690
 0.5550	17.1190
 0.5560	17.0470
 0.5570	16.9610
 0.5580	16.8640
 0.5590	16.7510
 0.5600	16.6210
 0.5610	16.4810
 0.5620	16.3340
 0.5630	16.1790
 0.5640	16.0130
 0.5650	15.8370
 0.5660	15.6490
 0.5670	15.4510
 0.5680	15.2440
 0.5690	15.0290
 0.5700	14.8100
 0.5710	14.5920
 0.5720	14.3760
 0.5730	14.1640
 0.5740	13.9610
 0.5750	13.7760
 0.5760	13.6000
 0.5770	13.4370
 0.5780	13.2860
 0.5790	13.1440
 0.5800	13.0090
 0.5810	12.8850
 0.5820	12.7730
 0.5830	12.6620
 0.5840	12.5510
 0.5850	12.4450
 0.5860	12.3490
 0.5870	12.2570
 0.5880	12.1740
 0.5890	12.1050
 0.5900	12.0320
 0.5910	11.9620
 0.5920	11.9000
 0.5930	11.8480
 0.5940	11.8040
 0.5950	11.7650
 0.5960	11.7300
 0.5970	11.6940
 0.5980	11.6560
 0.5990	11.6130
 0.6000	11.5650
 0.6010	11.5150
 0.6020	11.4590
 0.6030	11.3940
 0.6040	11.3240
 0.6050	11.2460
 0.6060	11.1560
 0.6070	11.0560
 0.6080	10.9540
 0.6090	10.8420
 0.6100	10.7270
 0.6110	10.6190
 0.6120	10.5060
 0.6130	10.3840
 0.6140	10.2600
 0.6150	10.1470
 0.6160	10.0360
 0.6170	 9.9320
 0.6180	 9.8410
 0.6190	 9.7610
 0.6200	 9.6860
 0.6210	 9.6170
 0.6220	 9.5580
 0.6230	 9.5070
 0.6240	 9.4640
 0.6250	 9.4310
 0.6260	 9.4060
 0.6270	 9.3870
 0.6280	 9.3720
 0.6290	 9.3620
 0.6300	 9.3480
 0.6310	 9.3360
 0.6320	 9.3240
 0.6330	 9.3030
 0.6340	 9.2710
 0.6350	 9.2260
 0.6360	 9.1640
 0.6370	 9.0910
 0.6380	 9.0100
 0.6390	 8.9180
 0.6400	 8.8090
 0.6410	 8.6950
 0.6420	 8.5760
 0.6430	 8.4520
 0.6440	 8.3220
 0.6450	 8.1910
 0.6460	 8.0600
 0.6470	 7.9350
 0.6480	 7.8220
 0.6490	 7.7240
 0.6500	 7.6400
 0.6510	 7.5640
 0.6520	 7.5020
 0.6530	 7.4430
 0.6540	 7.3790
 0.6550	 7.3150
 0.6560	 7.2460
 0.6570	 7.1670
 0.6580	 7.0760
 0.6590	 6.9770
 0.6600	 6.8760
 0.6610	 6.7730
 0.6620	 6.6680
 0.6630	 6.5720
 0.6640	 6.4840
 0.6650	 6.4030
 0.6660	 6.3320
 0.6670	 6.2740
 0.6680	 6.2300
 0.6690	 6.1950
 0.6700	 6.1640
 0.6710	 6.1450
 0.6720	 6.1410
 0.6730	 6.1400
 0.6740	 6.1490
 0.6750	 6.1650
 0.6760	 6.1840
 0.6770	 6.2120
 0.6780	 6.2470
 0.6790	 6.2930
 0.6800	 6.3480
 0.6810	 6.4130
 0.6820	 6.4910
 0.6830	 6.5880
 0.6840	 6.7070
 0.6850	 6.8560
 0.6860	 7.0400
 0.6870	 7.2660
 0.6880	 7.5550
 0.6890	 7.9170
 0.6900	 8.3600
 0.6910	 8.8900
 0.6920	 9.5090
 0.6930	10.2160
 0.6940	11.0070
 0.6950	11.8720
 0.6960	12.8040
 0.6970	13.7920
 0.6980	14.8230
 0.6990	15.9010
 0.7000	17.0040
 0.7010	18.1240
 0.7020	19.2610
 0.7030	20.4050
 0.7040	21.5460
 0.7050	22.6810
 0.7060	23.8140
 0.7070	24.9430
 0.7080	26.0670
 0.7090	27.1880
 0.7100	28.3030
 0.7110	29.4170
 0.7120	30.5300
 0.7130	31.6430
 0.7140	32.7480
 0.7150	33.8490
 0.7160	34.9440
 0.7170	36.0350
 0.7180	37.1190
 0.7190	38.1940
 0.7200	39.2600
 0.7210	40.3090
 0.7220	41.3420
 0.7230	42.3530
 0.7240	43.3330
 0.7250	44.2970
 0.7260	45.2370
 0.7270	46.1410
 0.7280	47.0120
 0.7290	47.8490
 0.7300	48.6490
 0.7310	49.4140
 0.7320	50.1480
 0.7330	50.8420
 0.7340	51.4950
 0.7350	52.1140
 0.7360	52.7140
 0.7370	53.2760
 0.7380	53.7870
 0.7390	54.2750
 0.7400	54.7290
 0.7410	55.1540
 0.7420	55.5580
 0.7430	55.9280
 0.7440	56.2650
 0.7450	56.5730
 0.7460	56.8590
 0.7470	57.1210
 0.7480	57.3620
 0.7490	57.5840
 0.7500	57.7820
 0.7510	57.9640
 0.7520	58.1250
 0.7530	58.2670
 0.7540	58.4000
 0.7550	58.5290
 0.7560	58.6460
 0.7570	58.7380
 0.7580	58.8240
 0.7590	58.9050
 0.7600	58.9810
 0.7610	59.0450
 0.7620	59.1040
 0.7630	59.1570
 0.7640	59.2050
 0.7650	59.2480
 0.7660	59.2840
 0.7670	59.3170
 0.7680	59.3500
 0.7690	59.3840
 0.7700	59.4120
 0.7710	59.4310
 0.7720	59.4480
 0.7730	59.4720
 0.7740	59.5000
 0.7750	59.5240
 0.7760	59.5360
 0.7770	59.5510
 0.7780	59.5690
 0.7790	59.5880
 0.7800	59.6020
 0.7810	59.6180
 0.7820	59.6340
 0.7830	59.6370
 0.7840	59.6570
 0.7850	59.6800
 0.7860	59.6910
 0.7870	59.7050
 0.7880	59.7190
 0.7890	59.7300
 0.7900	59.7370
 0.7910	59.7510
 0.7920	59.7640
 0.7930	59.7740
 0.7940	59.7790
 0.7950	59.7950
 0.7960	59.8050
 0.7970	59.8040
 0.7980	59.8060
 0.7990	59.8140
 0.8000	59.8250
 0.8010	59.8330
 0.8020	59.8370
 0.8030	59.8420
 0.8040	59.8460
 0.8050	59.8460
 0.8060	59.8460
 0.8070	59.8490
 0.8080	59.8530
 0.8090	59.8580
 0.8100	59.8530
 0.8110	59.8470
 0.8120	59.8440
 0.8130	59.8440
 0.8140	59.8380
 0.8150	59.8360
 0.8160	59.8490
 0.8170	59.8510
 0.8180	59.8450
 0.8190	59.8370
 0.8200	59.8380
 0.8210	59.8390
 0.8220	59.8380
 0.8230	59.8370
 0.8240	59.8370
 0.8250	59.8230
 0.8260	59.8110
 0.8270	59.8080
 0.8280	59.8050
 0.8290	59.7910
 0.8300	59.7830
 0.8310	59.7870
 0.8320	59.7680
 0.8330	59.7620
 0.8340	59.7700
 0.8350	59.7750
 0.8360	59.7680
 0.8370	59.7650
 0.8380	59.7690
 0.8390	59.7750
 0.8400	59.7810
 0.8410	59.7800
 0.8420	59.7740
 0.8430	59.7800
 0.8440	59.7850
 0.8450	59.7970
 0.8460	59.8150
 0.8470	59.8020
 0.8480	59.7950
 0.8490	59.7970
 0.8500	59.7990
 0.8510	59.8160
 0.8520	59.8300
 0.8530	59.8350
 0.8540	59.8340
 0.8550	59.8480
 0.8560	59.8490
 0.8570	59.8380
 0.8580	59.8480
 0.8590	59.8580
 0.8600	59.8600
 0.8610	59.8570
 0.8620	59.8700
 0.8630	59.8820
 0.8640	59.8900
 0.8650	59.8930
 0.8660	59.8900
 0.8670	59.8870
 0.8680	59.8900
 0.8690	59.8980
 0.8700	59.9030
 0.8710	59.9100
 0.8720	59.9120
 0.8730	59.9040
 0.8740	59.9070
 0.8750	59.9180
 0.8760	59.9300
 0.8770	59.9290
 0.8780	59.9290
 0.8790	59.9310
 0.8800	59.9330
 0.8810	59.9330
 0.8820	59.9310
 0.8830	59.9310
 0.8840	59.9370
 0.8850	59.9430
 0.8860	59.9380
 0.8870	59.9300
 0.8880	59.9270
 0.8890	59.9200
 0.8900	59.9190
 0.8910	59.9180
 0.8920	59.9070
 0.8930	59.9080
 0.8940	59.9130
 0.8950	59.9160
 0.8960	59.9130
 0.8970	59.9070
 0.8980	59.9000
 0.8990	59.8970
 0.9000	59.8990
 0.9010	59.8860
 0.9020	59.8750
 0.9030	59.8740
 0.9040	59.8740
 0.9050	59.8630
 0.9060	59.8520
 0.9070	59.8470
 0.9080	59.8370
 0.9090	59.8300
 0.9100	59.8240
 0.9110	59.8140
 0.9120	59.7980
 0.9130	59.8000
 0.9140	59.8040
 0.9150	59.7920
 0.9160	59.7870
 0.9170	59.7660
 0.9180	59.7440
 0.9190	59.7410
 0.9200	59.7240
 0.9210	59.7110
 0.9220	59.6960
 0.9230	59.6690
 0.9240	59.6480
 0.9250	59.6360
 0.9260	59.6240
 0.9270	59.5960
 0.9280	59.5700
 0.9290	59.5340
 0.9300	59.4950
 0.9310	59.4740
 0.9320	59.4380
 0.9330	59.4020
 0.9340	59.3690
 0.9350	59.3240
 0.9360	59.2910
 0.9370	59.2620
 0.9380	59.2260
 0.9390	59.1820
 0.9400	59.1320
 0.9410	59.0730
 0.9420	59.0080
 0.9430	58.9500
 0.9440	58.8900
 0.9450	58.8180
 0.9460	58.7340
 0.9470	58.6440
 0.9480	58.5550
 0.9490	58.4700
 0.9500	58.3800
 0.9510	58.2390
 0.9520	58.1200
 0.9530	58.0090
 0.9540	57.8820
 0.9550	57.7700
 0.9560	57.6670
 0.9570	57.5490
 0.9580	57.4090
 0.9590	57.3140
 0.9600	57.2160
 0.9610	57.1310
 0.9620	57.0760
 0.9630	56.9770
 0.9640	56.9020
 0.9650	56.8540
 0.9660	56.8120
 0.9670	56.7640
 0.9680	56.7290
 0.9690	56.6970
 0.9700	56.6570
 0.9710	56.6280
 0.9720	56.5990
 0.9730	56.5700
 0.9740	56.5460
 0.9750	56.5150
 0.9760	56.4990
 0.9770	56.4900
 0.9780	56.4710
 0.9790	56.4640
 0.9800	56.4470
 0.9810	56.4400
 0.9820	56.4680
 0.9830	56.4750
 0.9840	56.4650
 0.9850	56.4620
 0.9860	56.4920
 0.9870	56.5130
 0.9880	56.5280
 0.9890	56.5520
 0.9900	56.5970
 0.9910	56.6170
 0.9920	56.6870
 0.9930	56.7580
 0.9940	56.8280
 0.9950	56.8980
 0.9960	56.9690
 0.9970	57.0390
 0.9980	57.1100
 0.9990	57.1800
 1.0000	57.2500
 1.0010	57.3210
 1.0020	57.3910
 1.0030	57.4620
 1.0040	57.5320
 1.0050	57.6030
 1.0060	57.6730
 1.0070	57.7430
 1.0080	57.8140
 1.0090	57.8840
 1.0100	57.8840
 1.0110	57.9350
 1.0120	57.9840
 1.0130	58.0280
 1.0140	58.0750
 1.0150	58.1220
 1.0160	58.1730
 1.0170	58.2200
 1.0180	58.2640
 1.0190	58.3100
 1.0200	58.3580
 1.0210	58.4080
 1.0220	58.4620
 1.0230	58.5110
 1.0240	58.5560
 1.0250	58.6010
 1.0260	58.6440
 1.0270	58.6870
 1.0280	58.7290
 1.0290	58.7730
 1.0300	58.8140
 1.0310	58.8570
 1.0320	58.9020
 1.0330	58.9480
 1.0340	58.9870
 1.0350	59.0240
 1.0360	59.0640
 1.0370	59.0980
 1.0380	59.1350
 1.0390	59.1770
 1.0400	59.2130
 1.0410	59.2450
 1.0420	59.2780
 1.0430	59.3090
 1.0440	59.3400
 1.0450	59.3700
 1.0460	59.4000
 1.0470	59.4300
 1.0480	59.4610
 1.0490	59.4990
 1.0500	59.5270
 1.0510	59.5540
 1.0520	59.5740
 1.0530	59.5970
 1.0540	59.6140
 1.0550	59.6340
 1.0560	59.6560
 1.0570	59.6780
 1.0580	59.6980
 1.0590	59.7190
 1.0600	59.7460
 1.0610	59.7670
 1.0620	59.7850
 1.0630	59.8020
 1.0640	59.8140
 1.0650	59.8280
 1.0660	59.8440
 1.0670	59.8560
 1.0680	59.8660
 1.0690	59.8750
 1.0700	59.8850
 1.0710	59.8920
 1.0720	59.9010
 1.0730	59.9160
 1.0740	59.9240
 1.0750	59.9300
 1.0760	59.9340
 1.0770	59.9330
 1.0780	59.9350
 1.0790	59.9370
 1.0800	59.9390
 1.0810	59.9450
 1.0820	59.9460
 1.0830	59.9440
 1.0840	59.9400
 1.0850	59.9360
 1.0860	59.9270
 1.0870	59.9170
 1.0880	59.9060
 1.0890	59.8930
 1.0900	59.8780
 1.0910	59.8640
 1.0920	59.8510
 1.0930	59.8350
 1.0940	59.8180
 1.0950	59.8000
 1.0960	59.7820
 1.0970	59.7630
 1.0980	59.7450
 1.0990	59.7260
 1.1000	59.7030
 1.1010	59.6810
 1.1020	59.6620
 1.1030	59.6390
 1.1040	59.6130
 1.1050	59.5890
 1.1060	59.5620
 1.1070	59.5320
 1.1080	59.5030
 1.1090	59.4730
 1.1100	59.4410
 1.1110	59.4070
 1.1120	59.3710
 1.1130	59.3340
 1.1140	59.2950
 1.1150	59.2520
 1.1160	59.2080
 1.1170	59.1640
 1.1180	59.1140
 1.1190	59.0610
 1.1200	59.0050
 1.1210	58.9390
 1.1220	58.8660
 1.1230	58.7850
 1.1240	58.6960
 1.1250	58.5970
 1.1260	58.4930
 1.1270	58.3730
 1.1280	58.2440
 1.1290	58.1000
 1.1300	57.9450
 1.1310	57.7750
 1.1320	57.5930
 1.1330	57.3990
 1.1340	57.1940
 1.1350	56.9740
 1.1360	56.7430
 1.1370	56.4980
 1.1380	56.2440
 1.1390	55.9800
 1.1400	55.7080
 1.1410	55.4350
 1.1420	55.1590
 1.1430	54.8790
 1.1440	54.6050
 1.1450	54.3280
 1.1460	54.0620
 1.1470	53.7970
 1.1480	53.5450
 1.1490	53.3010
 1.1500	53.0700
 1.1510	52.8460
 1.1520	52.6360
 1.1530	52.4360
 1.1540	52.2510
 1.1550	52.0770
 1.1560	51.9210
 1.1570	51.7760
 1.1580	51.6430
 1.1590	51.5220
 1.1600	51.4090
 1.1610	51.3060
 1.1620	51.2120
 1.1630	51.1230
 1.1640	51.0400
 1.1650	50.9630
 1.1660	50.8900
 1.1670	50.8250
 1.1680	50.7680
 1.1690	50.7110
 1.1700	50.6610
 1.1710	50.6080
 1.1720	50.5590
 1.1730	50.5070
 1.1740	50.4550
 1.1750	50.4010
 1.1760	50.3480
 1.1770	50.2910
 1.1780	50.2320
 1.1790	50.1760
 1.1800	50.1170
 1.1810	50.0580
 1.1820	49.9990
 1.1830	49.9410
 1.1840	49.8820
 1.1850	49.8240
 1.1860	49.7670
 1.1870	49.7110
 1.1880	49.6560
 1.1890	49.6000
 1.1900	49.5490
 1.1910	49.5000
 1.1920	49.4550
 1.1930	49.4130
 1.1940	49.3750
 1.1950	49.3410
 1.1960	49.3070
 1.1970	49.2800
 1.1980	49.2560
 1.1990	49.2370
 1.2000	49.2270
 1.2010	49.2210
 1.2020	49.2210
 1.2030	49.2280
 1.2040	49.2390
 1.2050	49.2560
 1.2060	49.2780
 1.2070	49.3060
 1.2080	49.3380
 1.2090	49.3770
 1.2100	49.4210
 1.2110	49.4710
 1.2120	49.5270
 1.2130	49.5870
 1.2140	49.6510
 1.2150	49.7190
 1.2160	49.7900
 1.2170	49.8620
 1.2180	49.9380
 1.2190	50.0190
 1.2200	50.0980
 1.2210	50.1830
 1.2220	50.2670
 1.2230	50.3500
 1.2240	50.4360
 1.2250	50.5160
 1.2260	50.5950
 1.2270	50.6760
 1.2280	50.7540
 1.2290	50.8310
 1.2300	50.9080
 1.2310	50.9800
 1.2320	51.0480
 1.2330	51.1150
 1.2340	51.1790
 1.2350	51.2400
 1.2360	51.2990
 1.2370	51.3560
 1.2380	51.4100
 1.2390	51.4630
 1.2400	51.5130
 1.2410	51.5630
 1.2420	51.6100
 1.2430	51.6550
 1.2440	51.6980
 1.2450	51.7410
 1.2460	51.7850
 1.2470	51.8280
 1.2480	51.8680
 1.2490	51.9050
 1.2500	51.9410
 1.2510	51.9780
 1.2520	52.0140
 1.2530	52.0480
 1.2540	52.0780
 1.2550	52.1050
 1.2560	52.1280
 1.2570	52.1490
 1.2580	52.1690
 1.2590	52.1890
 1.2600	52.2070
 1.2610	52.2250
 1.2620	52.2420
 1.2630	52.2600
 1.2640	52.2750
 1.2650	52.2870
 1.2660	52.2990
 1.2670	52.3030
 1.2680	52.3050
 1.2690	52.3080
 1.2700	52.3060
 1.2710	52.3040
 1.2720	52.3020
 1.2730	52.2960
 1.2740	52.2890
 1.2750	52.2800
 1.2760	52.2670
 1.2770	52.2530
 1.2780	52.2380
 1.2790	52.2170
 1.2800	52.1950
 1.2810	52.1720
 1.2820	52.1460
 1.2830	52.1190
 1.2840	52.0900
 1.2850	52.0580
 1.2860	52.0220
 1.2870	51.9830
 1.2880	51.9420
 1.2890	51.9010
 1.2900	51.8560
 1.2910	51.8080
 1.2920	51.7570
 1.2930	51.7000
 1.2940	51.6390
 1.2950	51.5760
 1.2960	51.5120
 1.2970	51.4420
 1.2980	51.3680
 1.2990	51.2900
 1.3000	51.2050
 1.3010	51.1180
 1.3020	51.0290
 1.3030	50.9340
 1.3040	50.8350
 1.3050	50.7290
 1.3060	50.6180
 1.3070	50.5050
 1.3080	50.3860
 1.3090	50.2610
 1.3100	50.1340
 1.3110	50.0020
 1.3120	49.8660
 1.3130	49.7290
 1.3140	49.5830
 1.3150	49.4300
 1.3160	49.2730
 1.3170	49.1130
 1.3180	48.9470
 1.3190	48.7740
 1.3200	48.5980
 1.3210	48.4120
 1.3220	48.2200
 1.3230	48.0250
 1.3240	47.8270
 1.3250	47.6280
 1.3260	47.4270
 1.3270	47.2210
 1.3280	47.0150
 1.3290	46.8040
 1.3300	46.5910
 1.3310	46.3760
 1.3320	46.1630
 1.3330	45.9490
 1.3340	45.7360
 1.3350	45.5220
 1.3360	45.3070
 1.3370	45.0940
 1.3380	44.8820
 1.3390	44.6690
 1.3400	44.4590
 1.3410	44.2510
 1.3420	44.0440
 1.3430	43.8410
 1.3440	43.6410
 1.3450	43.4440
 1.3460	43.2460
 1.3470	43.0550
 1.3480	42.8670
 1.3490	42.6810
 1.3500	42.4960
 1.3510	42.3160
 1.3520	42.1370
 1.3530	41.9570
 1.3540	41.7810
 1.3550	41.6060
 1.3560	41.4310
 1.3570	41.2550
 1.3580	41.0790
 1.3590	40.8970
 1.3600	40.7120
 1.3610	40.5250
 1.3620	40.3300
 1.3630	40.1350
 1.3640	39.9320
 1.3650	39.7200
 1.3660	39.5030
 1.3670	39.2730
 1.3680	39.0320
 1.3690	38.7820
 1.3700	38.5150
 1.3710	38.2360
 1.3720	37.9420
 1.3730	37.6280
 1.3740	37.3000
 1.3750	36.9510
 1.3760	36.5810
 1.3770	36.1900
 1.3780	35.7720
 1.3790	35.3350
 1.3800	34.8750
 1.3810	34.3920
 1.3820	33.8920
 1.3830	33.3740
 1.3840	32.8400
 1.3850	32.2870
 1.3860	31.7250
 1.3870	31.1430
 1.3880	30.5630
 1.3890	29.9730
 1.3900	29.3780
 1.3910	28.7890
 1.3920	28.1990
 1.3930	27.6080
 1.3940	27.0260
 1.3950	26.4460
 1.3960	25.8770
 1.3970	25.3230
 1.3980	24.7810
 1.3990	24.2590
 1.4000	23.7520
 1.4010	23.2610
 1.4020	22.7920
 1.4030	22.3380
 1.4040	21.9040
 1.4050	21.4910
 1.4060	21.0970
 1.4070	20.7260
 1.4080	20.3740
 1.4090	20.0410
 1.4100	19.7280
 1.4110	19.4320
 1.4120	19.1540
 1.4130	18.8930
 1.4140	18.6480
 1.4150	18.4210
 1.4160	18.2080
 1.4170	18.0080
 1.4180	17.8210
 1.4190	17.6450
 1.4200	17.4800
 1.4210	17.3270
 1.4220	17.1860
 1.4230	17.0560
 1.4240	16.9340
 1.4250	16.8190
 1.4260	16.7120
 1.4270	16.6130
 1.4280	16.5200
 1.4290	16.4360
 1.4300	16.3600
 1.4310	16.2900
 1.4320	16.2260
 1.4330	16.1670
 1.4340	16.1140
 1.4350	16.0660
 1.4360	16.0230
 1.4370	15.9860
 1.4380	15.9510
 1.4390	15.9210
 1.4400	15.8960
 1.4410	15.8750
 1.4420	15.8570
 1.4430	15.8430
 1.4440	15.8320
 1.4450	15.8220
 1.4460	15.8160
 1.4470	15.8120
 1.4480	15.8100
 1.4490	15.8110
 1.4500	15.8140
 1.4510	15.8200
 1.4520	15.8250
 1.4530	15.8340
 1.4540	15.8440
 1.4550	15.8570
 1.4560	15.8720
 1.4570	15.8910
 1.4580	15.9120
 1.4590	15.9360
 1.4600	15.9630
 1.4610	15.9940
 1.4620	16.0280
 1.4630	16.0680
 1.4640	16.1110
 1.4650	16.1590
 1.4660	16.2100
 1.4670	16.2660
 1.4680	16.3260
 1.4690	16.3890
