Name: Bambusa beecheyana
Type: vegetation
Class: Tree
Genus: Bambusa
Species: beecheyana
Sample No.: JPL238
Owner: JPL
Wavelength Range: VSWIR
Origin: 34.12719; -118.11127; WGS84
Collection Date: 10/6/2016
Description: Samples were collected at the Huntington Garden in San Marino California as part of a JPL Subcontract studying HyTES imagery. Samples were taken to JPL and processed within 48 hours of collection. The same leaves were processed in the Nicolet and then measured using the ASD.
Measurement: Bidirectional reflectance
First Column: X
Second Column: Y
X Units: Wavelength (micrometer)
Y Units: Reflectance (percentage)
First X Value: 0.35
Last X Value: 2.5
Number of X Values: 2151
Additional Information: vegetation.tree.bambusa.beecheyana.vswir.jpl238.jpl.asd.ancillary.txt

 0.3500	 4.6220
 0.3510	 4.4510
 0.3520	 4.3900
 0.3530	 4.4090
 0.3540	 4.4150
 0.3550	 4.3080
 0.3560	 4.3210
 0.3570	 4.4100
 0.3580	 4.4040
 0.3590	 4.3240
 0.3600	 4.2820
 0.3610	 4.3050
 0.3620	 4.2980
 0.3630	 4.2630
 0.3640	 4.2400
 0.3650	 4.2540
 0.3660	 4.2550
 0.3670	 4.2380
 0.3680	 4.2050
 0.3690	 4.1640
 0.3700	 4.1700
 0.3710	 4.1740
 0.3720	 4.1500
 0.3730	 4.1390
 0.3740	 4.2210
 0.3750	 4.2560
 0.3760	 4.1270
 0.3770	 4.1480
 0.3780	 4.1800
 0.3790	 4.1770
 0.3800	 4.1820
 0.3810	 4.1670
 0.3820	 4.1430
 0.3830	 4.1290
 0.3840	 4.1390
 0.3850	 4.1900
 0.3860	 4.2300
 0.3870	 4.1960
 0.3880	 4.1300
 0.3890	 4.1130
 0.3900	 4.1590
 0.3910	 4.2180
 0.3920	 4.2360
 0.3930	 4.2240
 0.3940	 4.2030
 0.3950	 4.1920
 0.3960	 4.1880
 0.3970	 4.1860
 0.3980	 4.1860
 0.3990	 4.2320
 0.4000	 4.2540
 0.4010	 4.2410
 0.4020	 4.2650
 0.4030	 4.2770
 0.4040	 4.2850
 0.4050	 4.3000
 0.4060	 4.3100
 0.4070	 4.3250
 0.4080	 4.3380
 0.4090	 4.3350
 0.4100	 4.3510
 0.4110	 4.3770
 0.4120	 4.4010
 0.4130	 4.4170
 0.4140	 4.4400
 0.4150	 4.4610
 0.4160	 4.4700
 0.4170	 4.4820
 0.4180	 4.4910
 0.4190	 4.4950
 0.4200	 4.4920
 0.4210	 4.5120
 0.4220	 4.5260
 0.4230	 4.5180
 0.4240	 4.5310
 0.4250	 4.5420
 0.4260	 4.5530
 0.4270	 4.5690
 0.4280	 4.5740
 0.4290	 4.5760
 0.4300	 4.5820
 0.4310	 4.5870
 0.4320	 4.5990
 0.4330	 4.6040
 0.4340	 4.5940
 0.4350	 4.5890
 0.4360	 4.5860
 0.4370	 4.5930
 0.4380	 4.6190
 0.4390	 4.6210
 0.4400	 4.6110
 0.4410	 4.6060
 0.4420	 4.6100
 0.4430	 4.6140
 0.4440	 4.6160
 0.4450	 4.6190
 0.4460	 4.6250
 0.4470	 4.6290
 0.4480	 4.6300
 0.4490	 4.6380
 0.4500	 4.6450
 0.4510	 4.6490
 0.4520	 4.6500
 0.4530	 4.6530
 0.4540	 4.6580
 0.4550	 4.6620
 0.4560	 4.6580
 0.4570	 4.6600
 0.4580	 4.6650
 0.4590	 4.6710
 0.4600	 4.6800
 0.4610	 4.6800
 0.4620	 4.6720
 0.4630	 4.6630
 0.4640	 4.6610
 0.4650	 4.6590
 0.4660	 4.6570
 0.4670	 4.6600
 0.4680	 4.6600
 0.4690	 4.6560
 0.4700	 4.6520
 0.4710	 4.6450
 0.4720	 4.6500
 0.4730	 4.6570
 0.4740	 4.6440
 0.4750	 4.6420
 0.4760	 4.6450
 0.4770	 4.6450
 0.4780	 4.6370
 0.4790	 4.6360
 0.4800	 4.6400
 0.4810	 4.6410
 0.4820	 4.6370
 0.4830	 4.6360
 0.4840	 4.6380
 0.4850	 4.6390
 0.4860	 4.6430
 0.4870	 4.6470
 0.4880	 4.6510
 0.4890	 4.6580
 0.4900	 4.6640
 0.4910	 4.6710
 0.4920	 4.6800
 0.4930	 4.6890
 0.4940	 4.7020
 0.4950	 4.7180
 0.4960	 4.7370
 0.4970	 4.7540
 0.4980	 4.7740
 0.4990	 4.8010
 0.5000	 4.8260
 0.5010	 4.8560
 0.5020	 4.8930
 0.5030	 4.9310
 0.5040	 4.9760
 0.5050	 5.0300
 0.5060	 5.0940
 0.5070	 5.1570
 0.5080	 5.2320
 0.5090	 5.3180
 0.5100	 5.4080
 0.5110	 5.5070
 0.5120	 5.6230
 0.5130	 5.7560
 0.5140	 5.8940
 0.5150	 6.0440
 0.5160	 6.2090
 0.5170	 6.3860
 0.5180	 6.5750
 0.5190	 6.7750
 0.5200	 6.9840
 0.5210	 7.1950
 0.5220	 7.4150
 0.5230	 7.6350
 0.5240	 7.8510
 0.5250	 8.0660
 0.5260	 8.2750
 0.5270	 8.4700
 0.5280	 8.6470
 0.5290	 8.8200
 0.5300	 8.9800
 0.5310	 9.1240
 0.5320	 9.2550
 0.5330	 9.3750
 0.5340	 9.4820
 0.5350	 9.5750
 0.5360	 9.6590
 0.5370	 9.7300
 0.5380	 9.7920
 0.5390	 9.8470
 0.5400	 9.9060
 0.5410	 9.9680
 0.5420	10.0260
 0.5430	10.0740
 0.5440	10.1100
 0.5450	10.1350
 0.5460	10.1490
 0.5470	10.1550
 0.5480	10.1600
 0.5490	10.1660
 0.5500	10.1750
 0.5510	10.1780
 0.5520	10.1710
 0.5530	10.1500
 0.5540	10.1150
 0.5550	10.0670
 0.5560	10.0070
 0.5570	 9.9340
 0.5580	 9.8490
 0.5590	 9.7530
 0.5600	 9.6470
 0.5610	 9.5360
 0.5620	 9.4170
 0.5630	 9.2900
 0.5640	 9.1580
 0.5650	 9.0260
 0.5660	 8.8920
 0.5670	 8.7540
 0.5680	 8.6100
 0.5690	 8.4650
 0.5700	 8.3190
 0.5710	 8.1720
 0.5720	 8.0330
 0.5730	 7.8980
 0.5740	 7.7700
 0.5750	 7.6480
 0.5760	 7.5350
 0.5770	 7.4300
 0.5780	 7.3320
 0.5790	 7.2410
 0.5800	 7.1560
 0.5810	 7.0780
 0.5820	 7.0070
 0.5830	 6.9370
 0.5840	 6.8740
 0.5850	 6.8180
 0.5860	 6.7590
 0.5870	 6.7060
 0.5880	 6.6560
 0.5890	 6.6060
 0.5900	 6.5630
 0.5910	 6.5230
 0.5920	 6.4860
 0.5930	 6.4520
 0.5940	 6.4240
 0.5950	 6.3980
 0.5960	 6.3720
 0.5970	 6.3510
 0.5980	 6.3280
 0.5990	 6.3060
 0.6000	 6.2860
 0.6010	 6.2600
 0.6020	 6.2260
 0.6030	 6.1900
 0.6040	 6.1580
 0.6050	 6.1200
 0.6060	 6.0750
 0.6070	 6.0260
 0.6080	 5.9770
 0.6090	 5.9270
 0.6100	 5.8790
 0.6110	 5.8330
 0.6120	 5.7820
 0.6130	 5.7230
 0.6140	 5.6610
 0.6150	 5.6090
 0.6160	 5.5590
 0.6170	 5.5110
 0.6180	 5.4690
 0.6190	 5.4300
 0.6200	 5.3960
 0.6210	 5.3650
 0.6220	 5.3360
 0.6230	 5.3130
 0.6240	 5.2930
 0.6250	 5.2760
 0.6260	 5.2630
 0.6270	 5.2500
 0.6280	 5.2370
 0.6290	 5.2290
 0.6300	 5.2200
 0.6310	 5.2110
 0.6320	 5.2010
 0.6330	 5.1850
 0.6340	 5.1670
 0.6350	 5.1470
 0.6360	 5.1200
 0.6370	 5.0870
 0.6380	 5.0490
 0.6390	 5.0110
 0.6400	 4.9730
 0.6410	 4.9350
 0.6420	 4.8940
 0.6430	 4.8510
 0.6440	 4.8130
 0.6450	 4.7780
 0.6460	 4.7440
 0.6470	 4.7090
 0.6480	 4.6790
 0.6490	 4.6530
 0.6500	 4.6310
 0.6510	 4.6160
 0.6520	 4.6040
 0.6530	 4.5920
 0.6540	 4.5800
 0.6550	 4.5700
 0.6560	 4.5590
 0.6570	 4.5460
 0.6580	 4.5300
 0.6590	 4.5160
 0.6600	 4.5030
 0.6610	 4.4910
 0.6620	 4.4800
 0.6630	 4.4730
 0.6640	 4.4690
 0.6650	 4.4690
 0.6660	 4.4720
 0.6670	 4.4790
 0.6680	 4.4920
 0.6690	 4.5100
 0.6700	 4.5300
 0.6710	 4.5550
 0.6720	 4.5860
 0.6730	 4.6220
 0.6740	 4.6610
 0.6750	 4.7020
 0.6760	 4.7470
 0.6770	 4.8010
 0.6780	 4.8590
 0.6790	 4.9190
 0.6800	 4.9800
 0.6810	 5.0430
 0.6820	 5.1090
 0.6830	 5.1740
 0.6840	 5.2390
 0.6850	 5.3000
 0.6860	 5.3570
 0.6870	 5.4170
 0.6880	 5.4860
 0.6890	 5.5700
 0.6900	 5.6730
 0.6910	 5.8060
 0.6920	 5.9820
 0.6930	 6.2110
 0.6940	 6.4990
 0.6950	 6.8520
 0.6960	 7.2720
 0.6970	 7.7590
 0.6980	 8.3110
 0.6990	 8.9220
 0.7000	 9.5870
 0.7010	10.2940
 0.7020	11.0270
 0.7030	11.7850
 0.7040	12.5590
 0.7050	13.3430
 0.7060	14.1310
 0.7070	14.9210
 0.7080	15.7090
 0.7090	16.5010
 0.7100	17.2910
 0.7110	18.0840
 0.7120	18.8820
 0.7130	19.6780
 0.7140	20.4770
 0.7150	21.2790
 0.7160	22.0820
 0.7170	22.8840
 0.7180	23.6880
 0.7190	24.4920
 0.7200	25.2930
 0.7210	26.0880
 0.7220	26.8780
 0.7230	27.6590
 0.7240	28.4300
 0.7250	29.1870
 0.7260	29.9300
 0.7270	30.6590
 0.7280	31.3690
 0.7290	32.0610
 0.7300	32.7320
 0.7310	33.3800
 0.7320	34.0070
 0.7330	34.6090
 0.7340	35.1840
 0.7350	35.7350
 0.7360	36.2590
 0.7370	36.7570
 0.7380	37.2270
 0.7390	37.6710
 0.7400	38.0880
 0.7410	38.4760
 0.7420	38.8360
 0.7430	39.1700
 0.7440	39.4780
 0.7450	39.7610
 0.7460	40.0180
 0.7470	40.2510
 0.7480	40.4640
 0.7490	40.6550
 0.7500	40.8270
 0.7510	40.9800
 0.7520	41.1180
 0.7530	41.2420
 0.7540	41.3520
 0.7550	41.4490
 0.7560	41.5360
 0.7570	41.6110
 0.7580	41.6800
 0.7590	41.7400
 0.7600	41.7920
 0.7610	41.8380
 0.7620	41.8750
 0.7630	41.9060
 0.7640	41.9310
 0.7650	41.9530
 0.7660	41.9680
 0.7670	41.9790
 0.7680	41.9880
 0.7690	41.9940
 0.7700	41.9970
 0.7710	41.9980
 0.7720	41.9970
 0.7730	41.9960
 0.7740	41.9950
 0.7750	41.9930
 0.7760	41.9910
 0.7770	41.9870
 0.7780	41.9830
 0.7790	41.9790
 0.7800	41.9770
 0.7810	41.9750
 0.7820	41.9730
 0.7830	41.9710
 0.7840	41.9680
 0.7850	41.9640
 0.7860	41.9580
 0.7870	41.9530
 0.7880	41.9460
 0.7890	41.9400
 0.7900	41.9340
 0.7910	41.9250
 0.7920	41.9200
 0.7930	41.9150
 0.7940	41.9080
 0.7950	41.8970
 0.7960	41.8870
 0.7970	41.8790
 0.7980	41.8700
 0.7990	41.8590
 0.8000	41.8460
 0.8010	41.8330
 0.8020	41.8200
 0.8030	41.8070
 0.8040	41.7940
 0.8050	41.7810
 0.8060	41.7670
 0.8070	41.7540
 0.8080	41.7410
 0.8090	41.7250
 0.8100	41.7090
 0.8110	41.6930
 0.8120	41.6780
 0.8130	41.6590
 0.8140	41.6440
 0.8150	41.6260
 0.8160	41.6040
 0.8170	41.5870
 0.8180	41.5720
 0.8190	41.5570
 0.8200	41.5390
 0.8210	41.5190
 0.8220	41.5000
 0.8230	41.4820
 0.8240	41.4640
 0.8250	41.4490
 0.8260	41.4360
 0.8270	41.4190
 0.8280	41.4000
 0.8290	41.3820
 0.8300	41.3640
 0.8310	41.3450
 0.8320	41.3290
 0.8330	41.3140
 0.8340	41.2990
 0.8350	41.2840
 0.8360	41.2690
 0.8370	41.2550
 0.8380	41.2420
 0.8390	41.2290
 0.8400	41.2180
 0.8410	41.2080
 0.8420	41.1990
 0.8430	41.1890
 0.8440	41.1780
 0.8450	41.1660
 0.8460	41.1550
 0.8470	41.1460
 0.8480	41.1400
 0.8490	41.1340
 0.8500	41.1260
 0.8510	41.1170
 0.8520	41.1100
 0.8530	41.1050
 0.8540	41.1030
 0.8550	41.0980
 0.8560	41.0930
 0.8570	41.0890
 0.8580	41.0850
 0.8590	41.0820
 0.8600	41.0800
 0.8610	41.0780
 0.8620	41.0790
 0.8630	41.0770
 0.8640	41.0760
 0.8650	41.0760
 0.8660	41.0770
 0.8670	41.0770
 0.8680	41.0770
 0.8690	41.0780
 0.8700	41.0840
 0.8710	41.0880
 0.8720	41.0880
 0.8730	41.0880
 0.8740	41.0940
 0.8750	41.0970
 0.8760	41.0980
 0.8770	41.1070
 0.8780	41.1100
 0.8790	41.1110
 0.8800	41.1150
 0.8810	41.1220
 0.8820	41.1280
 0.8830	41.1300
 0.8840	41.1310
 0.8850	41.1360
 0.8860	41.1410
 0.8870	41.1460
 0.8880	41.1510
 0.8890	41.1520
 0.8900	41.1560
 0.8910	41.1630
 0.8920	41.1660
 0.8930	41.1740
 0.8940	41.1770
 0.8950	41.1780
 0.8960	41.1850
 0.8970	41.1900
 0.8980	41.1930
 0.8990	41.1950
 0.9000	41.1990
 0.9010	41.2050
 0.9020	41.2090
 0.9030	41.2110
 0.9040	41.2120
 0.9050	41.2200
 0.9060	41.2270
 0.9070	41.2300
 0.9080	41.2280
 0.9090	41.2320
 0.9100	41.2370
 0.9110	41.2380
 0.9120	41.2410
 0.9130	41.2390
 0.9140	41.2400
 0.9150	41.2480
 0.9160	41.2430
 0.9170	41.2380
 0.9180	41.2360
 0.9190	41.2340
 0.9200	41.2370
 0.9210	41.2360
 0.9220	41.2300
 0.9230	41.2240
 0.9240	41.2240
 0.9250	41.2210
 0.9260	41.2140
 0.9270	41.2050
 0.9280	41.2000
 0.9290	41.1960
 0.9300	41.1860
 0.9310	41.1660
 0.9320	41.1600
 0.9330	41.1550
 0.9340	41.1470
 0.9350	41.1440
 0.9360	41.1320
 0.9370	41.1130
 0.9380	41.0950
 0.9390	41.0880
 0.9400	41.0760
 0.9410	41.0610
 0.9420	41.0460
 0.9430	41.0290
 0.9440	41.0170
 0.9450	41.0070
 0.9460	40.9940
 0.9470	40.9720
 0.9480	40.9510
 0.9490	40.9270
 0.9500	40.9000
 0.9510	40.8810
 0.9520	40.8540
 0.9530	40.8260
 0.9540	40.8040
 0.9550	40.7720
 0.9560	40.7480
 0.9570	40.7300
 0.9580	40.7110
 0.9590	40.6850
 0.9600	40.6570
 0.9610	40.6310
 0.9620	40.6140
 0.9630	40.6020
 0.9640	40.5870
 0.9650	40.5710
 0.9660	40.5590
 0.9670	40.5450
 0.9680	40.5340
 0.9690	40.5210
 0.9700	40.5050
 0.9710	40.5050
 0.9720	40.5010
 0.9730	40.4900
 0.9740	40.4760
 0.9750	40.4590
 0.9760	40.4540
 0.9770	40.4500
 0.9780	40.4310
 0.9790	40.4180
 0.9800	40.4050
 0.9810	40.3970
 0.9820	40.3990
 0.9830	40.3930
 0.9840	40.3860
 0.9850	40.3860
 0.9860	40.3940
 0.9870	40.3900
 0.9880	40.3860
 0.9890	40.3760
 0.9900	40.3540
 0.9910	40.3650
 0.9920	40.3720
 0.9930	40.3690
 0.9940	40.3680
 0.9950	40.3600
 0.9960	40.3570
 0.9970	40.3510
 0.9980	40.3390
 0.9990	40.3410
 1.0000	40.3430
 1.0010	41.0470
 1.0020	41.0420
 1.0030	41.0380
 1.0040	41.0370
 1.0050	41.0380
 1.0060	41.0400
 1.0070	41.0440
 1.0080	41.0460
 1.0090	41.0480
 1.0100	41.0480
 1.0110	41.0430
 1.0120	41.0440
 1.0130	41.0490
 1.0140	41.0500
 1.0150	41.0510
 1.0160	41.0530
 1.0170	41.0520
 1.0180	41.0470
 1.0190	41.0490
 1.0200	41.0520
 1.0210	41.0490
 1.0220	41.0460
 1.0230	41.0480
 1.0240	41.0550
 1.0250	41.0570
 1.0260	41.0640
 1.0270	41.0660
 1.0280	41.0590
 1.0290	41.0590
 1.0300	41.0620
 1.0310	41.0640
 1.0320	41.0670
 1.0330	41.0710
 1.0340	41.0740
 1.0350	41.0760
 1.0360	41.0760
 1.0370	41.0760
 1.0380	41.0780
 1.0390	41.0790
 1.0400	41.0810
 1.0410	41.0880
 1.0420	41.0900
 1.0430	41.0890
 1.0440	41.0900
 1.0450	41.0920
 1.0460	41.0920
 1.0470	41.0930
 1.0480	41.0940
 1.0490	41.0950
 1.0500	41.0950
 1.0510	41.0960
 1.0520	41.0950
 1.0530	41.0950
 1.0540	41.0930
 1.0550	41.0910
 1.0560	41.0890
 1.0570	41.0880
 1.0580	41.0870
 1.0590	41.0850
 1.0600	41.0830
 1.0610	41.0820
 1.0620	41.0780
 1.0630	41.0770
 1.0640	41.0820
 1.0650	41.0810
 1.0660	41.0790
 1.0670	41.0760
 1.0680	41.0730
 1.0690	41.0660
 1.0700	41.0630
 1.0710	41.0630
 1.0720	41.0600
 1.0730	41.0560
 1.0740	41.0520
 1.0750	41.0460
 1.0760	41.0420
 1.0770	41.0400
 1.0780	41.0360
 1.0790	41.0320
 1.0800	41.0280
 1.0810	41.0240
 1.0820	41.0200
 1.0830	41.0150
 1.0840	41.0110
 1.0850	41.0080
 1.0860	41.0040
 1.0870	41.0000
 1.0880	40.9990
 1.0890	40.9940
 1.0900	40.9850
 1.0910	40.9800
 1.0920	40.9750
 1.0930	40.9700
 1.0940	40.9660
 1.0950	40.9610
 1.0960	40.9560
 1.0970	40.9510
 1.0980	40.9470
 1.0990	40.9410
 1.1000	40.9360
 1.1010	40.9300
 1.1020	40.9240
 1.1030	40.9180
 1.1040	40.9130
 1.1050	40.9090
 1.1060	40.9040
 1.1070	40.8990
 1.1080	40.8940
 1.1090	40.8870
 1.1100	40.8820
 1.1110	40.8770
 1.1120	40.8710
 1.1130	40.8620
 1.1140	40.8540
 1.1150	40.8470
 1.1160	40.8390
 1.1170	40.8330
 1.1180	40.8250
 1.1190	40.8160
 1.1200	40.8060
 1.1210	40.7950
 1.1220	40.7830
 1.1230	40.7690
 1.1240	40.7530
 1.1250	40.7370
 1.1260	40.7220
 1.1270	40.7030
 1.1280	40.6840
 1.1290	40.6600
 1.1300	40.6310
 1.1310	40.6020
 1.1320	40.5710
 1.1330	40.5380
 1.1340	40.5030
 1.1350	40.4660
 1.1360	40.4270
 1.1370	40.3850
 1.1380	40.3440
 1.1390	40.2990
 1.1400	40.2520
 1.1410	40.2030
 1.1420	40.1530
 1.1430	40.1020
 1.1440	40.0510
 1.1450	39.9990
 1.1460	39.9480
 1.1470	39.8960
 1.1480	39.8480
 1.1490	39.7990
 1.1500	39.7540
 1.1510	39.7120
 1.1520	39.6700
 1.1530	39.6270
 1.1540	39.5880
 1.1550	39.5530
 1.1560	39.5180
 1.1570	39.4860
 1.1580	39.4600
 1.1590	39.4350
 1.1600	39.4110
 1.1610	39.3910
 1.1620	39.3720
 1.1630	39.3520
 1.1640	39.3350
 1.1650	39.3210
 1.1660	39.3090
 1.1670	39.2960
 1.1680	39.2840
 1.1690	39.2720
 1.1700	39.2610
 1.1710	39.2500
 1.1720	39.2400
 1.1730	39.2290
 1.1740	39.2190
 1.1750	39.2080
 1.1760	39.1970
 1.1770	39.1870
 1.1780	39.1760
 1.1790	39.1640
 1.1800	39.1530
 1.1810	39.1410
 1.1820	39.1290
 1.1830	39.1190
 1.1840	39.1080
 1.1850	39.0970
 1.1860	39.0860
 1.1870	39.0740
 1.1880	39.0620
 1.1890	39.0490
 1.1900	39.0380
 1.1910	39.0300
 1.1920	39.0220
 1.1930	39.0160
 1.1940	39.0080
 1.1950	39.0010
 1.1960	38.9940
 1.1970	38.9880
 1.1980	38.9820
 1.1990	38.9770
 1.2000	38.9740
 1.2010	38.9720
 1.2020	38.9730
 1.2030	38.9720
 1.2040	38.9700
 1.2050	38.9690
 1.2060	38.9680
 1.2070	38.9670
 1.2080	38.9680
 1.2090	38.9690
 1.2100	38.9700
 1.2110	38.9730
 1.2120	38.9760
 1.2130	38.9790
 1.2140	38.9820
 1.2150	38.9860
 1.2160	38.9880
 1.2170	38.9920
 1.2180	38.9980
 1.2190	39.0020
 1.2200	39.0070
 1.2210	39.0130
 1.2220	39.0170
 1.2230	39.0200
 1.2240	39.0250
 1.2250	39.0310
 1.2260	39.0350
 1.2270	39.0410
 1.2280	39.0470
 1.2290	39.0510
 1.2300	39.0560
 1.2310	39.0600
 1.2320	39.0630
 1.2330	39.0650
 1.2340	39.0680
 1.2350	39.0710
 1.2360	39.0750
 1.2370	39.0780
 1.2380	39.0830
 1.2390	39.0870
 1.2400	39.0910
 1.2410	39.0950
 1.2420	39.0970
 1.2430	39.0970
 1.2440	39.0970
 1.2450	39.0980
 1.2460	39.1000
 1.2470	39.1030
 1.2480	39.1050
 1.2490	39.1070
 1.2500	39.1070
 1.2510	39.1070
 1.2520	39.1080
 1.2530	39.1060
 1.2540	39.1050
 1.2550	39.1050
 1.2560	39.1030
 1.2570	39.1020
 1.2580	39.1010
 1.2590	39.0980
 1.2600	39.0940
 1.2610	39.0910
 1.2620	39.0890
 1.2630	39.0850
 1.2640	39.0820
 1.2650	39.0780
 1.2660	39.0720
 1.2670	39.0670
 1.2680	39.0610
 1.2690	39.0560
 1.2700	39.0520
 1.2710	39.0460
 1.2720	39.0400
 1.2730	39.0330
 1.2740	39.0260
 1.2750	39.0190
 1.2760	39.0120
 1.2770	39.0050
 1.2780	38.9980
 1.2790	38.9900
 1.2800	38.9800
 1.2810	38.9700
 1.2820	38.9590
 1.2830	38.9480
 1.2840	38.9360
 1.2850	38.9230
 1.2860	38.9120
 1.2870	38.8990
 1.2880	38.8840
 1.2890	38.8680
 1.2900	38.8520
 1.2910	38.8350
 1.2920	38.8170
 1.2930	38.8000
 1.2940	38.7790
 1.2950	38.7570
 1.2960	38.7330
 1.2970	38.7080
 1.2980	38.6840
 1.2990	38.6610
 1.3000	38.6370
 1.3010	38.6120
 1.3020	38.5850
 1.3030	38.5570
 1.3040	38.5270
 1.3050	38.4960
 1.3060	38.4650
 1.3070	38.4330
 1.3080	38.4010
 1.3090	38.3680
 1.3100	38.3330
 1.3110	38.2980
 1.3120	38.2650
 1.3130	38.2290
 1.3140	38.1920
 1.3150	38.1560
 1.3160	38.1170
 1.3170	38.0730
 1.3180	38.0310
 1.3190	37.9890
 1.3200	37.9440
 1.3210	37.9010
 1.3220	37.8570
 1.3230	37.8110
 1.3240	37.7650
 1.3250	37.7170
 1.3260	37.6680
 1.3270	37.6190
 1.3280	37.5680
 1.3290	37.5150
 1.3300	37.4610
 1.3310	37.4060
 1.3320	37.3510
 1.3330	37.2950
 1.3340	37.2400
 1.3350	37.1820
 1.3360	37.1240
 1.3370	37.0650
 1.3380	37.0070
 1.3390	36.9490
 1.3400	36.8920
 1.3410	36.8360
 1.3420	36.7780
 1.3430	36.7190
 1.3440	36.6620
 1.3450	36.6050
 1.3460	36.5490
 1.3470	36.4930
 1.3480	36.4380
 1.3490	36.3820
 1.3500	36.3270
 1.3510	36.2700
 1.3520	36.2140
 1.3530	36.1580
 1.3540	36.1020
 1.3550	36.0450
 1.3560	35.9880
 1.3570	35.9300
 1.3580	35.8710
 1.3590	35.8110
 1.3600	35.7500
 1.3610	35.6890
 1.3620	35.6240
 1.3630	35.5560
 1.3640	35.4860
 1.3650	35.4120
 1.3660	35.3350
 1.3670	35.2560
 1.3680	35.1710
 1.3690	35.0800
 1.3700	34.9790
 1.3710	34.8720
 1.3720	34.7580
 1.3730	34.6350
 1.3740	34.5040
 1.3750	34.3620
 1.3760	34.2060
 1.3770	34.0390
 1.3780	33.8570
 1.3790	33.6600
 1.3800	33.4510
 1.3810	33.2230
 1.3820	32.9820
 1.3830	32.7290
 1.3840	32.4570
 1.3850	32.1690
 1.3860	31.8660
 1.3870	31.5440
 1.3880	31.2130
 1.3890	30.8680
 1.3900	30.5120
 1.3910	30.1500
 1.3920	29.7750
 1.3930	29.3920
 1.3940	29.0030
 1.3950	28.6060
 1.3960	28.2070
 1.3970	27.8100
 1.3980	27.4130
 1.3990	27.0240
 1.4000	26.6390
 1.4010	26.2570
 1.4020	25.8850
 1.4030	25.5200
 1.4040	25.1660
 1.4050	24.8250
 1.4060	24.4960
 1.4070	24.1830
 1.4080	23.8840
 1.4090	23.5970
 1.4100	23.3250
 1.4110	23.0660
 1.4120	22.8190
 1.4130	22.5870
 1.4140	22.3680
 1.4150	22.1650
 1.4160	21.9730
 1.4170	21.7940
 1.4180	21.6290
 1.4190	21.4730
 1.4200	21.3270
 1.4210	21.1920
 1.4220	21.0660
 1.4230	20.9500
 1.4240	20.8430
 1.4250	20.7420
 1.4260	20.6500
 1.4270	20.5650
 1.4280	20.4880
 1.4290	20.4160
 1.4300	20.3520
 1.4310	20.2940
 1.4320	20.2420
 1.4330	20.1940
 1.4340	20.1520
 1.4350	20.1150
 1.4360	20.0840
 1.4370	20.0570
 1.4380	20.0340
 1.4390	20.0150
 1.4400	20.0000
 1.4410	19.9870
 1.4420	19.9780
 1.4430	19.9700
 1.4440	19.9650
 1.4450	19.9640
 1.4460	19.9640
 1.4470	19.9660
 1.4480	19.9710
 1.4490	19.9760
 1.4500	19.9830
 1.4510	19.9920
 1.4520	20.0030
 1.4530	20.0150
 1.4540	20.0290
 1.4550	20.0460
 1.4560	20.0650
 1.4570	20.0870
 1.4580	20.1120
 1.4590	20.1390
 1.4600	20.1690
 1.4610	20.2050
 1.4620	20.2440
 1.4630	20.2880
 1.4640	20.3360
 1.4650	20.3880
 1.4660	20.4450
 1.4670	20.5050
 1.4680	20.5710
 1.4690	20.6400
 1.4700	20.7120
 1.4710	20.7900
 1.4720	20.8700
 1.4730	20.9530
 1.4740	21.0410
 1.4750	21.1300
 1.4760	21.2220
 1.4770	21.3160
