Name: Phytolacca dioica
Type: vegetation
Class: Tree
Genus: Phytolacca
Species: dioica
Sample No.: JPL207
Owner: JPL
Wavelength Range: VSWIR
Origin: 34.12568; -118.11213; WGS84
Collection Date: 10/3/2016
Description: Samples were collected at the Huntington Garden in San Marino California as part of a JPL Subcontract studying HyTES imagery. Samples were taken to JPL and processed within 48 hours of collection. The same leaves were processed in the Nicolet and then measured using the ASD.
Measurement: Bidirectional reflectance
First Column: X
Second Column: Y
X Units: Wavelength (micrometer)
Y Units: Reflectance (percentage)
First X Value: 0.35
Last X Value: 2.5
Number of X Values: 2151
Additional Information: vegetation.tree.phytolacca.dioica.vswir.jpl207.jpl.asd.ancillary.txt

 0.3500	 3.9960
 0.3510	 3.9540
 0.3520	 3.8280
 0.3530	 3.7380
 0.3540	 3.7740
 0.3550	 3.8700
 0.3560	 3.7710
 0.3570	 3.6290
 0.3580	 3.7380
 0.3590	 3.6570
 0.3600	 3.6040
 0.3610	 3.6700
 0.3620	 3.6940
 0.3630	 3.6550
 0.3640	 3.6050
 0.3650	 3.5960
 0.3660	 3.5790
 0.3670	 3.6070
 0.3680	 3.6550
 0.3690	 3.6530
 0.3700	 3.6050
 0.3710	 3.5760
 0.3720	 3.5860
 0.3730	 3.5590
 0.3740	 3.5390
 0.3750	 3.5200
 0.3760	 3.5010
 0.3770	 3.5660
 0.3780	 3.5780
 0.3790	 3.5190
 0.3800	 3.4850
 0.3810	 3.5180
 0.3820	 3.5320
 0.3830	 3.4870
 0.3840	 3.4940
 0.3850	 3.5000
 0.3860	 3.5030
 0.3870	 3.5110
 0.3880	 3.5140
 0.3890	 3.4970
 0.3900	 3.4700
 0.3910	 3.4700
 0.3920	 3.4550
 0.3930	 3.4480
 0.3940	 3.4650
 0.3950	 3.4740
 0.3960	 3.4790
 0.3970	 3.4760
 0.3980	 3.4650
 0.3990	 3.4470
 0.4000	 3.4270
 0.4010	 3.4190
 0.4020	 3.4550
 0.4030	 3.4800
 0.4040	 3.4780
 0.4050	 3.4520
 0.4060	 3.4300
 0.4070	 3.4200
 0.4080	 3.4320
 0.4090	 3.4670
 0.4100	 3.4750
 0.4110	 3.4730
 0.4120	 3.4770
 0.4130	 3.4880
 0.4140	 3.5000
 0.4150	 3.5120
 0.4160	 3.5240
 0.4170	 3.5340
 0.4180	 3.5510
 0.4190	 3.5780
 0.4200	 3.6080
 0.4210	 3.6360
 0.4220	 3.6560
 0.4230	 3.6660
 0.4240	 3.6890
 0.4250	 3.7200
 0.4260	 3.7490
 0.4270	 3.7690
 0.4280	 3.7930
 0.4290	 3.8230
 0.4300	 3.8600
 0.4310	 3.8940
 0.4320	 3.9270
 0.4330	 3.9560
 0.4340	 3.9800
 0.4350	 4.0040
 0.4360	 4.0300
 0.4370	 4.0550
 0.4380	 4.0760
 0.4390	 4.0930
 0.4400	 4.1140
 0.4410	 4.1420
 0.4420	 4.1670
 0.4430	 4.1920
 0.4440	 4.2140
 0.4450	 4.2310
 0.4460	 4.2500
 0.4470	 4.2730
 0.4480	 4.2980
 0.4490	 4.3220
 0.4500	 4.3370
 0.4510	 4.3540
 0.4520	 4.3790
 0.4530	 4.3970
 0.4540	 4.4090
 0.4550	 4.4200
 0.4560	 4.4330
 0.4570	 4.4470
 0.4580	 4.4600
 0.4590	 4.4710
 0.4600	 4.4760
 0.4610	 4.4840
 0.4620	 4.4940
 0.4630	 4.5020
 0.4640	 4.5090
 0.4650	 4.5150
 0.4660	 4.5200
 0.4670	 4.5210
 0.4680	 4.5190
 0.4690	 4.5200
 0.4700	 4.5270
 0.4710	 4.5340
 0.4720	 4.5410
 0.4730	 4.5440
 0.4740	 4.5400
 0.4750	 4.5370
 0.4760	 4.5390
 0.4770	 4.5470
 0.4780	 4.5530
 0.4790	 4.5610
 0.4800	 4.5660
 0.4810	 4.5650
 0.4820	 4.5730
 0.4830	 4.5820
 0.4840	 4.5880
 0.4850	 4.5940
 0.4860	 4.6030
 0.4870	 4.6160
 0.4880	 4.6310
 0.4890	 4.6400
 0.4900	 4.6540
 0.4910	 4.6720
 0.4920	 4.6900
 0.4930	 4.7090
 0.4940	 4.7270
 0.4950	 4.7470
 0.4960	 4.7750
 0.4970	 4.8080
 0.4980	 4.8400
 0.4990	 4.8680
 0.5000	 4.9040
 0.5010	 4.9440
 0.5020	 4.9890
 0.5030	 5.0370
 0.5040	 5.0930
 0.5050	 5.1530
 0.5060	 5.2130
 0.5070	 5.2770
 0.5080	 5.3520
 0.5090	 5.4370
 0.5100	 5.5270
 0.5110	 5.6250
 0.5120	 5.7330
 0.5130	 5.8510
 0.5140	 5.9750
 0.5150	 6.1130
 0.5160	 6.2610
 0.5170	 6.4160
 0.5180	 6.5840
 0.5190	 6.7630
 0.5200	 6.9500
 0.5210	 7.1390
 0.5220	 7.3360
 0.5230	 7.5370
 0.5240	 7.7350
 0.5250	 7.9320
 0.5260	 8.1240
 0.5270	 8.3070
 0.5280	 8.4810
 0.5290	 8.6460
 0.5300	 8.7990
 0.5310	 8.9390
 0.5320	 9.0660
 0.5330	 9.1850
 0.5340	 9.2920
 0.5350	 9.3850
 0.5360	 9.4670
 0.5370	 9.5390
 0.5380	 9.6020
 0.5390	 9.6660
 0.5400	 9.7320
 0.5410	 9.7990
 0.5420	 9.8620
 0.5430	 9.9160
 0.5440	 9.9570
 0.5450	 9.9830
 0.5460	 9.9950
 0.5470	10.0030
 0.5480	10.0110
 0.5490	10.0210
 0.5500	10.0290
 0.5510	10.0310
 0.5520	10.0240
 0.5530	10.0080
 0.5540	 9.9740
 0.5550	 9.9290
 0.5560	 9.8750
 0.5570	 9.8130
 0.5580	 9.7380
 0.5590	 9.6560
 0.5600	 9.5680
 0.5610	 9.4740
 0.5620	 9.3740
 0.5630	 9.2690
 0.5640	 9.1600
 0.5650	 9.0480
 0.5660	 8.9320
 0.5670	 8.8100
 0.5680	 8.6840
 0.5690	 8.5570
 0.5700	 8.4290
 0.5710	 8.3010
 0.5720	 8.1770
 0.5730	 8.0580
 0.5740	 7.9470
 0.5750	 7.8460
 0.5760	 7.7560
 0.5770	 7.6730
 0.5780	 7.5960
 0.5790	 7.5280
 0.5800	 7.4590
 0.5810	 7.3910
 0.5820	 7.3300
 0.5830	 7.2720
 0.5840	 7.2160
 0.5850	 7.1590
 0.5860	 7.1040
 0.5870	 7.0550
 0.5880	 7.0070
 0.5890	 6.9580
 0.5900	 6.9220
 0.5910	 6.8910
 0.5920	 6.8640
 0.5930	 6.8420
 0.5940	 6.8200
 0.5950	 6.7990
 0.5960	 6.7800
 0.5970	 6.7600
 0.5980	 6.7440
 0.5990	 6.7270
 0.6000	 6.7080
 0.6010	 6.6830
 0.6020	 6.6560
 0.6030	 6.6270
 0.6040	 6.5960
 0.6050	 6.5610
 0.6060	 6.5210
 0.6070	 6.4760
 0.6080	 6.4290
 0.6090	 6.3870
 0.6100	 6.3530
 0.6110	 6.3230
 0.6120	 6.2750
 0.6130	 6.2160
 0.6140	 6.1530
 0.6150	 6.1000
 0.6160	 6.0530
 0.6170	 6.0110
 0.6180	 5.9750
 0.6190	 5.9410
 0.6200	 5.9100
 0.6210	 5.8840
 0.6220	 5.8600
 0.6230	 5.8380
 0.6240	 5.8200
 0.6250	 5.8050
 0.6260	 5.7920
 0.6270	 5.7820
 0.6280	 5.7750
 0.6290	 5.7700
 0.6300	 5.7650
 0.6310	 5.7580
 0.6320	 5.7480
 0.6330	 5.7360
 0.6340	 5.7220
 0.6350	 5.7030
 0.6360	 5.6760
 0.6370	 5.6460
 0.6380	 5.6110
 0.6390	 5.5740
 0.6400	 5.5360
 0.6410	 5.4960
 0.6420	 5.4550
 0.6430	 5.4130
 0.6440	 5.3700
 0.6450	 5.3300
 0.6460	 5.2930
 0.6470	 5.2570
 0.6480	 5.2220
 0.6490	 5.1940
 0.6500	 5.1730
 0.6510	 5.1540
 0.6520	 5.1390
 0.6530	 5.1250
 0.6540	 5.1070
 0.6550	 5.0920
 0.6560	 5.0750
 0.6570	 5.0540
 0.6580	 5.0320
 0.6590	 5.0080
 0.6600	 4.9850
 0.6610	 4.9630
 0.6620	 4.9370
 0.6630	 4.9110
 0.6640	 4.8910
 0.6650	 4.8780
 0.6660	 4.8680
 0.6670	 4.8620
 0.6680	 4.8620
 0.6690	 4.8670
 0.6700	 4.8770
 0.6710	 4.8930
 0.6720	 4.9140
 0.6730	 4.9370
 0.6740	 4.9660
 0.6750	 5.0010
 0.6760	 5.0430
 0.6770	 5.0900
 0.6780	 5.1400
 0.6790	 5.1950
 0.6800	 5.2580
 0.6810	 5.3270
 0.6820	 5.4020
 0.6830	 5.4800
 0.6840	 5.5600
 0.6850	 5.6470
 0.6860	 5.7390
 0.6870	 5.8340
 0.6880	 5.9400
 0.6890	 6.0650
 0.6900	 6.2150
 0.6910	 6.3940
 0.6920	 6.6130
 0.6930	 6.8780
 0.6940	 7.1950
 0.6950	 7.5710
 0.6960	 8.0060
 0.6970	 8.4960
 0.6980	 9.0410
 0.6990	 9.6360
 0.7000	10.2780
 0.7010	10.9620
 0.7020	11.6790
 0.7030	12.4280
 0.7040	13.2030
 0.7050	13.9980
 0.7060	14.8150
 0.7070	15.6480
 0.7080	16.4940
 0.7090	17.3550
 0.7100	18.2290
 0.7110	19.1190
 0.7120	20.0230
 0.7130	20.9350
 0.7140	21.8500
 0.7150	22.7710
 0.7160	23.6970
 0.7170	24.6260
 0.7180	25.5490
 0.7190	26.4660
 0.7200	27.3770
 0.7210	28.2710
 0.7220	29.1500
 0.7230	30.0110
 0.7240	30.8490
 0.7250	31.6610
 0.7260	32.4450
 0.7270	33.2000
 0.7280	33.9240
 0.7290	34.6170
 0.7300	35.2780
 0.7310	35.9020
 0.7320	36.4930
 0.7330	37.0510
 0.7340	37.5760
 0.7350	38.0670
 0.7360	38.5260
 0.7370	38.9540
 0.7380	39.3510
 0.7390	39.7200
 0.7400	40.0600
 0.7410	40.3740
 0.7420	40.6600
 0.7430	40.9200
 0.7440	41.1540
 0.7450	41.3640
 0.7460	41.5530
 0.7470	41.7190
 0.7480	41.8660
 0.7490	41.9970
 0.7500	42.1150
 0.7510	42.2180
 0.7520	42.3070
 0.7530	42.3830
 0.7540	42.4500
 0.7550	42.5080
 0.7560	42.5600
 0.7570	42.6060
 0.7580	42.6460
 0.7590	42.6800
 0.7600	42.7080
 0.7610	42.7300
 0.7620	42.7460
 0.7630	42.7590
 0.7640	42.7690
 0.7650	42.7760
 0.7660	42.7800
 0.7670	42.7830
 0.7680	42.7820
 0.7690	42.7810
 0.7700	42.7790
 0.7710	42.7760
 0.7720	42.7710
 0.7730	42.7670
 0.7740	42.7640
 0.7750	42.7590
 0.7760	42.7550
 0.7770	42.7510
 0.7780	42.7460
 0.7790	42.7450
 0.7800	42.7430
 0.7810	42.7400
 0.7820	42.7380
 0.7830	42.7350
 0.7840	42.7330
 0.7850	42.7300
 0.7860	42.7280
 0.7870	42.7250
 0.7880	42.7240
 0.7890	42.7210
 0.7900	42.7170
 0.7910	42.7110
 0.7920	42.7070
 0.7930	42.7040
 0.7940	42.7020
 0.7950	42.6960
 0.7960	42.6890
 0.7970	42.6810
 0.7980	42.6730
 0.7990	42.6660
 0.8000	42.6590
 0.8010	42.6520
 0.8020	42.6450
 0.8030	42.6350
 0.8040	42.6230
 0.8050	42.6120
 0.8060	42.6010
 0.8070	42.5910
 0.8080	42.5800
 0.8090	42.5680
 0.8100	42.5550
 0.8110	42.5410
 0.8120	42.5280
 0.8130	42.5170
 0.8140	42.4990
 0.8150	42.4800
 0.8160	42.4660
 0.8170	42.4520
 0.8180	42.4390
 0.8190	42.4260
 0.8200	42.4110
 0.8210	42.3920
 0.8220	42.3740
 0.8230	42.3590
 0.8240	42.3400
 0.8250	42.3230
 0.8260	42.3080
 0.8270	42.2910
 0.8280	42.2710
 0.8290	42.2520
 0.8300	42.2330
 0.8310	42.2110
 0.8320	42.1940
 0.8330	42.1780
 0.8340	42.1620
 0.8350	42.1450
 0.8360	42.1260
 0.8370	42.1110
 0.8380	42.0980
 0.8390	42.0870
 0.8400	42.0760
 0.8410	42.0640
 0.8420	42.0510
 0.8430	42.0420
 0.8440	42.0330
 0.8450	42.0230
 0.8460	42.0120
 0.8470	42.0010
 0.8480	41.9920
 0.8490	41.9840
 0.8500	41.9750
 0.8510	41.9660
 0.8520	41.9570
 0.8530	41.9480
 0.8540	41.9390
 0.8550	41.9320
 0.8560	41.9290
 0.8570	41.9270
 0.8580	41.9180
 0.8590	41.9120
 0.8600	41.9080
 0.8610	41.9050
 0.8620	41.9020
 0.8630	41.8980
 0.8640	41.8960
 0.8650	41.8950
 0.8660	41.8900
 0.8670	41.8860
 0.8680	41.8850
 0.8690	41.8880
 0.8700	41.8830
 0.8710	41.8800
 0.8720	41.8800
 0.8730	41.8860
 0.8740	41.8850
 0.8750	41.8830
 0.8760	41.8820
 0.8770	41.8810
 0.8780	41.8800
 0.8790	41.8790
 0.8800	41.8810
 0.8810	41.8820
 0.8820	41.8850
 0.8830	41.8860
 0.8840	41.8820
 0.8850	41.8790
 0.8860	41.8830
 0.8870	41.8870
 0.8880	41.8860
 0.8890	41.8860
 0.8900	41.8850
 0.8910	41.8850
 0.8920	41.8890
 0.8930	41.8900
 0.8940	41.8910
 0.8950	41.8910
 0.8960	41.8900
 0.8970	41.8880
 0.8980	41.8900
 0.8990	41.8940
 0.9000	41.8950
 0.9010	41.8950
 0.9020	41.8950
 0.9030	41.8930
 0.9040	41.8930
 0.9050	41.8950
 0.9060	41.8960
 0.9070	41.8970
 0.9080	41.9000
 0.9090	41.8940
 0.9100	41.8870
 0.9110	41.8880
 0.9120	41.8900
 0.9130	41.8860
 0.9140	41.8800
 0.9150	41.8770
 0.9160	41.8730
 0.9170	41.8670
 0.9180	41.8610
 0.9190	41.8520
 0.9200	41.8510
 0.9210	41.8410
 0.9220	41.8260
 0.9230	41.8150
 0.9240	41.8060
 0.9250	41.7900
 0.9260	41.7710
 0.9270	41.7590
 0.9280	41.7440
 0.9290	41.7240
 0.9300	41.7030
 0.9310	41.6860
 0.9320	41.6660
 0.9330	41.6390
 0.9340	41.6080
 0.9350	41.5850
 0.9360	41.5600
 0.9370	41.5370
 0.9380	41.5130
 0.9390	41.4870
 0.9400	41.4620
 0.9410	41.4300
 0.9420	41.3890
 0.9430	41.3540
 0.9440	41.3170
 0.9450	41.2810
 0.9460	41.2450
 0.9470	41.2030
 0.9480	41.1480
 0.9490	41.0900
 0.9500	41.0380
 0.9510	40.9750
 0.9520	40.9160
 0.9530	40.8620
 0.9540	40.8080
 0.9550	40.7500
 0.9560	40.6910
 0.9570	40.6340
 0.9580	40.5770
 0.9590	40.5230
 0.9600	40.4820
 0.9610	40.4480
 0.9620	40.4130
 0.9630	40.3780
 0.9640	40.3490
 0.9650	40.3270
 0.9660	40.3090
 0.9670	40.2730
 0.9680	40.2490
 0.9690	40.2390
 0.9700	40.2330
 0.9710	40.2160
 0.9720	40.2050
 0.9730	40.1980
 0.9740	40.1870
 0.9750	40.1760
 0.9760	40.1670
 0.9770	40.1620
 0.9780	40.1620
 0.9790	40.1540
 0.9800	40.1470
 0.9810	40.1480
 0.9820	40.1580
 0.9830	40.1490
 0.9840	40.1410
 0.9850	40.1440
 0.9860	40.1590
 0.9870	40.1650
 0.9880	40.1770
 0.9890	40.1830
 0.9900	40.1730
 0.9910	40.1760
 0.9920	40.1820
 0.9930	40.1920
 0.9940	40.2110
 0.9950	40.2380
 0.9960	40.2420
 0.9970	40.2360
 0.9980	40.2500
 0.9990	40.2730
 1.0000	40.2780
 1.0010	40.7650
 1.0020	40.7790
 1.0030	40.7920
 1.0040	40.8060
 1.0050	40.8180
 1.0060	40.8290
 1.0070	40.8420
 1.0080	40.8560
 1.0090	40.8720
 1.0100	40.8870
 1.0110	40.9020
 1.0120	40.9200
 1.0130	40.9400
 1.0140	40.9560
 1.0150	40.9740
 1.0160	40.9900
 1.0170	41.0020
 1.0180	41.0130
 1.0190	41.0270
 1.0200	41.0420
 1.0210	41.0570
 1.0220	41.0750
 1.0230	41.0930
 1.0240	41.1130
 1.0250	41.1290
 1.0260	41.1440
 1.0270	41.1600
 1.0280	41.1750
 1.0290	41.1890
 1.0300	41.2030
 1.0310	41.2170
 1.0320	41.2300
 1.0330	41.2400
 1.0340	41.2560
 1.0350	41.2720
 1.0360	41.2870
 1.0370	41.3010
 1.0380	41.3110
 1.0390	41.3180
 1.0400	41.3280
 1.0410	41.3370
 1.0420	41.3480
 1.0430	41.3620
 1.0440	41.3730
 1.0450	41.3840
 1.0460	41.3930
 1.0470	41.4010
 1.0480	41.4090
 1.0490	41.4200
 1.0500	41.4280
 1.0510	41.4350
 1.0520	41.4410
 1.0530	41.4480
 1.0540	41.4540
 1.0550	41.4600
 1.0560	41.4670
 1.0570	41.4730
 1.0580	41.4760
 1.0590	41.4810
 1.0600	41.4890
 1.0610	41.4940
 1.0620	41.4990
 1.0630	41.5020
 1.0640	41.5010
 1.0650	41.5030
 1.0660	41.5040
 1.0670	41.5050
 1.0680	41.5070
 1.0690	41.5110
 1.0700	41.5110
 1.0710	41.5110
 1.0720	41.5100
 1.0730	41.5080
 1.0740	41.5050
 1.0750	41.5020
 1.0760	41.4980
 1.0770	41.4940
 1.0780	41.4890
 1.0790	41.4860
 1.0800	41.4810
 1.0810	41.4740
 1.0820	41.4690
 1.0830	41.4640
 1.0840	41.4580
 1.0850	41.4520
 1.0860	41.4470
 1.0870	41.4390
 1.0880	41.4300
 1.0890	41.4210
 1.0900	41.4100
 1.0910	41.4000
 1.0920	41.3900
 1.0930	41.3790
 1.0940	41.3680
 1.0950	41.3570
 1.0960	41.3460
 1.0970	41.3350
 1.0980	41.3240
 1.0990	41.3120
 1.1000	41.3000
 1.1010	41.2880
 1.1020	41.2760
 1.1030	41.2620
 1.1040	41.2480
 1.1050	41.2350
 1.1060	41.2220
 1.1070	41.2090
 1.1080	41.1950
 1.1090	41.1790
 1.1100	41.1650
 1.1110	41.1490
 1.1120	41.1340
 1.1130	41.1230
 1.1140	41.1060
 1.1150	41.0860
 1.1160	41.0660
 1.1170	41.0460
 1.1180	41.0230
 1.1190	41.0000
 1.1200	40.9770
 1.1210	40.9500
 1.1220	40.9200
 1.1230	40.8850
 1.1240	40.8480
 1.1250	40.8080
 1.1260	40.7660
 1.1270	40.7170
 1.1280	40.6660
 1.1290	40.6050
 1.1300	40.5360
 1.1310	40.4620
 1.1320	40.3840
 1.1330	40.2980
 1.1340	40.2060
 1.1350	40.1080
 1.1360	40.0040
 1.1370	39.8940
 1.1380	39.7790
 1.1390	39.6590
 1.1400	39.5360
 1.1410	39.4100
 1.1420	39.2820
 1.1430	39.1530
 1.1440	39.0260
 1.1450	38.8950
 1.1460	38.7730
 1.1470	38.6530
 1.1480	38.5390
 1.1490	38.4260
 1.1500	38.3220
 1.1510	38.2230
 1.1520	38.1300
 1.1530	38.0430
 1.1540	37.9630
 1.1550	37.8900
 1.1560	37.8210
 1.1570	37.7610
 1.1580	37.7080
 1.1590	37.6580
 1.1600	37.6130
 1.1610	37.5740
 1.1620	37.5360
 1.1630	37.5050
 1.1640	37.4770
 1.1650	37.4500
 1.1660	37.4270
 1.1670	37.4050
 1.1680	37.3830
 1.1690	37.3630
 1.1700	37.3460
 1.1710	37.3280
 1.1720	37.3110
 1.1730	37.2950
 1.1740	37.2800
 1.1750	37.2660
 1.1760	37.2520
 1.1770	37.2390
 1.1780	37.2240
 1.1790	37.2080
 1.1800	37.1880
 1.1810	37.1700
 1.1820	37.1520
 1.1830	37.1350
 1.1840	37.1200
 1.1850	37.1060
 1.1860	37.0920
 1.1870	37.0770
 1.1880	37.0630
 1.1890	37.0480
 1.1900	37.0360
 1.1910	37.0240
 1.1920	37.0140
 1.1930	37.0060
 1.1940	36.9980
 1.1950	36.9920
 1.1960	36.9870
 1.1970	36.9830
 1.1980	36.9790
 1.1990	36.9760
 1.2000	36.9760
 1.2010	36.9780
 1.2020	36.9820
 1.2030	36.9860
 1.2040	36.9920
 1.2050	36.9990
 1.2060	37.0060
 1.2070	37.0180
 1.2080	37.0300
 1.2090	37.0410
 1.2100	37.0540
 1.2110	37.0670
 1.2120	37.0800
 1.2130	37.0960
 1.2140	37.1160
 1.2150	37.1340
 1.2160	37.1520
 1.2170	37.1710
 1.2180	37.1900
 1.2190	37.2100
 1.2200	37.2310
 1.2210	37.2520
 1.2220	37.2740
 1.2230	37.2960
 1.2240	37.3180
 1.2250	37.3410
 1.2260	37.3650
 1.2270	37.3870
 1.2280	37.4080
 1.2290	37.4290
 1.2300	37.4480
 1.2310	37.4660
 1.2320	37.4860
 1.2330	37.5040
 1.2340	37.5210
 1.2350	37.5380
 1.2360	37.5540
 1.2370	37.5700
 1.2380	37.5850
 1.2390	37.6000
 1.2400	37.6140
 1.2410	37.6270
 1.2420	37.6400
 1.2430	37.6530
 1.2440	37.6660
 1.2450	37.6790
 1.2460	37.6920
 1.2470	37.7040
 1.2480	37.7140
 1.2490	37.7240
 1.2500	37.7330
 1.2510	37.7410
 1.2520	37.7490
 1.2530	37.7540
 1.2540	37.7600
 1.2550	37.7660
 1.2560	37.7710
 1.2570	37.7780
 1.2580	37.7830
 1.2590	37.7860
 1.2600	37.7880
 1.2610	37.7890
 1.2620	37.7890
 1.2630	37.7880
 1.2640	37.7880
 1.2650	37.7850
 1.2660	37.7830
 1.2670	37.7810
 1.2680	37.7770
 1.2690	37.7710
 1.2700	37.7650
 1.2710	37.7560
 1.2720	37.7450
 1.2730	37.7350
 1.2740	37.7260
 1.2750	37.7140
 1.2760	37.7010
 1.2770	37.6880
 1.2780	37.6730
 1.2790	37.6570
 1.2800	37.6410
 1.2810	37.6240
 1.2820	37.6030
 1.2830	37.5820
 1.2840	37.5590
 1.2850	37.5340
 1.2860	37.5090
 1.2870	37.4810
 1.2880	37.4510
 1.2890	37.4180
 1.2900	37.3840
 1.2910	37.3490
 1.2920	37.3150
 1.2930	37.2780
 1.2940	37.2400
 1.2950	37.1990
 1.2960	37.1540
 1.2970	37.1080
 1.2980	37.0610
 1.2990	37.0100
 1.3000	36.9590
 1.3010	36.9060
 1.3020	36.8500
 1.3030	36.7920
 1.3040	36.7290
 1.3050	36.6660
 1.3060	36.6000
 1.3070	36.5310
 1.3080	36.4620
 1.3090	36.3900
 1.3100	36.3140
 1.3110	36.2360
 1.3120	36.1550
 1.3130	36.0730
 1.3140	35.9880
 1.3150	35.9020
 1.3160	35.8120
 1.3170	35.7210
 1.3180	35.6260
 1.3190	35.5300
 1.3200	35.4300
 1.3210	35.3290
 1.3220	35.2260
 1.3230	35.1210
 1.3240	35.0120
 1.3250	34.9020
 1.3260	34.7890
 1.3270	34.6750
 1.3280	34.5610
 1.3290	34.4420
 1.3300	34.3230
 1.3310	34.2020
 1.3320	34.0790
 1.3330	33.9570
 1.3340	33.8360
 1.3350	33.7130
 1.3360	33.5910
 1.3370	33.4690
 1.3380	33.3470
 1.3390	33.2250
 1.3400	33.1050
 1.3410	32.9850
 1.3420	32.8670
 1.3430	32.7500
 1.3440	32.6340
 1.3450	32.5190
 1.3460	32.4030
 1.3470	32.2900
 1.3480	32.1780
 1.3490	32.0680
 1.3500	31.9610
 1.3510	31.8530
 1.3520	31.7450
 1.3530	31.6370
 1.3540	31.5280
 1.3550	31.4180
 1.3560	31.3090
 1.3570	31.1980
 1.3580	31.0860
 1.3590	30.9720
 1.3600	30.8540
 1.3610	30.7320
 1.3620	30.6070
 1.3630	30.4770
 1.3640	30.3400
 1.3650	30.1960
 1.3660	30.0450
 1.3670	29.8850
 1.3680	29.7150
 1.3690	29.5330
 1.3700	29.3380
 1.3710	29.1300
 1.3720	28.9080
 1.3730	28.6690
 1.3740	28.4150
 1.3750	28.1420
 1.3760	27.8470
 1.3770	27.5320
 1.3780	27.1910
 1.3790	26.8300
 1.3800	26.4490
 1.3810	26.0450
 1.3820	25.6230
 1.3830	25.1830
 1.3840	24.7230
 1.3850	24.2420
 1.3860	23.7510
 1.3870	23.2380
 1.3880	22.7260
 1.3890	22.2030
 1.3900	21.6740
 1.3910	21.1470
 1.3920	20.6160
 1.3930	20.0840
 1.3940	19.5590
 1.3950	19.0360
 1.3960	18.5230
 1.3970	18.0240
 1.3980	17.5390
 1.3990	17.0750
 1.4000	16.6280
 1.4010	16.1960
 1.4020	15.7860
 1.4030	15.3920
 1.4040	15.0190
 1.4050	14.6680
 1.4060	14.3350
 1.4070	14.0230
 1.4080	13.7320
 1.4090	13.4580
 1.4100	13.2040
 1.4110	12.9650
 1.4120	12.7430
 1.4130	12.5380
 1.4140	12.3450
 1.4150	12.1690
 1.4160	12.0070
 1.4170	11.8550
 1.4180	11.7150
 1.4190	11.5840
 1.4200	11.4630
 1.4210	11.3520
 1.4220	11.2480
 1.4230	11.1540
 1.4240	11.0660
 1.4250	10.9840
 1.4260	10.9080
 1.4270	10.8380
 1.4280	10.7730
 1.4290	10.7140
 1.4300	10.6600
 1.4310	10.6110
 1.4320	10.5680
 1.4330	10.5280
 1.4340	10.4920
 1.4350	10.4590
 1.4360	10.4300
 1.4370	10.4040
 1.4380	10.3810
 1.4390	10.3620
 1.4400	10.3460
 1.4410	10.3330
 1.4420	10.3210
 1.4430	10.3130
 1.4440	10.3070
 1.4450	10.3010
 1.4460	10.2990
 1.4470	10.2990
 1.4480	10.3010
 1.4490	10.3040
 1.4500	10.3090
 1.4510	10.3150
 1.4520	10.3220
 1.4530	10.3320
 1.4540	10.3430
 1.4550	10.3570
 1.4560	10.3730
 1.4570	10.3920
 1.4580	10.4150
 1.4590	10.4410
 1.4600	10.4700
 1.4610	10.5020
 1.4620	10.5360
 1.4630	10.5750
 1.4640	10.6180
 1.4650	10.6660
 1.4660	10.7190
 1.4670	10.7750
 1.4680	10.8360
 1.4690	10.8990
 1.4700	10.9660
 1.4710	11.0370
 1.4720	11.1100
 1.4730	11.1870
 1.4740	11.2690
 1.4750	11.3520
 1.4760	11.4400
 1.4770	11.5290
