Name: Calocedrus decrruens 2
Type: vegetation
Class: Tree
Genus: Calocedrus
Species: decurrens
Sample No.: VH247
Owner: UCSB
Wavelength Range: VSWIR
Origin: 37.0441; -119.3033; WGS84
Collection Date: 11/2/2013
Description: Samples were collected as part of the HyspIRI Airborne Campaign. 48 individual plants were sampled in three times in 2013 - spring  summer  and fall. The name of the sample includes a 1  2  or 3 which references a different individual of the species. Samples were taken to JPL and processed within 48 hours of collection. The same leaves were processed in the Nicolet and then measured using the ASD.
Measurement: Bidirectional reflectance
First Column: X
Second Column: Y
X Units: Wavelength (micrometers)
Y Units: Reflectance (percentage)
First X Value: 0.35
Last X Value: 2.5
Number of X Values: 2151
Additional Information: vegetation.tree.calocedrus.decurrens.vswir.vh247.ucsb.asd.ancillary.txt

 0.3500	 4.8420
 0.3510	 4.7420
 0.3520	 4.8400
 0.3530	 4.8100
 0.3540	 4.5120
 0.3550	 4.5790
 0.3560	 4.6040
 0.3570	 4.5490
 0.3580	 4.5550
 0.3590	 4.5220
 0.3600	 4.4620
 0.3610	 4.4120
 0.3620	 4.4280
 0.3630	 4.4490
 0.3640	 4.4380
 0.3650	 4.3910
 0.3660	 4.4060
 0.3670	 4.3920
 0.3680	 4.3630
 0.3690	 4.3910
 0.3700	 4.3550
 0.3710	 4.3590
 0.3720	 4.4310
 0.3730	 4.4040
 0.3740	 4.4120
 0.3750	 4.4190
 0.3760	 4.3630
 0.3770	 4.3220
 0.3780	 4.3440
 0.3790	 4.3850
 0.3800	 4.3340
 0.3810	 4.3140
 0.3820	 4.3280
 0.3830	 4.3580
 0.3840	 4.3750
 0.3850	 4.3810
 0.3860	 4.3840
 0.3870	 4.3850
 0.3880	 4.3480
 0.3890	 4.3160
 0.3900	 4.3160
 0.3910	 4.3510
 0.3920	 4.3630
 0.3930	 4.3690
 0.3940	 4.3900
 0.3950	 4.4050
 0.3960	 4.4350
 0.3970	 4.4590
 0.3980	 4.4450
 0.3990	 4.4370
 0.4000	 4.4590
 0.4010	 4.5050
 0.4020	 4.5330
 0.4030	 4.5470
 0.4040	 4.5630
 0.4050	 4.6000
 0.4060	 4.6490
 0.4070	 4.7050
 0.4080	 4.7550
 0.4090	 4.7800
 0.4100	 4.8250
 0.4110	 4.8760
 0.4120	 4.9230
 0.4130	 4.9700
 0.4140	 5.0220
 0.4150	 5.0830
 0.4160	 5.1540
 0.4170	 5.1930
 0.4180	 5.2280
 0.4190	 5.2700
 0.4200	 5.3190
 0.4210	 5.3690
 0.4220	 5.4220
 0.4230	 5.4770
 0.4240	 5.5050
 0.4250	 5.5380
 0.4260	 5.5790
 0.4270	 5.6130
 0.4280	 5.6610
 0.4290	 5.7000
 0.4300	 5.7260
 0.4310	 5.7710
 0.4320	 5.7980
 0.4330	 5.8120
 0.4340	 5.8280
 0.4350	 5.8430
 0.4360	 5.8730
 0.4370	 5.9150
 0.4380	 5.9500
 0.4390	 5.9720
 0.4400	 5.9940
 0.4410	 6.0240
 0.4420	 6.0560
 0.4430	 6.0790
 0.4440	 6.1000
 0.4450	 6.1270
 0.4460	 6.1580
 0.4470	 6.1960
 0.4480	 6.2360
 0.4490	 6.2570
 0.4500	 6.2840
 0.4510	 6.3190
 0.4520	 6.3530
 0.4530	 6.3720
 0.4540	 6.3870
 0.4550	 6.4020
 0.4560	 6.4200
 0.4570	 6.4570
 0.4580	 6.4810
 0.4590	 6.4800
 0.4600	 6.4950
 0.4610	 6.5140
 0.4620	 6.5240
 0.4630	 6.5200
 0.4640	 6.5400
 0.4650	 6.5490
 0.4660	 6.5430
 0.4670	 6.5550
 0.4680	 6.5710
 0.4690	 6.5790
 0.4700	 6.5810
 0.4710	 6.5970
 0.4720	 6.6080
 0.4730	 6.6150
 0.4740	 6.6290
 0.4750	 6.6440
 0.4760	 6.6510
 0.4770	 6.6530
 0.4780	 6.6690
 0.4790	 6.6740
 0.4800	 6.6750
 0.4810	 6.6850
 0.4820	 6.6980
 0.4830	 6.7120
 0.4840	 6.7280
 0.4850	 6.7460
 0.4860	 6.7580
 0.4870	 6.7710
 0.4880	 6.7910
 0.4890	 6.8180
 0.4900	 6.8480
 0.4910	 6.8780
 0.4920	 6.9080
 0.4930	 6.9580
 0.4940	 7.0120
 0.4950	 7.0640
 0.4960	 7.1260
 0.4970	 7.1910
 0.4980	 7.2640
 0.4990	 7.3480
 0.5000	 7.4410
 0.5010	 7.5410
 0.5020	 7.6520
 0.5030	 7.7760
 0.5040	 7.9070
 0.5050	 8.0480
 0.5060	 8.2030
 0.5070	 8.3780
 0.5080	 8.5630
 0.5090	 8.7620
 0.5100	 8.9840
 0.5110	 9.2140
 0.5120	 9.4540
 0.5130	 9.7090
 0.5140	 9.9870
 0.5150	10.2700
 0.5160	10.5580
 0.5170	10.8540
 0.5180	11.1540
 0.5190	11.4630
 0.5200	11.7790
 0.5210	12.0880
 0.5220	12.3870
 0.5230	12.6770
 0.5240	12.9600
 0.5250	13.2320
 0.5260	13.4900
 0.5270	13.7320
 0.5280	13.9540
 0.5290	14.1630
 0.5300	14.3540
 0.5310	14.5260
 0.5320	14.6850
 0.5330	14.8250
 0.5340	14.9510
 0.5350	15.0670
 0.5360	15.1730
 0.5370	15.2650
 0.5380	15.3430
 0.5390	15.4110
 0.5400	15.4740
 0.5410	15.5320
 0.5420	15.5830
 0.5430	15.6300
 0.5440	15.6850
 0.5450	15.7420
 0.5460	15.7950
 0.5470	15.8560
 0.5480	15.9150
 0.5490	15.9670
 0.5500	16.0100
 0.5510	16.0430
 0.5520	16.0660
 0.5530	16.0820
 0.5540	16.0820
 0.5550	16.0620
 0.5560	16.0270
 0.5570	15.9780
 0.5580	15.9100
 0.5590	15.8260
 0.5600	15.7290
 0.5610	15.6160
 0.5620	15.4900
 0.5630	15.3570
 0.5640	15.2210
 0.5650	15.0730
 0.5660	14.9160
 0.5670	14.7570
 0.5680	14.5920
 0.5690	14.4200
 0.5700	14.2420
 0.5710	14.0640
 0.5720	13.8940
 0.5730	13.7320
 0.5740	13.5750
 0.5750	13.4170
 0.5760	13.2610
 0.5770	13.1170
 0.5780	12.9910
 0.5790	12.8700
 0.5800	12.7540
 0.5810	12.6450
 0.5820	12.5460
 0.5830	12.4560
 0.5840	12.3730
 0.5850	12.2930
 0.5860	12.2130
 0.5870	12.1390
 0.5880	12.0670
 0.5890	11.9960
 0.5900	11.9250
 0.5910	11.8670
 0.5920	11.8210
 0.5930	11.7760
 0.5940	11.7290
 0.5950	11.6890
 0.5960	11.6560
 0.5970	11.6200
 0.5980	11.5840
 0.5990	11.5460
 0.6000	11.5030
 0.6010	11.4660
 0.6020	11.4220
 0.6030	11.3680
 0.6040	11.3060
 0.6050	11.2430
 0.6060	11.1720
 0.6070	11.0940
 0.6080	11.0210
 0.6090	10.9350
 0.6100	10.8360
 0.6110	10.7390
 0.6120	10.6540
 0.6130	10.5760
 0.6140	10.4980
 0.6150	10.4130
 0.6160	10.3350
 0.6170	10.2630
 0.6180	10.1930
 0.6190	10.1260
 0.6200	10.0660
 0.6210	10.0160
 0.6220	 9.9760
 0.6230	 9.9400
 0.6240	 9.9090
 0.6250	 9.8850
 0.6260	 9.8720
 0.6270	 9.8600
 0.6280	 9.8480
 0.6290	 9.8410
 0.6300	 9.8370
 0.6310	 9.8280
 0.6320	 9.8100
 0.6330	 9.7860
 0.6340	 9.7550
 0.6350	 9.7110
 0.6360	 9.6500
 0.6370	 9.5720
 0.6380	 9.4840
 0.6390	 9.3830
 0.6400	 9.2670
 0.6410	 9.1510
 0.6420	 9.0280
 0.6430	 8.8980
 0.6440	 8.7700
 0.6450	 8.6450
 0.6460	 8.5250
 0.6470	 8.4100
 0.6480	 8.3100
 0.6490	 8.2230
 0.6500	 8.1490
 0.6510	 8.0870
 0.6520	 8.0330
 0.6530	 7.9870
 0.6540	 7.9480
 0.6550	 7.8990
 0.6560	 7.8500
 0.6570	 7.7950
 0.6580	 7.7260
 0.6590	 7.6560
 0.6600	 7.5810
 0.6610	 7.5000
 0.6620	 7.4190
 0.6630	 7.3430
 0.6640	 7.2700
 0.6650	 7.2010
 0.6660	 7.1410
 0.6670	 7.0890
 0.6680	 7.0470
 0.6690	 7.0120
 0.6700	 6.9910
 0.6710	 6.9760
 0.6720	 6.9670
 0.6730	 6.9710
 0.6740	 6.9820
 0.6750	 6.9980
 0.6760	 7.0190
 0.6770	 7.0470
 0.6780	 7.0820
 0.6790	 7.1270
 0.6800	 7.1860
 0.6810	 7.2520
 0.6820	 7.3330
 0.6830	 7.4340
 0.6840	 7.5560
 0.6850	 7.7070
 0.6860	 7.8920
 0.6870	 8.1190
 0.6880	 8.4000
 0.6890	 8.7510
 0.6900	 9.1760
 0.6910	 9.6750
 0.6920	10.2620
 0.6930	10.9380
 0.6940	11.7020
 0.6950	12.5450
 0.6960	13.4640
 0.6970	14.4480
 0.6980	15.4890
 0.6990	16.5810
 0.7000	17.7150
 0.7010	18.8820
 0.7020	20.0690
 0.7030	21.2690
 0.7040	22.4770
 0.7050	23.6890
 0.7060	24.9030
 0.7070	26.1090
 0.7080	27.3090
 0.7090	28.5110
 0.7100	29.6960
 0.7110	30.8850
 0.7120	32.0780
 0.7130	33.2430
 0.7140	34.4040
 0.7150	35.5600
 0.7160	36.7060
 0.7170	37.8310
 0.7180	38.9400
 0.7190	40.0400
 0.7200	41.1280
 0.7210	42.1850
 0.7220	43.2250
 0.7230	44.2460
 0.7240	45.2220
 0.7250	46.1850
 0.7260	47.1180
 0.7270	48.0050
 0.7280	48.8620
 0.7290	49.6740
 0.7300	50.4460
 0.7310	51.1860
 0.7320	51.9070
 0.7330	52.5830
 0.7340	53.2150
 0.7350	53.8290
 0.7360	54.3950
 0.7370	54.9260
 0.7380	55.4340
 0.7390	55.9050
 0.7400	56.3540
 0.7410	56.7750
 0.7420	57.1590
 0.7430	57.5180
 0.7440	57.8530
 0.7450	58.1640
 0.7460	58.4530
 0.7470	58.7090
 0.7480	58.9370
 0.7490	59.1450
 0.7500	59.3420
 0.7510	59.5180
 0.7520	59.6820
 0.7530	59.8400
 0.7540	59.9680
 0.7550	60.0820
 0.7560	60.1900
 0.7570	60.2890
 0.7580	60.3660
 0.7590	60.4390
 0.7600	60.5190
 0.7610	60.5860
 0.7620	60.6490
 0.7630	60.7020
 0.7640	60.7430
 0.7650	60.7740
 0.7660	60.8000
 0.7670	60.8290
 0.7680	60.8660
 0.7690	60.8990
 0.7700	60.9180
 0.7710	60.9290
 0.7720	60.9580
 0.7730	60.9570
 0.7740	60.9630
 0.7750	61.0040
 0.7760	61.0150
 0.7770	61.0290
 0.7780	61.0420
 0.7790	61.0410
 0.7800	61.0560
 0.7810	61.0720
 0.7820	61.0820
 0.7830	61.0920
 0.7840	61.1170
 0.7850	61.1460
 0.7860	61.1680
 0.7870	61.1780
 0.7880	61.1840
 0.7890	61.1870
 0.7900	61.1930
 0.7910	61.2260
 0.7920	61.2570
 0.7930	61.2670
 0.7940	61.2500
 0.7950	61.2730
 0.7960	61.3010
 0.7970	61.3170
 0.7980	61.3440
 0.7990	61.3560
 0.8000	61.3690
 0.8010	61.3980
 0.8020	61.4080
 0.8030	61.4240
 0.8040	61.4500
 0.8050	61.4780
 0.8060	61.4760
 0.8070	61.4930
 0.8080	61.5310
 0.8090	61.5510
 0.8100	61.5680
 0.8110	61.5760
 0.8120	61.5820
 0.8130	61.6140
 0.8140	61.6440
 0.8150	61.6610
 0.8160	61.6700
 0.8170	61.7030
 0.8180	61.7400
 0.8190	61.7660
 0.8200	61.7720
 0.8210	61.7860
 0.8220	61.8110
 0.8230	61.8400
 0.8240	61.8580
 0.8250	61.8720
 0.8260	61.8950
 0.8270	61.9240
 0.8280	61.9350
 0.8290	61.9570
 0.8300	61.9820
 0.8310	61.9940
 0.8320	61.9930
 0.8330	62.0040
 0.8340	62.0240
 0.8350	62.0380
 0.8360	62.0610
 0.8370	62.0860
 0.8380	62.1110
 0.8390	62.1380
 0.8400	62.1690
 0.8410	62.1950
 0.8420	62.2130
 0.8430	62.2350
 0.8440	62.2560
 0.8450	62.2800
 0.8460	62.3070
 0.8470	62.3130
 0.8480	62.3340
 0.8490	62.3680
 0.8500	62.4000
 0.8510	62.4190
 0.8520	62.4380
 0.8530	62.4540
 0.8540	62.4590
 0.8550	62.4840
 0.8560	62.5130
 0.8570	62.5330
 0.8580	62.5430
 0.8590	62.5540
 0.8600	62.5680
 0.8610	62.5830
 0.8620	62.6090
 0.8630	62.6160
 0.8640	62.6100
 0.8650	62.6050
 0.8660	62.6200
 0.8670	62.6540
 0.8680	62.6770
 0.8690	62.6650
 0.8700	62.6700
 0.8710	62.6870
 0.8720	62.7000
 0.8730	62.6960
 0.8740	62.7280
 0.8750	62.7400
 0.8760	62.7220
 0.8770	62.7130
 0.8780	62.7200
 0.8790	62.7260
 0.8800	62.7260
 0.8810	62.7350
 0.8820	62.7240
 0.8830	62.7170
 0.8840	62.7240
 0.8850	62.7190
 0.8860	62.7130
 0.8870	62.7020
 0.8880	62.6860
 0.8890	62.6980
 0.8900	62.7240
 0.8910	62.7340
 0.8920	62.7060
 0.8930	62.6850
 0.8940	62.6620
 0.8950	62.6490
 0.8960	62.6620
 0.8970	62.6470
 0.8980	62.6260
 0.8990	62.6210
 0.9000	62.6350
 0.9010	62.6220
 0.9020	62.6160
 0.9030	62.6220
 0.9040	62.5990
 0.9050	62.5800
 0.9060	62.5620
 0.9070	62.5450
 0.9080	62.5490
 0.9090	62.5300
 0.9100	62.5060
 0.9110	62.5000
 0.9120	62.4970
 0.9130	62.4850
 0.9140	62.4610
 0.9150	62.4330
 0.9160	62.4180
 0.9170	62.4030
 0.9180	62.3900
 0.9190	62.3810
 0.9200	62.3580
 0.9210	62.3580
 0.9220	62.3570
 0.9230	62.3050
 0.9240	62.2610
 0.9250	62.2360
 0.9260	62.2310
 0.9270	62.2310
 0.9280	62.1880
 0.9290	62.1440
 0.9300	62.1180
 0.9310	62.1000
 0.9320	62.0590
 0.9330	62.0200
 0.9340	61.9850
 0.9350	61.9250
 0.9360	61.8960
 0.9370	61.8740
 0.9380	61.8320
 0.9390	61.7620
 0.9400	61.7290
 0.9410	61.6980
 0.9420	61.6390
 0.9430	61.5680
 0.9440	61.5040
 0.9450	61.4390
 0.9460	61.3640
 0.9470	61.2860
 0.9480	61.2070
 0.9490	61.1270
 0.9500	61.0410
 0.9510	60.9360
 0.9520	60.8160
 0.9530	60.6920
 0.9540	60.5710
 0.9550	60.4340
 0.9560	60.3230
 0.9570	60.2240
 0.9580	60.1190
 0.9590	60.0340
 0.9600	59.9460
 0.9610	59.8540
 0.9620	59.7710
 0.9630	59.7250
 0.9640	59.6790
 0.9650	59.6300
 0.9660	59.5890
 0.9670	59.5620
 0.9680	59.5290
 0.9690	59.4980
 0.9700	59.4810
 0.9710	59.4770
 0.9720	59.4830
 0.9730	59.4860
 0.9740	59.4750
 0.9750	59.4720
 0.9760	59.4580
 0.9770	59.4470
 0.9780	59.4630
 0.9790	59.4910
 0.9800	59.5080
 0.9810	59.5210
 0.9820	59.5520
 0.9830	59.5870
 0.9840	59.6040
 0.9850	59.6190
 0.9860	59.6610
 0.9870	59.7190
 0.9880	59.7580
 0.9890	59.7850
 0.9900	59.8320
 0.9910	59.8980
 0.9920	59.9450
 0.9930	59.9830
 0.9940	60.0400
 0.9950	60.1130
 0.9960	60.1550
 0.9970	60.1990
 0.9980	60.2840
 0.9990	60.3060
 1.0000	60.4290
 1.0010	60.5580
 1.0020	60.6720
 1.0030	60.7260
 1.0040	60.7740
 1.0050	60.8290
 1.0060	60.8970
 1.0070	60.9580
 1.0080	61.0200
 1.0090	61.0860
 1.0100	61.1420
 1.0110	61.1860
 1.0120	61.2420
 1.0130	61.2950
 1.0140	61.3530
 1.0150	61.4200
 1.0160	61.4840
 1.0170	61.5410
 1.0180	61.5980
 1.0190	61.6520
 1.0200	61.7040
 1.0210	61.7540
 1.0220	61.8080
 1.0230	61.8630
 1.0240	61.9230
 1.0250	61.9750
 1.0260	62.0220
 1.0270	62.0740
 1.0280	62.1240
 1.0290	62.1750
 1.0300	62.2340
 1.0310	62.2860
 1.0320	62.3350
 1.0330	62.3800
 1.0340	62.4210
 1.0350	62.4630
 1.0360	62.5090
 1.0370	62.5560
 1.0380	62.6030
 1.0390	62.6580
 1.0400	62.7030
 1.0410	62.7450
 1.0420	62.7860
 1.0430	62.8230
 1.0440	62.8610
 1.0450	62.9010
 1.0460	62.9370
 1.0470	62.9690
 1.0480	63.0020
 1.0490	63.0330
 1.0500	63.0630
 1.0510	63.0930
 1.0520	63.1240
 1.0530	63.1510
 1.0540	63.1770
 1.0550	63.2020
 1.0560	63.2270
 1.0570	63.2490
 1.0580	63.2710
 1.0590	63.2910
 1.0600	63.3100
 1.0610	63.3270
 1.0620	63.3440
 1.0630	63.3590
 1.0640	63.3710
 1.0650	63.3810
 1.0660	63.3870
 1.0670	63.3970
 1.0680	63.4070
 1.0690	63.4180
 1.0700	63.4260
 1.0710	63.4360
 1.0720	63.4430
 1.0730	63.4470
 1.0740	63.4500
 1.0750	63.4520
 1.0760	63.4540
 1.0770	63.4550
 1.0780	63.4550
 1.0790	63.4570
 1.0800	63.4540
 1.0810	63.4460
 1.0820	63.4380
 1.0830	63.4310
 1.0840	63.4210
 1.0850	63.4090
 1.0860	63.3960
 1.0870	63.3810
 1.0880	63.3620
 1.0890	63.3440
 1.0900	63.3260
 1.0910	63.3070
 1.0920	63.2870
 1.0930	63.2660
 1.0940	63.2450
 1.0950	63.2220
 1.0960	63.1960
 1.0970	63.1710
 1.0980	63.1460
 1.0990	63.1220
 1.1000	63.1020
 1.1010	63.0770
 1.1020	63.0500
 1.1030	63.0210
 1.1040	62.9900
 1.1050	62.9590
 1.1060	62.9270
 1.1070	62.8960
 1.1080	62.8620
 1.1090	62.8270
 1.1100	62.7920
 1.1110	62.7580
 1.1120	62.7220
 1.1130	62.6860
 1.1140	62.6450
 1.1150	62.6020
 1.1160	62.5550
 1.1170	62.5050
 1.1180	62.4500
 1.1190	62.3920
 1.1200	62.3290
 1.1210	62.2640
 1.1220	62.1880
 1.1230	62.1030
 1.1240	62.0110
 1.1250	61.9050
 1.1260	61.7870
 1.1270	61.6590
 1.1280	61.5220
 1.1290	61.3720
 1.1300	61.2140
 1.1310	61.0380
 1.1320	60.8500
 1.1330	60.6470
 1.1340	60.4290
 1.1350	60.1980
 1.1360	59.9540
 1.1370	59.6990
 1.1380	59.4330
 1.1390	59.1600
 1.1400	58.8760
 1.1410	58.5900
 1.1420	58.3020
 1.1430	58.0100
 1.1440	57.7220
 1.1450	57.4310
 1.1460	57.1520
 1.1470	56.8730
 1.1480	56.6070
 1.1490	56.3460
 1.1500	56.1040
 1.1510	55.8700
 1.1520	55.6540
 1.1530	55.4570
 1.1540	55.2690
 1.1550	55.0930
 1.1560	54.9320
 1.1570	54.7830
 1.1580	54.6500
 1.1590	54.5310
 1.1600	54.4230
 1.1610	54.3260
 1.1620	54.2380
 1.1630	54.1570
 1.1640	54.0830
 1.1650	54.0140
 1.1660	53.9510
 1.1670	53.8940
 1.1680	53.8450
 1.1690	53.7970
 1.1700	53.7580
 1.1710	53.7160
 1.1720	53.6760
 1.1730	53.6340
 1.1740	53.5930
 1.1750	53.5490
 1.1760	53.5050
 1.1770	53.4620
 1.1780	53.4170
 1.1790	53.3710
 1.1800	53.3220
 1.1810	53.2720
 1.1820	53.2210
 1.1830	53.1710
 1.1840	53.1200
 1.1850	53.0680
 1.1860	53.0190
 1.1870	52.9690
 1.1880	52.9210
 1.1890	52.8770
 1.1900	52.8320
 1.1910	52.7870
 1.1920	52.7460
 1.1930	52.7060
 1.1940	52.6710
 1.1950	52.6380
 1.1960	52.6120
 1.1970	52.5880
 1.1980	52.5700
 1.1990	52.5570
 1.2000	52.5490
 1.2010	52.5480
 1.2020	52.5530
 1.2030	52.5660
 1.2040	52.5830
 1.2050	52.6060
 1.2060	52.6360
 1.2070	52.6730
 1.2080	52.7160
 1.2090	52.7630
 1.2100	52.8170
 1.2110	52.8760
 1.2120	52.9420
 1.2130	53.0110
 1.2140	53.0860
 1.2150	53.1670
 1.2160	53.2530
 1.2170	53.3420
 1.2180	53.4350
 1.2190	53.5320
 1.2200	53.6270
 1.2210	53.7260
 1.2220	53.8260
 1.2230	53.9240
 1.2240	54.0250
 1.2250	54.1200
 1.2260	54.2120
 1.2270	54.3060
 1.2280	54.3940
 1.2290	54.4820
 1.2300	54.5680
 1.2310	54.6510
 1.2320	54.7320
 1.2330	54.8080
 1.2340	54.8810
 1.2350	54.9520
 1.2360	55.0210
 1.2370	55.0860
 1.2380	55.1530
 1.2390	55.2190
 1.2400	55.2820
 1.2410	55.3450
 1.2420	55.4040
 1.2430	55.4590
 1.2440	55.5120
 1.2450	55.5640
 1.2460	55.6130
 1.2470	55.6610
 1.2480	55.7090
 1.2490	55.7560
 1.2500	55.7990
 1.2510	55.8390
 1.2520	55.8770
 1.2530	55.9120
 1.2540	55.9470
 1.2550	55.9800
 1.2560	56.0110
 1.2570	56.0420
 1.2580	56.0690
 1.2590	56.0940
 1.2600	56.1170
 1.2610	56.1390
 1.2620	56.1560
 1.2630	56.1730
 1.2640	56.1890
 1.2650	56.2020
 1.2660	56.2130
 1.2670	56.2260
 1.2680	56.2340
 1.2690	56.2420
 1.2700	56.2510
 1.2710	56.2540
 1.2720	56.2550
 1.2730	56.2540
 1.2740	56.2480
 1.2750	56.2410
 1.2760	56.2310
 1.2770	56.2190
 1.2780	56.2050
 1.2790	56.1880
 1.2800	56.1680
 1.2810	56.1480
 1.2820	56.1240
 1.2830	56.0940
 1.2840	56.0630
 1.2850	56.0290
 1.2860	55.9890
 1.2870	55.9480
 1.2880	55.9050
 1.2890	55.8570
 1.2900	55.8040
 1.2910	55.7510
 1.2920	55.6930
 1.2930	55.6310
 1.2940	55.5620
 1.2950	55.4910
 1.2960	55.4160
 1.2970	55.3360
 1.2980	55.2550
 1.2990	55.1670
 1.3000	55.0690
 1.3010	54.9680
 1.3020	54.8620
 1.3030	54.7530
 1.3040	54.6390
 1.3050	54.5200
 1.3060	54.3950
 1.3070	54.2640
 1.3080	54.1310
 1.3090	53.9930
 1.3100	53.8490
 1.3110	53.7010
 1.3120	53.5460
 1.3130	53.3860
 1.3140	53.2210
 1.3150	53.0520
 1.3160	52.8800
 1.3170	52.7060
 1.3180	52.5270
 1.3190	52.3430
 1.3200	52.1500
 1.3210	51.9490
 1.3220	51.7480
 1.3230	51.5430
 1.3240	51.3360
 1.3250	51.1300
 1.3260	50.9190
 1.3270	50.7030
 1.3280	50.4860
 1.3290	50.2620
 1.3300	50.0360
 1.3310	49.8090
 1.3320	49.5780
 1.3330	49.3480
 1.3340	49.1190
 1.3350	48.8900
 1.3360	48.6630
 1.3370	48.4370
 1.3380	48.2120
 1.3390	47.9880
 1.3400	47.7630
 1.3410	47.5430
 1.3420	47.3250
 1.3430	47.1090
 1.3440	46.8950
 1.3450	46.6850
 1.3460	46.4770
 1.3470	46.2740
 1.3480	46.0740
 1.3490	45.8770
 1.3500	45.6830
 1.3510	45.4900
 1.3520	45.3000
 1.3530	45.1140
 1.3540	44.9270
 1.3550	44.7410
 1.3560	44.5530
 1.3570	44.3630
 1.3580	44.1750
 1.3590	43.9820
 1.3600	43.7850
 1.3610	43.5840
 1.3620	43.3740
 1.3630	43.1580
 1.3640	42.9330
 1.3650	42.6970
 1.3660	42.4550
 1.3670	42.2020
 1.3680	41.9380
 1.3690	41.6620
 1.3700	41.3670
 1.3710	41.0570
 1.3720	40.7310
 1.3730	40.3860
 1.3740	40.0280
 1.3750	39.6500
 1.3760	39.2490
 1.3770	38.8260
 1.3780	38.3750
 1.3790	37.9010
 1.3800	37.4070
 1.3810	36.8860
 1.3820	36.3480
 1.3830	35.7900
 1.3840	35.2150
 1.3850	34.6190
 1.3860	34.0150
 1.3870	33.3920
 1.3880	32.7700
 1.3890	32.1390
 1.3900	31.5020
 1.3910	30.8730
 1.3920	30.2430
 1.3930	29.6130
 1.3940	28.9920
 1.3950	28.3730
 1.3960	27.7650
 1.3970	27.1710
 1.3980	26.5900
 1.3990	26.0320
 1.4000	25.4900
 1.4010	24.9630
 1.4020	24.4610
 1.4030	23.9750
 1.4040	23.5130
 1.4050	23.0760
 1.4060	22.6570
 1.4070	22.2650
 1.4080	21.8930
 1.4090	21.5400
 1.4100	21.2120
 1.4110	20.9020
 1.4120	20.6120
 1.4130	20.3430
 1.4140	20.0930
 1.4150	19.8630
 1.4160	19.6490
 1.4170	19.4490
 1.4180	19.2660
 1.4190	19.0940
 1.4200	18.9360
 1.4210	18.7910
 1.4220	18.6570
 1.4230	18.5350
 1.4240	18.4230
 1.4250	18.3200
 1.4260	18.2270
 1.4270	18.1410
 1.4280	18.0640
 1.4290	17.9930
 1.4300	17.9320
 1.4310	17.8760
 1.4320	17.8280
 1.4330	17.7850
 1.4340	17.7470
 1.4350	17.7150
 1.4360	17.6890
 1.4370	17.6680
 1.4380	17.6510
 1.4390	17.6380
 1.4400	17.6280
 1.4410	17.6220
 1.4420	17.6200
 1.4430	17.6210
 1.4440	17.6260
 1.4450	17.6340
 1.4460	17.6430
 1.4470	17.6540
 1.4480	17.6670
 1.4490	17.6820
 1.4500	17.6980
 1.4510	17.7150
 1.4520	17.7340
 1.4530	17.7560
 1.4540	17.7790
 1.4550	17.8060
 1.4560	17.8340
 1.4570	17.8640
 1.4580	17.8970
 1.4590	17.9330
 1.4600	17.9740
 1.4610	18.0170
 1.4620	18.0650
 1.4630	18.1170
 1.4640	18.1730
 1.4650	18.2330
 1.4660	18.2990
 1.4670	18.3690
 1.4680	18.4450
 1.4690	18.5250
