Name: Quercus douglasii 2
Type: vegetation
Class: Tree
Genus: Quercus
Species: douglasii
Sample No.: VH173
Owner: UCSB
Wavelength Range: VSWIR
Origin: 34.7157; -120.0601; WGS84
Collection Date: 6/9/2013
Description: Samples were collected as part of the HyspIRI Airborne Campaign. 48 individual plants were sampled in three times in 2013 - spring  summer  and fall. The name of the sample includes a 1  2  or 3 which references a different individual of the species. Samples were taken to JPL and processed within 48 hours of collection. The same leaves were processed in the Nicolet and then measured using the ASD.
Measurement: Bidirectional reflectance
First Column: X
Second Column: Y
X Units: Wavelength (micrometers)
Y Units: Reflectance (percentage)
First X Value: 0.35
Last X Value: 2.5
Number of X Values: 2151
Additional Information: vegetation.tree.quercus.douglasii.vswir.vh173.ucsb.asd.ancillary.txt

 0.3500	 6.2520
 0.3510	 6.1250
 0.3520	 6.0490
 0.3530	 6.0030
 0.3540	 5.9530
 0.3550	 6.0240
 0.3560	 6.1060
 0.3570	 6.1010
 0.3580	 5.9510
 0.3590	 5.9310
 0.3600	 5.9650
 0.3610	 6.0110
 0.3620	 6.1090
 0.3630	 6.1560
 0.3640	 6.1390
 0.3650	 6.0960
 0.3660	 6.1050
 0.3670	 6.0990
 0.3680	 6.0790
 0.3690	 6.0840
 0.3700	 6.0350
 0.3710	 5.9740
 0.3720	 5.9440
 0.3730	 5.9410
 0.3740	 5.9610
 0.3750	 6.0030
 0.3760	 6.0650
 0.3770	 6.1490
 0.3780	 6.1070
 0.3790	 6.0110
 0.3800	 6.1040
 0.3810	 6.1050
 0.3820	 6.0680
 0.3830	 6.0690
 0.3840	 6.1340
 0.3850	 6.1630
 0.3860	 6.1470
 0.3870	 6.1220
 0.3880	 6.1910
 0.3890	 6.2020
 0.3900	 6.1540
 0.3910	 6.2050
 0.3920	 6.2160
 0.3930	 6.2450
 0.3940	 6.3210
 0.3950	 6.3310
 0.3960	 6.3370
 0.3970	 6.3560
 0.3980	 6.3710
 0.3990	 6.3280
 0.4000	 6.3270
 0.4010	 6.3840
 0.4020	 6.3890
 0.4030	 6.3350
 0.4040	 6.3060
 0.4050	 6.3660
 0.4060	 6.4080
 0.4070	 6.4400
 0.4080	 6.4650
 0.4090	 6.4870
 0.4100	 6.5270
 0.4110	 6.5550
 0.4120	 6.5610
 0.4130	 6.5760
 0.4140	 6.6130
 0.4150	 6.6530
 0.4160	 6.6800
 0.4170	 6.6850
 0.4180	 6.7240
 0.4190	 6.7860
 0.4200	 6.7980
 0.4210	 6.8440
 0.4220	 6.8960
 0.4230	 6.9280
 0.4240	 6.9720
 0.4250	 6.9990
 0.4260	 7.0200
 0.4270	 7.0560
 0.4280	 7.0800
 0.4290	 7.1040
 0.4300	 7.1370
 0.4310	 7.1650
 0.4320	 7.1810
 0.4330	 7.1930
 0.4340	 7.2120
 0.4350	 7.2390
 0.4360	 7.2680
 0.4370	 7.2930
 0.4380	 7.3060
 0.4390	 7.3300
 0.4400	 7.3510
 0.4410	 7.3600
 0.4420	 7.3730
 0.4430	 7.3930
 0.4440	 7.4100
 0.4450	 7.4240
 0.4460	 7.4480
 0.4470	 7.4660
 0.4480	 7.4740
 0.4490	 7.4880
 0.4500	 7.4930
 0.4510	 7.5060
 0.4520	 7.5330
 0.4530	 7.5480
 0.4540	 7.5530
 0.4550	 7.5610
 0.4560	 7.5680
 0.4570	 7.5700
 0.4580	 7.5700
 0.4590	 7.5770
 0.4600	 7.5920
 0.4610	 7.5990
 0.4620	 7.5990
 0.4630	 7.6040
 0.4640	 7.6010
 0.4650	 7.6030
 0.4660	 7.6120
 0.4670	 7.6160
 0.4680	 7.6130
 0.4690	 7.6040
 0.4700	 7.5880
 0.4710	 7.6110
 0.4720	 7.6150
 0.4730	 7.6040
 0.4740	 7.6060
 0.4750	 7.6220
 0.4760	 7.6270
 0.4770	 7.6140
 0.4780	 7.6110
 0.4790	 7.6160
 0.4800	 7.6200
 0.4810	 7.6160
 0.4820	 7.6200
 0.4830	 7.6280
 0.4840	 7.6370
 0.4850	 7.6380
 0.4860	 7.6450
 0.4870	 7.6490
 0.4880	 7.6490
 0.4890	 7.6630
 0.4900	 7.6720
 0.4910	 7.6760
 0.4920	 7.6860
 0.4930	 7.6950
 0.4940	 7.7120
 0.4950	 7.7300
 0.4960	 7.7470
 0.4970	 7.7620
 0.4980	 7.7720
 0.4990	 7.7790
 0.5000	 7.8010
 0.5010	 7.8270
 0.5020	 7.8520
 0.5030	 7.8800
 0.5040	 7.9090
 0.5050	 7.9380
 0.5060	 7.9690
 0.5070	 8.0080
 0.5080	 8.0580
 0.5090	 8.1090
 0.5100	 8.1590
 0.5110	 8.2300
 0.5120	 8.3010
 0.5130	 8.3710
 0.5140	 8.4560
 0.5150	 8.5500
 0.5160	 8.6460
 0.5170	 8.7530
 0.5180	 8.8780
 0.5190	 9.0110
 0.5200	 9.1430
 0.5210	 9.2880
 0.5220	 9.4370
 0.5230	 9.5890
 0.5240	 9.7390
 0.5250	 9.8900
 0.5260	10.0320
 0.5270	10.1690
 0.5280	10.3030
 0.5290	10.4370
 0.5300	10.5580
 0.5310	10.6630
 0.5320	10.7660
 0.5330	10.8610
 0.5340	10.9440
 0.5350	11.0150
 0.5360	11.0840
 0.5370	11.1480
 0.5380	11.2070
 0.5390	11.2580
 0.5400	11.3010
 0.5410	11.3420
 0.5420	11.3850
 0.5430	11.4270
 0.5440	11.4660
 0.5450	11.5030
 0.5460	11.5390
 0.5470	11.5730
 0.5480	11.6090
 0.5490	11.6430
 0.5500	11.6620
 0.5510	11.6750
 0.5520	11.6830
 0.5530	11.6810
 0.5540	11.6580
 0.5550	11.6300
 0.5560	11.5950
 0.5570	11.5460
 0.5580	11.4860
 0.5590	11.4180
 0.5600	11.3450
 0.5610	11.2630
 0.5620	11.1780
 0.5630	11.0900
 0.5640	10.9960
 0.5650	10.8970
 0.5660	10.7940
 0.5670	10.6890
 0.5680	10.5820
 0.5690	10.4690
 0.5700	10.3580
 0.5710	10.2540
 0.5720	10.1520
 0.5730	10.0560
 0.5740	 9.9660
 0.5750	 9.8840
 0.5760	 9.8120
 0.5770	 9.7410
 0.5780	 9.6660
 0.5790	 9.6040
 0.5800	 9.5460
 0.5810	 9.4920
 0.5820	 9.4430
 0.5830	 9.4050
 0.5840	 9.3670
 0.5850	 9.3280
 0.5860	 9.2950
 0.5870	 9.2650
 0.5880	 9.2310
 0.5890	 9.1950
 0.5900	 9.1770
 0.5910	 9.1670
 0.5920	 9.1550
 0.5930	 9.1360
 0.5940	 9.1220
 0.5950	 9.1090
 0.5960	 9.0950
 0.5970	 9.0820
 0.5980	 9.0700
 0.5990	 9.0590
 0.6000	 9.0410
 0.6010	 9.0230
 0.6020	 9.0030
 0.6030	 8.9810
 0.6040	 8.9500
 0.6050	 8.9190
 0.6060	 8.8860
 0.6070	 8.8540
 0.6080	 8.8120
 0.6090	 8.7700
 0.6100	 8.7220
 0.6110	 8.6740
 0.6120	 8.6390
 0.6130	 8.6080
 0.6140	 8.5730
 0.6150	 8.5370
 0.6160	 8.5060
 0.6170	 8.4790
 0.6180	 8.4530
 0.6190	 8.4230
 0.6200	 8.3970
 0.6210	 8.3810
 0.6220	 8.3620
 0.6230	 8.3450
 0.6240	 8.3320
 0.6250	 8.3250
 0.6260	 8.3180
 0.6270	 8.3090
 0.6280	 8.3010
 0.6290	 8.2970
 0.6300	 8.2900
 0.6310	 8.2890
 0.6320	 8.2850
 0.6330	 8.2780
 0.6340	 8.2730
 0.6350	 8.2660
 0.6360	 8.2560
 0.6370	 8.2450
 0.6380	 8.2280
 0.6390	 8.2090
 0.6400	 8.1900
 0.6410	 8.1660
 0.6420	 8.1390
 0.6430	 8.1140
 0.6440	 8.0920
 0.6450	 8.0680
 0.6460	 8.0410
 0.6470	 8.0160
 0.6480	 7.9910
 0.6490	 7.9670
 0.6500	 7.9480
 0.6510	 7.9270
 0.6520	 7.9140
 0.6530	 7.8970
 0.6540	 7.8770
 0.6550	 7.8560
 0.6560	 7.8370
 0.6570	 7.8160
 0.6580	 7.7900
 0.6590	 7.7710
 0.6600	 7.7490
 0.6610	 7.7270
 0.6620	 7.7100
 0.6630	 7.6910
 0.6640	 7.6770
 0.6650	 7.6690
 0.6660	 7.6570
 0.6670	 7.6490
 0.6680	 7.6480
 0.6690	 7.6480
 0.6700	 7.6500
 0.6710	 7.6560
 0.6720	 7.6640
 0.6730	 7.6710
 0.6740	 7.6830
 0.6750	 7.6990
 0.6760	 7.7170
 0.6770	 7.7350
 0.6780	 7.7540
 0.6790	 7.7730
 0.6800	 7.7930
 0.6810	 7.8210
 0.6820	 7.8540
 0.6830	 7.8840
 0.6840	 7.9190
 0.6850	 7.9600
 0.6860	 8.0070
 0.6870	 8.0590
 0.6880	 8.1160
 0.6890	 8.1860
 0.6900	 8.2670
 0.6910	 8.3720
 0.6920	 8.4990
 0.6930	 8.6570
 0.6940	 8.8530
 0.6950	 9.0960
 0.6960	 9.3870
 0.6970	 9.7320
 0.6980	10.1400
 0.6990	10.6100
 0.7000	11.1440
 0.7010	11.7420
 0.7020	12.3990
 0.7030	13.1070
 0.7040	13.8640
 0.7050	14.6640
 0.7060	15.4970
 0.7070	16.3640
 0.7080	17.2600
 0.7090	18.1800
 0.7100	19.1140
 0.7110	20.0680
 0.7120	21.0380
 0.7130	22.0140
 0.7140	22.9980
 0.7150	23.9860
 0.7160	24.9720
 0.7170	25.9570
 0.7180	26.9350
 0.7190	27.9040
 0.7200	28.8670
 0.7210	29.8170
 0.7220	30.7510
 0.7230	31.6680
 0.7240	32.5670
 0.7250	33.4380
 0.7260	34.2830
 0.7270	35.1050
 0.7280	35.8970
 0.7290	36.6580
 0.7300	37.3890
 0.7310	38.0920
 0.7320	38.7660
 0.7330	39.4090
 0.7340	40.0210
 0.7350	40.6060
 0.7360	41.1610
 0.7370	41.6880
 0.7380	42.1870
 0.7390	42.6580
 0.7400	43.1040
 0.7410	43.5250
 0.7420	43.9200
 0.7430	44.2870
 0.7440	44.6320
 0.7450	44.9570
 0.7460	45.2610
 0.7470	45.5440
 0.7480	45.8080
 0.7490	46.0530
 0.7500	46.2770
 0.7510	46.4820
 0.7520	46.6720
 0.7530	46.8510
 0.7540	47.0150
 0.7550	47.1630
 0.7560	47.2970
 0.7570	47.4240
 0.7580	47.5360
 0.7590	47.6390
 0.7600	47.7360
 0.7610	47.8230
 0.7620	47.9030
 0.7630	47.9750
 0.7640	48.0390
 0.7650	48.1020
 0.7660	48.1620
 0.7670	48.2150
 0.7680	48.2580
 0.7690	48.3020
 0.7700	48.3450
 0.7710	48.3830
 0.7720	48.4190
 0.7730	48.4510
 0.7740	48.4790
 0.7750	48.5070
 0.7760	48.5370
 0.7770	48.5650
 0.7780	48.5890
 0.7790	48.6100
 0.7800	48.6330
 0.7810	48.6570
 0.7820	48.6790
 0.7830	48.7000
 0.7840	48.7200
 0.7850	48.7380
 0.7860	48.7540
 0.7870	48.7700
 0.7880	48.7840
 0.7890	48.7970
 0.7900	48.8080
 0.7910	48.8220
 0.7920	48.8350
 0.7930	48.8480
 0.7940	48.8610
 0.7950	48.8720
 0.7960	48.8820
 0.7970	48.8900
 0.7980	48.8970
 0.7990	48.9040
 0.8000	48.9090
 0.8010	48.9100
 0.8020	48.9170
 0.8030	48.9180
 0.8040	48.9160
 0.8050	48.9160
 0.8060	48.9190
 0.8070	48.9220
 0.8080	48.9230
 0.8090	48.9150
 0.8100	48.9150
 0.8110	48.9140
 0.8120	48.9090
 0.8130	48.9060
 0.8140	48.9000
 0.8150	48.8950
 0.8160	48.8950
 0.8170	48.8900
 0.8180	48.8850
 0.8190	48.8780
 0.8200	48.8640
 0.8210	48.8600
 0.8220	48.8550
 0.8230	48.8450
 0.8240	48.8390
 0.8250	48.8320
 0.8260	48.8250
 0.8270	48.8160
 0.8280	48.8050
 0.8290	48.7970
 0.8300	48.7890
 0.8310	48.7750
 0.8320	48.7670
 0.8330	48.7580
 0.8340	48.7500
 0.8350	48.7490
 0.8360	48.7410
 0.8370	48.7330
 0.8380	48.7300
 0.8390	48.7270
 0.8400	48.7250
 0.8410	48.7220
 0.8420	48.7170
 0.8430	48.7130
 0.8440	48.7110
 0.8450	48.7100
 0.8460	48.7080
 0.8470	48.7090
 0.8480	48.7120
 0.8490	48.7130
 0.8500	48.7100
 0.8510	48.7110
 0.8520	48.7100
 0.8530	48.7080
 0.8540	48.7110
 0.8550	48.7130
 0.8560	48.7160
 0.8570	48.7180
 0.8580	48.7170
 0.8590	48.7210
 0.8600	48.7270
 0.8610	48.7320
 0.8620	48.7320
 0.8630	48.7330
 0.8640	48.7370
 0.8650	48.7430
 0.8660	48.7520
 0.8670	48.7550
 0.8680	48.7570
 0.8690	48.7650
 0.8700	48.7700
 0.8710	48.7770
 0.8720	48.7850
 0.8730	48.7890
 0.8740	48.7950
 0.8750	48.8020
 0.8760	48.8090
 0.8770	48.8130
 0.8780	48.8150
 0.8790	48.8210
 0.8800	48.8310
 0.8810	48.8360
 0.8820	48.8430
 0.8830	48.8520
 0.8840	48.8600
 0.8850	48.8630
 0.8860	48.8720
 0.8870	48.8810
 0.8880	48.8830
 0.8890	48.8850
 0.8900	48.8930
 0.8910	48.9020
 0.8920	48.9060
 0.8930	48.9110
 0.8940	48.9210
 0.8950	48.9310
 0.8960	48.9300
 0.8970	48.9390
 0.8980	48.9460
 0.8990	48.9500
 0.9000	48.9620
 0.9010	48.9650
 0.9020	48.9720
 0.9030	48.9840
 0.9040	48.9880
 0.9050	49.0000
 0.9060	49.0070
 0.9070	49.0030
 0.9080	49.0110
 0.9090	49.0220
 0.9100	49.0300
 0.9110	49.0320
 0.9120	49.0420
 0.9130	49.0450
 0.9140	49.0460
 0.9150	49.0510
 0.9160	49.0540
 0.9170	49.0590
 0.9180	49.0610
 0.9190	49.0590
 0.9200	49.0770
 0.9210	49.0820
 0.9220	49.0720
 0.9230	49.0660
 0.9240	49.0690
 0.9250	49.0670
 0.9260	49.0610
 0.9270	49.0620
 0.9280	49.0480
 0.9290	49.0310
 0.9300	49.0190
 0.9310	49.0090
 0.9320	49.0120
 0.9330	48.9990
 0.9340	48.9700
 0.9350	48.9590
 0.9360	48.9580
 0.9370	48.9490
 0.9380	48.9250
 0.9390	48.8980
 0.9400	48.8760
 0.9410	48.8610
 0.9420	48.8420
 0.9430	48.7980
 0.9440	48.7750
 0.9450	48.7530
 0.9460	48.7150
 0.9470	48.6810
 0.9480	48.6540
 0.9490	48.6220
 0.9500	48.5770
 0.9510	48.5250
 0.9520	48.4830
 0.9530	48.4370
 0.9540	48.3750
 0.9550	48.3140
 0.9560	48.2640
 0.9570	48.2160
 0.9580	48.1600
 0.9590	48.1220
 0.9600	48.0760
 0.9610	48.0310
 0.9620	48.0000
 0.9630	47.9700
 0.9640	47.9440
 0.9650	47.9220
 0.9660	47.9000
 0.9670	47.8740
 0.9680	47.8590
 0.9690	47.8430
 0.9700	47.8120
 0.9710	47.8000
 0.9720	47.7960
 0.9730	47.7920
 0.9740	47.7830
 0.9750	47.7820
 0.9760	47.7730
 0.9770	47.7580
 0.9780	47.7490
 0.9790	47.7520
 0.9800	47.7600
 0.9810	47.7640
 0.9820	47.7590
 0.9830	47.7600
 0.9840	47.7670
 0.9850	47.7720
 0.9860	47.7680
 0.9870	47.7780
 0.9880	47.7960
 0.9890	47.8110
 0.9900	47.8160
 0.9910	47.8200
 0.9920	47.8300
 0.9930	47.8460
 0.9940	47.8620
 0.9950	47.8630
 0.9960	47.8810
 0.9970	47.9100
 0.9980	47.9260
 0.9990	47.9190
 1.0000	48.0770
 1.0010	48.3580
 1.0020	48.5110
 1.0030	48.5240
 1.0040	48.5470
 1.0050	48.5680
 1.0060	48.5810
 1.0070	48.5910
 1.0080	48.6050
 1.0090	48.6140
 1.0100	48.6270
 1.0110	48.6470
 1.0120	48.6620
 1.0130	48.6710
 1.0140	48.6840
 1.0150	48.6970
 1.0160	48.7100
 1.0170	48.7260
 1.0180	48.7420
 1.0190	48.7580
 1.0200	48.7740
 1.0210	48.7890
 1.0220	48.8040
 1.0230	48.8170
 1.0240	48.8280
 1.0250	48.8400
 1.0260	48.8520
 1.0270	48.8650
 1.0280	48.8800
 1.0290	48.8930
 1.0300	48.9060
 1.0310	48.9180
 1.0320	48.9270
 1.0330	48.9360
 1.0340	48.9470
 1.0350	48.9580
 1.0360	48.9690
 1.0370	48.9760
 1.0380	48.9840
 1.0390	48.9880
 1.0400	48.9950
 1.0410	49.0050
 1.0420	49.0140
 1.0430	49.0270
 1.0440	49.0340
 1.0450	49.0350
 1.0460	49.0410
 1.0470	49.0460
 1.0480	49.0520
 1.0490	49.0630
 1.0500	49.0710
 1.0510	49.0770
 1.0520	49.0820
 1.0530	49.0870
 1.0540	49.0890
 1.0550	49.0950
 1.0560	49.1030
 1.0570	49.1080
 1.0580	49.1160
 1.0590	49.1220
 1.0600	49.1270
 1.0610	49.1310
 1.0620	49.1370
 1.0630	49.1400
 1.0640	49.1390
 1.0650	49.1400
 1.0660	49.1420
 1.0670	49.1420
 1.0680	49.1430
 1.0690	49.1440
 1.0700	49.1440
 1.0710	49.1430
 1.0720	49.1440
 1.0730	49.1450
 1.0740	49.1450
 1.0750	49.1420
 1.0760	49.1410
 1.0770	49.1380
 1.0780	49.1360
 1.0790	49.1350
 1.0800	49.1340
 1.0810	49.1350
 1.0820	49.1330
 1.0830	49.1290
 1.0840	49.1250
 1.0850	49.1220
 1.0860	49.1170
 1.0870	49.1120
 1.0880	49.1080
 1.0890	49.1020
 1.0900	49.0930
 1.0910	49.0860
 1.0920	49.0790
 1.0930	49.0730
 1.0940	49.0670
 1.0950	49.0610
 1.0960	49.0570
 1.0970	49.0500
 1.0980	49.0410
 1.0990	49.0320
 1.1000	49.0190
 1.1010	49.0080
 1.1020	48.9990
 1.1030	48.9910
 1.1040	48.9790
 1.1050	48.9710
 1.1060	48.9590
 1.1070	48.9450
 1.1080	48.9310
 1.1090	48.9170
 1.1100	48.9030
 1.1110	48.8890
 1.1120	48.8740
 1.1130	48.8580
 1.1140	48.8420
 1.1150	48.8280
 1.1160	48.8100
 1.1170	48.7930
 1.1180	48.7720
 1.1190	48.7460
 1.1200	48.7200
 1.1210	48.6920
 1.1220	48.6600
 1.1230	48.6290
 1.1240	48.5970
 1.1250	48.5590
 1.1260	48.5210
 1.1270	48.4750
 1.1280	48.4230
 1.1290	48.3650
 1.1300	48.3000
 1.1310	48.2320
 1.1320	48.1590
 1.1330	48.0810
 1.1340	48.0020
 1.1350	47.9130
 1.1360	47.8190
 1.1370	47.7160
 1.1380	47.6080
 1.1390	47.4970
 1.1400	47.3830
 1.1410	47.2660
 1.1420	47.1460
 1.1430	47.0220
 1.1440	46.9000
 1.1450	46.7740
 1.1460	46.6510
 1.1470	46.5270
 1.1480	46.4100
 1.1490	46.2940
 1.1500	46.1850
 1.1510	46.0810
 1.1520	45.9850
 1.1530	45.8950
 1.1540	45.8130
 1.1550	45.7400
 1.1560	45.6740
 1.1570	45.6140
 1.1580	45.5610
 1.1590	45.5120
 1.1600	45.4710
 1.1610	45.4340
 1.1620	45.4000
 1.1630	45.3730
 1.1640	45.3510
 1.1650	45.3310
 1.1660	45.3140
 1.1670	45.2990
 1.1680	45.2840
 1.1690	45.2720
 1.1700	45.2620
 1.1710	45.2530
 1.1720	45.2470
 1.1730	45.2380
 1.1740	45.2290
 1.1750	45.2180
 1.1760	45.2060
 1.1770	45.1940
 1.1780	45.1830
 1.1790	45.1720
 1.1800	45.1620
 1.1810	45.1500
 1.1820	45.1360
 1.1830	45.1230
 1.1840	45.1110
 1.1850	45.0970
 1.1860	45.0860
 1.1870	45.0770
 1.1880	45.0670
 1.1890	45.0560
 1.1900	45.0490
 1.1910	45.0420
 1.1920	45.0360
 1.1930	45.0320
 1.1940	45.0300
 1.1950	45.0310
 1.1960	45.0320
 1.1970	45.0330
 1.1980	45.0340
 1.1990	45.0360
 1.2000	45.0410
 1.2010	45.0480
 1.2020	45.0570
 1.2030	45.0660
 1.2040	45.0760
 1.2050	45.0860
 1.2060	45.0980
 1.2070	45.1110
 1.2080	45.1230
 1.2090	45.1340
 1.2100	45.1460
 1.2110	45.1610
 1.2120	45.1790
 1.2130	45.1960
 1.2140	45.2140
 1.2150	45.2340
 1.2160	45.2530
 1.2170	45.2720
 1.2180	45.2940
 1.2190	45.3160
 1.2200	45.3360
 1.2210	45.3570
 1.2220	45.3770
 1.2230	45.3980
 1.2240	45.4230
 1.2250	45.4470
 1.2260	45.4690
 1.2270	45.4920
 1.2280	45.5110
 1.2290	45.5300
 1.2300	45.5490
 1.2310	45.5680
 1.2320	45.5850
 1.2330	45.6040
 1.2340	45.6220
 1.2350	45.6390
 1.2360	45.6550
 1.2370	45.6700
 1.2380	45.6830
 1.2390	45.6960
 1.2400	45.7110
 1.2410	45.7270
 1.2420	45.7420
 1.2430	45.7550
 1.2440	45.7680
 1.2450	45.7770
 1.2460	45.7880
 1.2470	45.7980
 1.2480	45.8070
 1.2490	45.8150
 1.2500	45.8220
 1.2510	45.8280
 1.2520	45.8350
 1.2530	45.8430
 1.2540	45.8490
 1.2550	45.8540
 1.2560	45.8570
 1.2570	45.8610
 1.2580	45.8620
 1.2590	45.8630
 1.2600	45.8640
 1.2610	45.8630
 1.2620	45.8610
 1.2630	45.8590
 1.2640	45.8580
 1.2650	45.8580
 1.2660	45.8580
 1.2670	45.8540
 1.2680	45.8500
 1.2690	45.8440
 1.2700	45.8330
 1.2710	45.8210
 1.2720	45.8110
 1.2730	45.8000
 1.2740	45.7900
 1.2750	45.7800
 1.2760	45.7690
 1.2770	45.7550
 1.2780	45.7400
 1.2790	45.7270
 1.2800	45.7140
 1.2810	45.7000
 1.2820	45.6840
 1.2830	45.6670
 1.2840	45.6470
 1.2850	45.6260
 1.2860	45.6040
 1.2870	45.5810
 1.2880	45.5550
 1.2890	45.5290
 1.2900	45.5010
 1.2910	45.4720
 1.2920	45.4430
 1.2930	45.4130
 1.2940	45.3790
 1.2950	45.3430
 1.2960	45.3040
 1.2970	45.2630
 1.2980	45.2210
 1.2990	45.1770
 1.3000	45.1310
 1.3010	45.0830
 1.3020	45.0320
 1.3030	44.9790
 1.3040	44.9240
 1.3050	44.8670
 1.3060	44.8090
 1.3070	44.7460
 1.3080	44.6810
 1.3090	44.6150
 1.3100	44.5460
 1.3110	44.4760
 1.3120	44.4010
 1.3130	44.3230
 1.3140	44.2410
 1.3150	44.1530
 1.3160	44.0650
 1.3170	43.9780
 1.3180	43.8860
 1.3190	43.7940
 1.3200	43.6970
 1.3210	43.5950
 1.3220	43.4910
 1.3230	43.3820
 1.3240	43.2710
 1.3250	43.1610
 1.3260	43.0470
 1.3270	42.9280
 1.3280	42.8090
 1.3290	42.6850
 1.3300	42.5580
 1.3310	42.4320
 1.3320	42.3050
 1.3330	42.1760
 1.3340	42.0450
 1.3350	41.9140
 1.3360	41.7810
 1.3370	41.6440
 1.3380	41.5080
 1.3390	41.3700
 1.3400	41.2320
 1.3410	41.0970
 1.3420	40.9620
 1.3430	40.8260
 1.3440	40.6920
 1.3450	40.5570
 1.3460	40.4220
 1.3470	40.2910
 1.3480	40.1620
 1.3490	40.0340
 1.3500	39.9080
 1.3510	39.7800
 1.3520	39.6510
 1.3530	39.5230
 1.3540	39.3940
 1.3550	39.2650
 1.3560	39.1370
 1.3570	39.0070
 1.3580	38.8790
 1.3590	38.7480
 1.3600	38.6130
 1.3610	38.4750
 1.3620	38.3320
 1.3630	38.1850
 1.3640	38.0330
 1.3650	37.8750
 1.3660	37.7110
 1.3670	37.5390
 1.3680	37.3570
 1.3690	37.1640
 1.3700	36.9590
 1.3710	36.7420
 1.3720	36.5110
 1.3730	36.2640
 1.3740	36.0040
 1.3750	35.7230
 1.3760	35.4230
 1.3770	35.1040
 1.3780	34.7600
 1.3790	34.3940
 1.3800	34.0060
 1.3810	33.5920
 1.3820	33.1620
 1.3830	32.7130
 1.3840	32.2440
 1.3850	31.7560
 1.3860	31.2520
 1.3870	30.7250
 1.3880	30.1920
 1.3890	29.6460
 1.3900	29.0890
 1.3910	28.5310
 1.3920	27.9660
 1.3930	27.3960
 1.3940	26.8290
 1.3950	26.2580
 1.3960	25.6920
 1.3970	25.1380
 1.3980	24.5910
 1.3990	24.0640
 1.4000	23.5510
 1.4010	23.0500
 1.4020	22.5710
 1.4030	22.1080
 1.4040	21.6650
 1.4050	21.2460
 1.4060	20.8470
 1.4070	20.4720
 1.4080	20.1200
 1.4090	19.7890
 1.4100	19.4810
 1.4110	19.1920
 1.4120	18.9240
 1.4130	18.6780
 1.4140	18.4500
 1.4150	18.2420
 1.4160	18.0530
 1.4170	17.8780
 1.4180	17.7190
 1.4190	17.5740
 1.4200	17.4430
 1.4210	17.3260
 1.4220	17.2200
 1.4230	17.1260
 1.4240	17.0420
 1.4250	16.9670
 1.4260	16.9020
 1.4270	16.8440
 1.4280	16.7950
 1.4290	16.7520
 1.4300	16.7180
 1.4310	16.6880
 1.4320	16.6660
 1.4330	16.6480
 1.4340	16.6350
 1.4350	16.6260
 1.4360	16.6230
 1.4370	16.6230
 1.4380	16.6260
 1.4390	16.6330
 1.4400	16.6420
 1.4410	16.6540
 1.4420	16.6700
 1.4430	16.6860
 1.4440	16.7040
 1.4450	16.7230
 1.4460	16.7440
 1.4470	16.7650
 1.4480	16.7880
 1.4490	16.8120
 1.4500	16.8380
 1.4510	16.8640
 1.4520	16.8920
 1.4530	16.9210
 1.4540	16.9510
 1.4550	16.9830
 1.4560	17.0160
 1.4570	17.0520
 1.4580	17.0900
 1.4590	17.1310
 1.4600	17.1770
 1.4610	17.2250
 1.4620	17.2780
 1.4630	17.3360
 1.4640	17.3970
 1.4650	17.4630
 1.4660	17.5330
 1.4670	17.6080
 1.4680	17.6880
 1.4690	17.7740
 1.4700	17.8640
