Name: Quercus agrifolia 3
Type: vegetation
Class: Tree
Genus: Quercus
Species: agrifolia
Sample No.: VH179
Owner: UCSB
Wavelength Range: TIR
Origin: 34.7165; -120.0603; WGS84
Collection Date: 6/9/2013
Description: Samples were collected as part of the HyspIRI Airborne Campaign. 48 individual plants were sampled in three times in 2013 - spring  summer  and fall. The name of the sample includes a 1  2  or 3 which references a different individual of the species. Samples were taken to JPL and processed within 48 hours of collection. The same leaves were processed in the Nicolet and then measured using the ASD.
Measurement: Hemispherical reflectance
First Column: X
Second Column: Y
X Units: Wavelength (micrometers)
Y Units: Reflectance (percentage)
First X Value: 2.501
Last X Value: 15.387
Number of X Values: 1737
Additional Information: vegetation.tree.quercus.agrifolia.tir.vh179.ucsb.nicolet.ancillary.txt

 2.5010	 7.0820
 2.5030	 6.9540
 2.5040	 7.1400
 2.5050	 7.2640
 2.5060	 7.2400
 2.5070	 7.0720
 2.5090	 7.1820
 2.5100	 7.2360
 2.5110	 7.1230
 2.5120	 7.0610
 2.5140	 7.1250
 2.5150	 7.0200
 2.5160	 7.1300
 2.5170	 7.1940
 2.5180	 7.1500
 2.5200	 7.0710
 2.5210	 7.0670
 2.5220	 6.9940
 2.5230	 7.0590
 2.5250	 7.1090
 2.5260	 7.1280
 2.5270	 7.0740
 2.5280	 7.0580
 2.5290	 7.0540
 2.5310	 7.0730
 2.5320	 6.9530
 2.5330	 7.0080
 2.5340	 6.9410
 2.5360	 6.9240
 2.5370	 7.0710
 2.5380	 7.0830
 2.5390	 7.0070
 2.5410	 7.1230
 2.5420	 7.1240
 2.5430	 7.1600
 2.5440	 7.2050
 2.5460	 7.3150
 2.5470	 7.2880
 2.5480	 7.2370
 2.5490	 7.1060
 2.5510	 7.0650
 2.5520	 7.0190
 2.5530	 7.0820
 2.5540	 7.0750
 2.5560	 7.1490
 2.5570	 7.0970
 2.5580	 7.0700
 2.5590	 7.0280
 2.5610	 7.0330
 2.5620	 6.9910
 2.5630	 7.1240
 2.5640	 7.1740
 2.5660	 7.1490
 2.5670	 7.0770
 2.5680	 7.1530
 2.5700	 7.1560
 2.5710	 7.2210
 2.5720	 7.2540
 2.5730	 7.2670
 2.5750	 7.0610
 2.5760	 6.9970
 2.5770	 6.8910
 2.5790	 6.9900
 2.5800	 7.1490
 2.5810	 7.2380
 2.5820	 7.1470
 2.5840	 7.1360
 2.5850	 7.1710
 2.5860	 7.1160
 2.5880	 6.9770
 2.5890	 7.0200
 2.5900	 6.9940
 2.5910	 7.0510
 2.5930	 7.1210
 2.5940	 7.1420
 2.5950	 7.0550
 2.5970	 7.1420
 2.5980	 7.1130
 2.5990	 7.0580
 2.6000	 6.9670
 2.6020	 7.0600
 2.6030	 7.1050
 2.6040	 7.1180
 2.6060	 7.1140
 2.6070	 7.1120
 2.6080	 7.0030
 2.6100	 6.9630
 2.6110	 7.0130
 2.6120	 7.1020
 2.6140	 7.0270
 2.6150	 6.8750
 2.6160	 6.6580
 2.6180	 6.7270
 2.6190	 6.8190
 2.6200	 6.8430
 2.6220	 6.8800
 2.6230	 6.9230
 2.6240	 6.8070
 2.6260	 6.7670
 2.6270	 6.6630
 2.6280	 6.6880
 2.6300	 6.7130
 2.6310	 6.6950
 2.6320	 6.6200
 2.6340	 6.7020
 2.6350	 6.7430
 2.6360	 6.8230
 2.6380	 6.7980
 2.6390	 6.7980
 2.6400	 6.8350
 2.6420	 6.7820
 2.6430	 6.6230
 2.6440	 6.6410
 2.6460	 6.5820
 2.6470	 6.5490
 2.6480	 6.5870
 2.6500	 6.6430
 2.6510	 6.4780
 2.6520	 6.5590
 2.6540	 6.6030
 2.6550	 6.4290
 2.6560	 6.3770
 2.6580	 6.5010
 2.6590	 6.3880
 2.6610	 6.4360
 2.6620	 6.3350
 2.6630	 6.4140
 2.6650	 6.4260
 2.6660	 6.4090
 2.6670	 6.3600
 2.6690	 6.2760
 2.6700	 6.1310
 2.6720	 6.2150
 2.6730	 6.2110
 2.6740	 6.2880
 2.6760	 6.2670
 2.6770	 6.2810
 2.6780	 6.2580
 2.6800	 6.1390
 2.6810	 6.0580
 2.6830	 6.1310
 2.6840	 6.0400
 2.6850	 6.0370
 2.6870	 6.0580
 2.6880	 6.0860
 2.6900	 5.9880
 2.6910	 5.9980
 2.6920	 6.0930
 2.6940	 6.1630
 2.6950	 6.0040
 2.6970	 6.0450
 2.6980	 6.0080
 2.6990	 5.9500
 2.7010	 5.7910
 2.7020	 5.7400
 2.7040	 5.8570
 2.7050	 5.9300
 2.7060	 5.7890
 2.7080	 5.7750
 2.7090	 5.7850
 2.7110	 5.8740
 2.7120	 5.8440
 2.7130	 5.7360
 2.7150	 5.6550
 2.7160	 5.7570
 2.7180	 5.7740
 2.7190	 5.7390
 2.7210	 5.5870
 2.7220	 5.6000
 2.7230	 5.6530
 2.7250	 5.6760
 2.7260	 5.6360
 2.7280	 5.7650
 2.7290	 5.6450
 2.7310	 5.5320
 2.7320	 5.5110
 2.7330	 5.5270
 2.7350	 5.5930
 2.7360	 5.5530
 2.7380	 5.3870
 2.7390	 5.3600
 2.7410	 5.4800
 2.7420	 5.6940
 2.7440	 5.7310
 2.7450	 5.6820
 2.7470	 5.3840
 2.7480	 5.2650
 2.7490	 5.4440
 2.7510	 5.6820
 2.7520	 5.5540
 2.7540	 5.9120
 2.7550	 5.9980
 2.7570	 5.7420
 2.7580	 5.4560
 2.7600	 5.3340
 2.7610	 5.4520
 2.7630	 5.5210
 2.7640	 5.4250
 2.7660	 5.6170
 2.7670	 5.7830
 2.7680	 5.6760
 2.7700	 5.4010
 2.7710	 5.4190
 2.7730	 5.5310
 2.7740	 5.7220
 2.7760	 5.7180
 2.7770	 5.5920
 2.7790	 5.3540
 2.7800	 5.5450
 2.7820	 5.6120
 2.7830	 5.5960
 2.7850	 5.6410
 2.7860	 5.6540
 2.7880	 5.4150
 2.7890	 5.4810
 2.7910	 5.6850
 2.7920	 5.7070
 2.7940	 5.4010
 2.7950	 5.4240
 2.7970	 5.4910
 2.7980	 5.6310
 2.8000	 5.6380
 2.8010	 5.6470
 2.8030	 5.4490
 2.8040	 5.4100
 2.8060	 5.4750
 2.8070	 5.6300
 2.8090	 5.6350
 2.8110	 5.7210
 2.8120	 5.6730
 2.8140	 5.5940
 2.8150	 5.4970
 2.8170	 5.4680
 2.8180	 5.5030
 2.8200	 5.6860
 2.8210	 5.5890
 2.8230	 5.6170
 2.8240	 5.5240
 2.8260	 5.5570
 2.8270	 5.5900
 2.8290	 5.7870
 2.8300	 5.5520
 2.8320	 5.5310
 2.8340	 5.5360
 2.8350	 5.5270
 2.8370	 5.5010
 2.8380	 5.4910
 2.8400	 5.4020
 2.8410	 5.4030
 2.8430	 5.4560
 2.8440	 5.4860
 2.8460	 5.4490
 2.8480	 5.4150
 2.8490	 5.3840
 2.8510	 5.4560
 2.8520	 5.5000
 2.8540	 5.6040
 2.8550	 5.4900
 2.8570	 5.4940
 2.8590	 5.5380
 2.8600	 5.5610
 2.8620	 5.5000
 2.8630	 5.6080
 2.8650	 5.6570
 2.8660	 5.6620
 2.8680	 5.5940
 2.8700	 5.6060
 2.8710	 5.6430
 2.8730	 5.7240
 2.8740	 5.8290
 2.8760	 5.9480
 2.8780	 5.6750
 2.8790	 5.6070
 2.8810	 5.5990
 2.8820	 5.6500
 2.8840	 5.7660
 2.8860	 5.7930
 2.8870	 5.8300
 2.8890	 5.8790
 2.8900	 5.6690
 2.8920	 5.5060
 2.8940	 5.5300
 2.8950	 5.5940
 2.8970	 5.6770
 2.8980	 5.7640
 2.9000	 5.7100
 2.9020	 5.6140
 2.9030	 5.5560
 2.9050	 5.6510
 2.9070	 5.6160
 2.9080	 5.6710
 2.9100	 5.7310
 2.9120	 5.6210
 2.9130	 5.5410
 2.9150	 5.6170
 2.9160	 5.5900
 2.9180	 5.6410
 2.9200	 5.6120
 2.9210	 5.6100
 2.9230	 5.6300
 2.9250	 5.6500
 2.9260	 5.6630
 2.9280	 5.6280
 2.9300	 5.4720
 2.9310	 5.5390
 2.9330	 5.5470
 2.9350	 5.5200
 2.9360	 5.4530
 2.9380	 5.4370
 2.9400	 5.5250
 2.9410	 5.6620
 2.9430	 5.6930
 2.9450	 5.6340
 2.9460	 5.5050
 2.9480	 5.5210
 2.9500	 5.6090
 2.9510	 5.7170
 2.9530	 5.3020
 2.9550	 5.0390
 2.9560	 5.1560
 2.9580	 5.5550
 2.9600	 5.6470
 2.9610	 5.8900
 2.9630	 6.2720
 2.9650	 5.8630
 2.9660	 5.7470
 2.9680	 5.9680
 2.9700	 6.0650
 2.9720	 5.8340
 2.9730	 6.0810
 2.9750	 6.6280
 2.9770	 6.2590
 2.9780	 5.8640
 2.9800	 5.7340
 2.9820	 5.6680
 2.9840	 5.2930
 2.9850	 5.4230
 2.9870	 5.2270
 2.9890	 5.1080
 2.9900	 6.2700
 2.9920	 7.3290
 2.9940	 6.8640
 2.9960	 7.1010
 2.9970	 7.4360
 2.9990	 6.6190
 3.0010	 5.8760
 3.0030	 5.5980
 3.0040	 5.2890
 3.0060	 5.3370
 3.0080	 5.7780
 3.0100	 6.2810
 3.0110	 6.8110
 3.0130	 6.6240
 3.0150	 5.5400
 3.0170	 5.4030
 3.0180	 5.4400
 3.0200	 4.8650
 3.0220	 4.8350
 3.0240	 5.3770
 3.0250	 5.5560
 3.0270	 5.6930
 3.0290	 5.4720
 3.0310	 5.4120
 3.0320	 5.6370
 3.0340	 6.5080
 3.0360	 5.9610
 3.0380	 5.5710
 3.0400	 5.9870
 3.0410	 6.6980
 3.0430	 5.7960
 3.0450	 3.7560
 3.0470	 4.8350
 3.0480	 6.2050
 3.0500	 5.9190
 3.0520	 5.0840
 3.0540	 4.3790
 3.0560	 4.7820
 3.0570	 5.0850
 3.0590	 4.1660
 3.0610	 5.1160
 3.0630	 6.4270
 3.0650	 6.2150
 3.0660	 6.1540
 3.0680	 6.6730
 3.0700	 6.9350
 3.0720	 6.0770
 3.0740	 5.8640
 3.0760	 5.6850
 3.0770	 5.6510
 3.0790	 5.7970
 3.0810	 6.0090
 3.0830	 5.8040
 3.0850	 5.6000
 3.0870	 5.6070
 3.0880	 5.6410
 3.0900	 5.5750
 3.0920	 5.6020
 3.0940	 5.5160
 3.0960	 5.5710
 3.0980	 5.5330
 3.0990	 5.4640
 3.1010	 5.4270
 3.1030	 5.8160
 3.1050	 5.8410
 3.1070	 5.6020
 3.1090	 5.6170
 3.1110	 5.6170
 3.1120	 5.4120
 3.1140	 5.3010
 3.1160	 5.4920
 3.1180	 5.4360
 3.1200	 5.2070
 3.1220	 5.0550
 3.1240	 5.0920
 3.1260	 5.2840
 3.1270	 5.5580
 3.1290	 6.0560
 3.1310	 6.0230
 3.1330	 5.7790
 3.1350	 5.7740
 3.1370	 5.2990
 3.1390	 5.3170
 3.1410	 5.2170
 3.1430	 4.9720
 3.1450	 6.3130
 3.1460	 6.4910
 3.1480	 5.3220
 3.1500	 5.3070
 3.1520	 5.6010
 3.1540	 5.3390
 3.1560	 5.3060
 3.1580	 5.7140
 3.1600	 5.3350
 3.1620	 5.2320
 3.1640	 6.1240
 3.1660	 6.2850
 3.1680	 5.0240
 3.1700	 4.9370
 3.1710	 6.4160
 3.1730	 6.8180
 3.1750	 5.3770
 3.1770	 4.1950
 3.1790	 5.1970
 3.1810	 5.1130
 3.1830	 4.3480
 3.1850	 4.4080
 3.1870	 5.0450
 3.1890	 5.3650
 3.1910	 5.5240
 3.1930	 5.5910
 3.1950	 5.3640
 3.1970	 5.0460
 3.1990	 5.2000
 3.2010	 5.4160
 3.2030	 5.5620
 3.2050	 5.5640
 3.2070	 5.6360
 3.2090	 5.5910
 3.2110	 5.7290
 3.2130	 5.7060
 3.2150	 5.5930
 3.2170	 5.5880
 3.2190	 5.6090
 3.2210	 5.4860
 3.2230	 5.4110
 3.2250	 5.4930
 3.2270	 5.6550
 3.2290	 5.4840
 3.2310	 5.6010
 3.2330	 5.7200
 3.2350	 5.5260
 3.2370	 5.3780
 3.2390	 5.5270
 3.2410	 5.6250
 3.2430	 5.6070
 3.2450	 5.6320
 3.2470	 5.6400
 3.2490	 5.3960
 3.2510	 5.2860
 3.2530	 5.3040
 3.2550	 5.3870
 3.2570	 5.3340
 3.2590	 5.5040
 3.2610	 5.4520
 3.2630	 5.4190
 3.2650	 5.4340
 3.2670	 5.7090
 3.2690	 5.3870
 3.2720	 5.0520
 3.2740	 4.8800
 3.2760	 5.0130
 3.2780	 5.2770
 3.2800	 5.3480
 3.2820	 5.3420
 3.2840	 5.3830
 3.2860	 5.3630
 3.2880	 5.4790
 3.2900	 5.5650
 3.2920	 5.4870
 3.2940	 5.2980
 3.2960	 5.2180
 3.2990	 5.2010
 3.3010	 5.3460
 3.3030	 5.4010
 3.3050	 5.2690
 3.3070	 5.0360
 3.3090	 5.0520
 3.3110	 5.2580
 3.3130	 5.2900
 3.3150	 5.3260
 3.3180	 5.4260
 3.3200	 5.4660
 3.3220	 5.3460
 3.3240	 5.2340
 3.3260	 5.2330
 3.3280	 5.3190
 3.3300	 5.3490
 3.3330	 5.2020
 3.3350	 5.2300
 3.3370	 5.1660
 3.3390	 5.1420
 3.3410	 5.0560
 3.3430	 5.0560
 3.3450	 5.0240
 3.3480	 4.9780
 3.3500	 5.0020
 3.3520	 4.9880
 3.3540	 4.9760
 3.3560	 5.0570
 3.3580	 4.9310
 3.3610	 4.8690
 3.3630	 4.9320
 3.3650	 4.9560
 3.3670	 4.7390
 3.3690	 4.7920
 3.3720	 4.8360
 3.3740	 4.9770
 3.3760	 4.9680
 3.3780	 4.9270
 3.3800	 4.8570
 3.3830	 4.7790
 3.3850	 4.7820
 3.3870	 5.0080
 3.3890	 4.8360
 3.3910	 4.6220
 3.3940	 4.7770
 3.3960	 4.8430
 3.3980	 4.5630
 3.4000	 4.4450
 3.4020	 4.5670
 3.4050	 4.6550
 3.4070	 4.4450
 3.4090	 4.5100
 3.4110	 4.4760
 3.4140	 4.4120
 3.4160	 4.5050
 3.4180	 4.7830
 3.4200	 5.1410
 3.4230	 5.7090
 3.4250	 6.6810
 3.4270	 7.8380
 3.4290	 8.6320
 3.4320	 8.9740
 3.4340	 8.7210
 3.4360	 8.2300
 3.4390	 7.7450
 3.4410	 7.4380
 3.4430	 7.1540
 3.4450	 6.9940
 3.4480	 6.7880
 3.4500	 6.7320
 3.4520	 6.6060
 3.4550	 6.4470
 3.4570	 6.6050
 3.4590	 6.7230
 3.4620	 6.5150
 3.4640	 6.4540
 3.4660	 6.4180
 3.4680	 6.3170
 3.4710	 6.2430
 3.4730	 6.2100
 3.4750	 6.0820
 3.4780	 6.1610
 3.4800	 6.1850
 3.4820	 6.0460
 3.4850	 5.7530
 3.4870	 5.7770
 3.4890	 5.8570
 3.4920	 5.8710
 3.4940	 5.7650
 3.4970	 5.5840
 3.4990	 5.4070
 3.5010	 5.3530
 3.5040	 5.2440
 3.5060	 5.5280
 3.5080	 6.6460
 3.5110	 8.0530
 3.5130	 8.4960
 3.5160	 8.3000
 3.5180	 8.0200
 3.5200	 7.6780
 3.5230	 7.3550
 3.5250	 7.1700
 3.5270	 7.0340
 3.5300	 6.9250
 3.5320	 6.8040
 3.5350	 6.7960
 3.5370	 6.7390
 3.5400	 6.7160
 3.5420	 6.6770
 3.5440	 6.6070
 3.5470	 6.5990
 3.5490	 6.6260
 3.5520	 6.5140
 3.5540	 6.4450
 3.5570	 6.4610
 3.5590	 6.5250
 3.5610	 6.3950
 3.5640	 6.3640
 3.5660	 6.3130
 3.5690	 6.3860
 3.5710	 6.4700
 3.5740	 6.3440
 3.5760	 6.2180
 3.5790	 6.2070
 3.5810	 6.2380
 3.5840	 6.2770
 3.5860	 6.3470
 3.5890	 6.3310
 3.5910	 6.2040
 3.5930	 6.2690
 3.5960	 6.3760
 3.5980	 6.3580
 3.6010	 6.1380
 3.6030	 6.3060
 3.6060	 6.4640
 3.6080	 6.2850
 3.6110	 6.1180
 3.6140	 6.0970
 3.6160	 6.1310
 3.6190	 6.2510
 3.6210	 6.2500
 3.6240	 6.2680
 3.6260	 6.2100
 3.6290	 6.1490
 3.6310	 6.0770
 3.6340	 6.0510
 3.6360	 6.0330
 3.6390	 6.1190
 3.6410	 6.2450
 3.6440	 6.1540
 3.6470	 5.9970
 3.6490	 6.0840
 3.6520	 6.1430
 3.6540	 6.1890
 3.6570	 6.1090
 3.6590	 6.0540
 3.6620	 6.1240
 3.6650	 6.1210
 3.6670	 6.0530
 3.6700	 6.0770
 3.6720	 6.0710
 3.6750	 6.1000
 3.6780	 6.0780
 3.6800	 6.0600
 3.6830	 6.0200
 3.6850	 6.0530
 3.6880	 6.0690
 3.6910	 6.0870
 3.6930	 6.0580
 3.6960	 6.0390
 3.6990	 6.0260
 3.7010	 6.0280
 3.7040	 5.9760
 3.7060	 6.0560
 3.7090	 6.1460
 3.7120	 6.1500
 3.7140	 6.0320
 3.7170	 6.0950
 3.7200	 6.0760
 3.7220	 6.0510
 3.7250	 6.1090
 3.7280	 6.1110
 3.7300	 6.0550
 3.7330	 6.1100
 3.7360	 6.0180
 3.7390	 5.9840
 3.7410	 6.0040
 3.7440	 5.9830
 3.7470	 5.9410
 3.7490	 6.0260
 3.7520	 6.0730
 3.7550	 6.0400
 3.7580	 6.0720
 3.7600	 6.1610
 3.7630	 6.2000
 3.7660	 6.2060
 3.7680	 5.9630
 3.7710	 5.9280
 3.7740	 6.0250
 3.7770	 6.0660
 3.7790	 5.9740
 3.7820	 5.9870
 3.7850	 6.0120
 3.7880	 6.0310
 3.7900	 6.0680
 3.7930	 6.1380
 3.7960	 6.0980
 3.7990	 6.0770
 3.8020	 6.0330
 3.8040	 5.9800
 3.8070	 5.9910
 3.8100	 6.0350
 3.8130	 6.0260
 3.8160	 6.0680
 3.8180	 6.0570
 3.8210	 5.9940
 3.8240	 5.9030
 3.8270	 5.9230
 3.8300	 5.9270
 3.8330	 6.0760
 3.8350	 6.2010
 3.8380	 6.1810
 3.8410	 6.0790
 3.8440	 6.1150
 3.8470	 6.0550
 3.8500	 5.9220
 3.8520	 5.9780
 3.8550	 6.0730
 3.8580	 6.0680
 3.8610	 6.0720
 3.8640	 6.0540
 3.8670	 6.0650
 3.8700	 6.0610
 3.8730	 6.0460
 3.8750	 6.0080
 3.8780	 5.9820
 3.8810	 6.0220
 3.8840	 6.1250
 3.8870	 6.1150
 3.8900	 6.1680
 3.8930	 6.1420
 3.8960	 6.1080
 3.8990	 6.1660
 3.9020	 6.1590
 3.9050	 6.0560
 3.9080	 6.0510
 3.9110	 6.0410
 3.9140	 6.0190
 3.9160	 5.9980
 3.9190	 6.0210
 3.9220	 6.0260
 3.9250	 6.0460
 3.9280	 6.0150
 3.9310	 6.0450
 3.9340	 6.0990
 3.9370	 6.1000
 3.9400	 6.0920
 3.9430	 6.1370
 3.9460	 6.0970
 3.9490	 6.1140
 3.9520	 6.0750
 3.9550	 6.0340
 3.9580	 6.0960
 3.9610	 6.1760
 3.9640	 6.0790
 3.9670	 6.0610
 3.9700	 6.1000
 3.9730	 6.1490
 3.9770	 6.1430
 3.9800	 6.1060
 3.9830	 6.0690
 3.9860	 6.0960
 3.9890	 6.0960
 3.9920	 6.1240
 3.9950	 6.0160
 3.9980	 6.0020
 4.0010	 6.0640
 4.0040	 6.0620
 4.0070	 6.0320
 4.0100	 6.0310
 4.0130	 6.0320
 4.0170	 6.0340
 4.0200	 5.9960
 4.0230	 6.0460
 4.0260	 6.1040
 4.0290	 6.1120
 4.0320	 6.0460
 4.0350	 6.0500
 4.0380	 6.0270
 4.0420	 6.0220
 4.0450	 6.0500
 4.0480	 6.0930
 4.0510	 6.1240
 4.0540	 6.1150
 4.0570	 6.0180
 4.0610	 6.0670
 4.0640	 6.1010
 4.0670	 6.0340
 4.0700	 6.0390
 4.0730	 6.0870
 4.0770	 6.0620
 4.0800	 5.9790
 4.0830	 5.9900
 4.0860	 6.1510
 4.0890	 6.1960
 4.0930	 6.1500
 4.0960	 6.0990
 4.0990	 6.1230
 4.1020	 6.1330
 4.1060	 6.1310
 4.1090	 6.0490
 4.1120	 6.1010
 4.1150	 6.0340
 4.1190	 6.1220
 4.1220	 6.1740
 4.1250	 6.0980
 4.1280	 6.0890
 4.1320	 6.1360
 4.1350	 6.1050
 4.1380	 6.0260
 4.1420	 5.9370
 4.1450	 6.0050
 4.1480	 6.0570
 4.1520	 6.1510
 4.1550	 6.1560
 4.1580	 6.1590
 4.1620	 6.1480
 4.1650	 6.1180
 4.1680	 6.0150
 4.1720	 5.9930
 4.1750	 6.0420
 4.1780	 6.0530
 4.1820	 6.0920
 4.1850	 6.1220
 4.1890	 6.1080
 4.1920	 6.1030
 4.1950	 6.0160
 4.1990	 5.9520
 4.2020	 5.9480
 4.2060	 5.9160
 4.2090	 5.8390
 4.2120	 5.8220
 4.2160	 5.9190
 4.2190	 5.9930
 4.2230	 5.7500
 4.2260	 5.5030
 4.2300	 5.5320
 4.2330	 5.6880
 4.2360	 5.5820
 4.2400	 5.4690
 4.2430	 5.4610
 4.2470	 5.5420
 4.2500	 5.6530
 4.2540	 5.7750
 4.2570	 5.8260
 4.2610	 5.8700
 4.2640	 5.8140
 4.2680	 5.9260
 4.2710	 5.6570
 4.2750	 5.6420
 4.2780	 5.6870
 4.2820	 5.6280
 4.2850	 5.6180
 4.2890	 5.5340
 4.2930	 5.5950
 4.2960	 5.8010
 4.3000	 5.8500
 4.3030	 5.8440
 4.3070	 5.8580
 4.3100	 5.9490
 4.3140	 5.9800
 4.3180	 5.8890
 4.3210	 5.8630
 4.3250	 5.8490
 4.3280	 5.8690
 4.3320	 5.9000
 4.3360	 5.8940
 4.3390	 5.9200
 4.3430	 5.9740
 4.3470	 6.0220
 4.3500	 5.9800
 4.3540	 5.9160
 4.3570	 5.8760
 4.3610	 5.9130
 4.3650	 5.9680
 4.3680	 6.0060
 4.3720	 5.9610
 4.3760	 5.9580
 4.3800	 5.9290
 4.3830	 5.9580
 4.3870	 6.0590
 4.3910	 6.0850
 4.3940	 6.0120
 4.3980	 5.9840
 4.4020	 6.0250
 4.4060	 6.0620
 4.4090	 6.0160
 4.4130	 5.9940
 4.4170	 5.9790
 4.4210	 5.9270
 4.4240	 5.9610
 4.4280	 6.0000
 4.4320	 6.0060
 4.4360	 6.0390
 4.4400	 6.0700
 4.4430	 6.0280
 4.4470	 5.9620
 4.4510	 6.0280
 4.4550	 6.0500
 4.4590	 6.0550
 4.4620	 6.0030
 4.4660	 5.9310
 4.4700	 5.9460
 4.4740	 5.9480
 4.4780	 5.9640
 4.4820	 5.9900
 4.4860	 5.9640
 4.4900	 5.9050
 4.4930	 5.8980
 4.4970	 5.9760
 4.5010	 6.0200
 4.5050	 6.0310
 4.5090	 6.0030
 4.5130	 5.9780
 4.5170	 5.9830
 4.5210	 6.0090
 4.5250	 6.0120
 4.5290	 5.9820
 4.5330	 5.9720
 4.5370	 5.9720
 4.5410	 5.9720
 4.5450	 5.9750
 4.5490	 5.9900
 4.5530	 5.9880
 4.5570	 5.8970
 4.5610	 5.9150
 4.5650	 5.9760
 4.5690	 6.0290
 4.5730	 6.0500
 4.5770	 5.9780
 4.5810	 5.9710
 4.5850	 6.0560
 4.5890	 6.0130
 4.5930	 5.9710
 4.5970	 6.0200
 4.6010	 6.1550
 4.6050	 6.1540
 4.6090	 5.9470
 4.6130	 5.8920
 4.6170	 5.9030
 4.6220	 5.9630
 4.6260	 6.1120
 4.6300	 6.0120
 4.6340	 5.8960
 4.6380	 5.8990
 4.6420	 5.9170
 4.6460	 5.9380
 4.6510	 5.9660
 4.6550	 5.9620
 4.6590	 5.9860
 4.6630	 5.9790
 4.6670	 5.9370
 4.6720	 5.9120
 4.6760	 5.9600
 4.6800	 6.0240
 4.6840	 5.9920
 4.6880	 5.9330
 4.6930	 5.8980
 4.6970	 5.9050
 4.7010	 5.8940
 4.7050	 5.9190
 4.7100	 5.9570
 4.7140	 5.8850
 4.7180	 5.8360
 4.7230	 5.8390
 4.7270	 5.8300
 4.7310	 5.8940
 4.7360	 5.9310
 4.7400	 5.9570
 4.7440	 5.9610
 4.7490	 5.9320
 4.7530	 5.9400
 4.7570	 5.9990
 4.7620	 5.9690
 4.7660	 5.8980
 4.7700	 5.8820
 4.7750	 5.8190
 4.7790	 5.7320
 4.7840	 5.9300
 4.7880	 6.1210
 4.7920	 5.9360
 4.7970	 5.8430
 4.8010	 5.8460
 4.8060	 5.8790
 4.8100	 5.9690
 4.8150	 5.9690
 4.8190	 5.9560
 4.8240	 5.9170
 4.8280	 5.8850
 4.8330	 5.8680
 4.8370	 5.8490
 4.8420	 5.9290
 4.8460	 6.0120
 4.8510	 5.9720
 4.8550	 5.9290
 4.8600	 5.9510
 4.8640	 6.0000
 4.8690	 5.9180
 4.8730	 5.8900
 4.8780	 5.9590
 4.8830	 5.9770
 4.8870	 5.9750
 4.8920	 5.9680
 4.8960	 5.9040
 4.9010	 5.9030
 4.9060	 5.9140
 4.9100	 5.9530
 4.9150	 5.9560
 4.9200	 5.9840
 4.9240	 6.0170
 4.9290	 5.9580
 4.9340	 5.9750
 4.9380	 6.0450
 4.9430	 6.0010
 4.9480	 5.9950
 4.9530	 5.9880
 4.9570	 5.9500
 4.9620	 5.9550
 4.9670	 6.0060
 4.9720	 6.0130
 4.9760	 6.0460
 4.9810	 6.0110
 4.9860	 5.9610
 4.9910	 5.9740
 4.9960	 5.9830
 5.0000	 6.0130
 5.0050	 6.0090
 5.0100	 5.9580
 5.0150	 5.9320
 5.0200	 5.9550
 5.0250	 6.0070
 5.0290	 6.0280
 5.0340	 6.0360
 5.0390	 6.0340
 5.0440	 6.0210
 5.0490	 5.9700
 5.0540	 6.0270
 5.0590	 6.0660
 5.0640	 6.0640
 5.0690	 6.0450
 5.0740	 6.0270
 5.0790	 6.0010
 5.0840	 6.0120
 5.0890	 6.0130
 5.0940	 6.0270
 5.0990	 6.0550
 5.1040	 6.1100
 5.1090	 6.1000
 5.1140	 6.0690
 5.1190	 6.0370
 5.1240	 6.0510
 5.1290	 6.0410
 5.1340	 6.0070
 5.1390	 5.9750
 5.1440	 5.9590
 5.1490	 5.9960
 5.1540	 6.1130
 5.1600	 6.0810
 5.1650	 5.9750
 5.1700	 5.9300
 5.1750	 5.9960
 5.1800	 6.0080
 5.1850	 6.0010
 5.1910	 5.9870
 5.1960	 5.9840
 5.2010	 5.9720
 5.2060	 6.0070
 5.2110	 6.0110
 5.2170	 6.0180
 5.2220	 6.0230
 5.2270	 6.0310
 5.2320	 5.9820
 5.2380	 5.9470
 5.2430	 5.9680
 5.2480	 5.9740
 5.2540	 5.9050
 5.2590	 5.9230
 5.2640	 5.9680
 5.2700	 6.0240
 5.2750	 6.0360
 5.2800	 6.0310
 5.2860	 5.9690
 5.2910	 5.9900
 5.2970	 6.0040
 5.3020	 5.9850
 5.3070	 6.0230
 5.3130	 6.0720
 5.3180	 5.9930
 5.3240	 5.9690
 5.3290	 5.9850
 5.3350	 6.0110
 5.3400	 6.0140
 5.3460	 6.0310
 5.3510	 6.0110
 5.3570	 5.9800
 5.3620	 5.9820
 5.3680	 6.0260
 5.3730	 6.0420
 5.3790	 6.0240
 5.3850	 5.9730
 5.3900	 5.9910
 5.3960	 5.9940
 5.4010	 6.0320
 5.4070	 5.9970
 5.4130	 5.9560
 5.4180	 5.9270
 5.4240	 5.9570
 5.4300	 5.9290
 5.4350	 5.8940
 5.4410	 5.8890
