Name: Quercus lobata 2
Type: vegetation
Class: Tree
Genus: Quercus
Species: lobata
Sample No.: VH184
Owner: UCSB
Wavelength Range: VSWIR
Origin: 34.7146; -120.0588; WGS84
Collection Date: 6/9/2013
Description: Samples were collected as part of the HyspIRI Airborne Campaign. 48 individual plants were sampled in three times in 2013 - spring  summer  and fall. The name of the sample includes a 1  2  or 3 which references a different individual of the species. Samples were taken to JPL and processed within 48 hours of collection. The same leaves were processed in the Nicolet and then measured using the ASD.
Measurement: Bidirectional reflectance
First Column: X
Second Column: Y
X Units: Wavelength (micrometers)
Y Units: Reflectance (percentage)
First X Value: 0.35
Last X Value: 2.5
Number of X Values: 2151
Additional Information: vegetation.tree.quercus.lobata.vswir.vh184.ucsb.asd.ancillary.txt

 0.3500	 3.8060
 0.3510	 3.9340
 0.3520	 3.8260
 0.3530	 3.7310
 0.3540	 3.8380
 0.3550	 3.8710
 0.3560	 3.7870
 0.3570	 3.6960
 0.3580	 3.7520
 0.3590	 3.8390
 0.3600	 3.9330
 0.3610	 3.9910
 0.3620	 3.9310
 0.3630	 3.7180
 0.3640	 3.6230
 0.3650	 3.8240
 0.3660	 3.9120
 0.3670	 3.8870
 0.3680	 3.8510
 0.3690	 3.9410
 0.3700	 3.9410
 0.3710	 3.8860
 0.3720	 3.8450
 0.3730	 3.9310
 0.3740	 3.9560
 0.3750	 3.9470
 0.3760	 3.9660
 0.3770	 3.9560
 0.3780	 3.9340
 0.3790	 3.9230
 0.3800	 3.9430
 0.3810	 3.9920
 0.3820	 3.9790
 0.3830	 3.9010
 0.3840	 4.0140
 0.3850	 4.1020
 0.3860	 4.1160
 0.3870	 4.0880
 0.3880	 4.1390
 0.3890	 4.2250
 0.3900	 4.2890
 0.3910	 4.2620
 0.3920	 4.2430
 0.3930	 4.2400
 0.3940	 4.2510
 0.3950	 4.2890
 0.3960	 4.3490
 0.3970	 4.4240
 0.3980	 4.5030
 0.3990	 4.5570
 0.4000	 4.5660
 0.4010	 4.5690
 0.4020	 4.6710
 0.4030	 4.7310
 0.4040	 4.7640
 0.4050	 4.8140
 0.4060	 4.8740
 0.4070	 4.9430
 0.4080	 5.0060
 0.4090	 5.0520
 0.4100	 5.1190
 0.4110	 5.2060
 0.4120	 5.2960
 0.4130	 5.3420
 0.4140	 5.3910
 0.4150	 5.4650
 0.4160	 5.5650
 0.4170	 5.6310
 0.4180	 5.6730
 0.4190	 5.7140
 0.4200	 5.7780
 0.4210	 5.8360
 0.4220	 5.8860
 0.4230	 5.9440
 0.4240	 6.0240
 0.4250	 6.0760
 0.4260	 6.1130
 0.4270	 6.1700
 0.4280	 6.2250
 0.4290	 6.2730
 0.4300	 6.3120
 0.4310	 6.3750
 0.4320	 6.3980
 0.4330	 6.4140
 0.4340	 6.4500
 0.4350	 6.4890
 0.4360	 6.5210
 0.4370	 6.5400
 0.4380	 6.5600
 0.4390	 6.5980
 0.4400	 6.6260
 0.4410	 6.6320
 0.4420	 6.6580
 0.4430	 6.6820
 0.4440	 6.7010
 0.4450	 6.7280
 0.4460	 6.7520
 0.4470	 6.7720
 0.4480	 6.7880
 0.4490	 6.8060
 0.4500	 6.8290
 0.4510	 6.8480
 0.4520	 6.8560
 0.4530	 6.8770
 0.4540	 6.8910
 0.4550	 6.8990
 0.4560	 6.9090
 0.4570	 6.9310
 0.4580	 6.9450
 0.4590	 6.9440
 0.4600	 6.9610
 0.4610	 6.9670
 0.4620	 6.9670
 0.4630	 6.9730
 0.4640	 6.9780
 0.4650	 6.9850
 0.4660	 6.9950
 0.4670	 7.0080
 0.4680	 7.0110
 0.4690	 7.0160
 0.4700	 7.0320
 0.4710	 7.0360
 0.4720	 7.0370
 0.4730	 7.0340
 0.4740	 7.0340
 0.4750	 7.0520
 0.4760	 7.0610
 0.4770	 7.0560
 0.4780	 7.0540
 0.4790	 7.0640
 0.4800	 7.0740
 0.4810	 7.0750
 0.4820	 7.0770
 0.4830	 7.0840
 0.4840	 7.0920
 0.4850	 7.1010
 0.4860	 7.1200
 0.4870	 7.1320
 0.4880	 7.1290
 0.4890	 7.1510
 0.4900	 7.1670
 0.4910	 7.1780
 0.4920	 7.1940
 0.4930	 7.2060
 0.4940	 7.2230
 0.4950	 7.2410
 0.4960	 7.2640
 0.4970	 7.2830
 0.4980	 7.3040
 0.4990	 7.3380
 0.5000	 7.3670
 0.5010	 7.3990
 0.5020	 7.4320
 0.5030	 7.4840
 0.5040	 7.5350
 0.5050	 7.5910
 0.5060	 7.6560
 0.5070	 7.7240
 0.5080	 7.7970
 0.5090	 7.8860
 0.5100	 7.9880
 0.5110	 8.1040
 0.5120	 8.2260
 0.5130	 8.3540
 0.5140	 8.5050
 0.5150	 8.6710
 0.5160	 8.8530
 0.5170	 9.0470
 0.5180	 9.2580
 0.5190	 9.4730
 0.5200	 9.6950
 0.5210	 9.9290
 0.5220	10.1640
 0.5230	10.4020
 0.5240	10.6420
 0.5250	10.8690
 0.5260	11.0980
 0.5270	11.3220
 0.5280	11.5270
 0.5290	11.7240
 0.5300	11.9070
 0.5310	12.0760
 0.5320	12.2380
 0.5330	12.3830
 0.5340	12.5120
 0.5350	12.6310
 0.5360	12.7460
 0.5370	12.8450
 0.5380	12.9350
 0.5390	13.0250
 0.5400	13.1090
 0.5410	13.1880
 0.5420	13.2670
 0.5430	13.3440
 0.5440	13.4120
 0.5450	13.4730
 0.5460	13.5300
 0.5470	13.5780
 0.5480	13.6210
 0.5490	13.6600
 0.5500	13.6950
 0.5510	13.7230
 0.5520	13.7350
 0.5530	13.7270
 0.5540	13.7090
 0.5550	13.6770
 0.5560	13.6320
 0.5570	13.5710
 0.5580	13.4980
 0.5590	13.4130
 0.5600	13.3190
 0.5610	13.2160
 0.5620	13.1060
 0.5630	12.9920
 0.5640	12.8700
 0.5650	12.7410
 0.5660	12.6070
 0.5670	12.4690
 0.5680	12.3210
 0.5690	12.1650
 0.5700	12.0080
 0.5710	11.8530
 0.5720	11.7040
 0.5730	11.5650
 0.5740	11.4370
 0.5750	11.3210
 0.5760	11.2140
 0.5770	11.1120
 0.5780	11.0170
 0.5790	10.9360
 0.5800	10.8580
 0.5810	10.7790
 0.5820	10.7010
 0.5830	10.6220
 0.5840	10.5450
 0.5850	10.4740
 0.5860	10.4060
 0.5870	10.3450
 0.5880	10.2920
 0.5890	10.2440
 0.5900	10.1980
 0.5910	10.1630
 0.5920	10.1390
 0.5930	10.1200
 0.5940	10.1050
 0.5950	10.0910
 0.5960	10.0750
 0.5970	10.0500
 0.5980	10.0230
 0.5990	 9.9970
 0.6000	 9.9660
 0.6010	 9.9320
 0.6020	 9.8930
 0.6030	 9.8520
 0.6040	 9.8060
 0.6050	 9.7520
 0.6060	 9.6930
 0.6070	 9.6310
 0.6080	 9.5630
 0.6090	 9.4970
 0.6100	 9.4320
 0.6110	 9.3710
 0.6120	 9.3020
 0.6130	 9.2280
 0.6140	 9.1540
 0.6150	 9.0890
 0.6160	 9.0270
 0.6170	 8.9700
 0.6180	 8.9170
 0.6190	 8.8710
 0.6200	 8.8340
 0.6210	 8.8020
 0.6220	 8.7670
 0.6230	 8.7390
 0.6240	 8.7190
 0.6250	 8.6990
 0.6260	 8.6840
 0.6270	 8.6710
 0.6280	 8.6640
 0.6290	 8.6610
 0.6300	 8.6520
 0.6310	 8.6440
 0.6320	 8.6420
 0.6330	 8.6300
 0.6340	 8.6140
 0.6350	 8.5960
 0.6360	 8.5740
 0.6370	 8.5440
 0.6380	 8.5110
 0.6390	 8.4720
 0.6400	 8.4240
 0.6410	 8.3770
 0.6420	 8.3260
 0.6430	 8.2710
 0.6440	 8.2120
 0.6450	 8.1590
 0.6460	 8.1080
 0.6470	 8.0570
 0.6480	 8.0120
 0.6490	 7.9700
 0.6500	 7.9330
 0.6510	 7.8990
 0.6520	 7.8680
 0.6530	 7.8400
 0.6540	 7.8090
 0.6550	 7.7780
 0.6560	 7.7460
 0.6570	 7.7140
 0.6580	 7.6800
 0.6590	 7.6450
 0.6600	 7.6110
 0.6610	 7.5790
 0.6620	 7.5450
 0.6630	 7.5240
 0.6640	 7.5080
 0.6650	 7.4910
 0.6660	 7.4780
 0.6670	 7.4660
 0.6680	 7.4620
 0.6690	 7.4630
 0.6700	 7.4630
 0.6710	 7.4660
 0.6720	 7.4740
 0.6730	 7.4820
 0.6740	 7.4960
 0.6750	 7.5110
 0.6760	 7.5260
 0.6770	 7.5470
 0.6780	 7.5680
 0.6790	 7.5940
 0.6800	 7.6170
 0.6810	 7.6450
 0.6820	 7.6790
 0.6830	 7.7140
 0.6840	 7.7580
 0.6850	 7.8050
 0.6860	 7.8630
 0.6870	 7.9370
 0.6880	 8.0340
 0.6890	 8.1610
 0.6900	 8.3210
 0.6910	 8.5280
 0.6920	 8.7880
 0.6930	 9.1100
 0.6940	 9.5040
 0.6950	 9.9730
 0.6960	10.5200
 0.6970	11.1400
 0.6980	11.8260
 0.6990	12.5800
 0.7000	13.3900
 0.7010	14.2480
 0.7020	15.1420
 0.7030	16.0580
 0.7040	16.9930
 0.7050	17.9410
 0.7060	18.8880
 0.7070	19.8350
 0.7080	20.7760
 0.7090	21.7060
 0.7100	22.6290
 0.7110	23.5390
 0.7120	24.4350
 0.7130	25.3190
 0.7140	26.1850
 0.7150	27.0320
 0.7160	27.8610
 0.7170	28.6780
 0.7180	29.4720
 0.7190	30.2440
 0.7200	30.9950
 0.7210	31.7190
 0.7220	32.4240
 0.7230	33.1080
 0.7240	33.7640
 0.7250	34.3890
 0.7260	34.9890
 0.7270	35.5670
 0.7280	36.1190
 0.7290	36.6410
 0.7300	37.1380
 0.7310	37.6160
 0.7320	38.0610
 0.7330	38.4820
 0.7340	38.8830
 0.7350	39.2630
 0.7360	39.6200
 0.7370	39.9520
 0.7380	40.2630
 0.7390	40.5560
 0.7400	40.8360
 0.7410	41.0960
 0.7420	41.3290
 0.7430	41.5520
 0.7440	41.7600
 0.7450	41.9550
 0.7460	42.1420
 0.7470	42.3070
 0.7480	42.4560
 0.7490	42.5960
 0.7500	42.7310
 0.7510	42.8500
 0.7520	42.9560
 0.7530	43.0560
 0.7540	43.1480
 0.7550	43.2390
 0.7560	43.3220
 0.7570	43.3840
 0.7580	43.4510
 0.7590	43.5120
 0.7600	43.5620
 0.7610	43.6110
 0.7620	43.6560
 0.7630	43.6980
 0.7640	43.7400
 0.7650	43.7830
 0.7660	43.8180
 0.7670	43.8480
 0.7680	43.8820
 0.7690	43.9020
 0.7700	43.9270
 0.7710	43.9600
 0.7720	43.9780
 0.7730	43.9950
 0.7740	44.0150
 0.7750	44.0370
 0.7760	44.0540
 0.7770	44.0770
 0.7780	44.0990
 0.7790	44.1090
 0.7800	44.1220
 0.7810	44.1450
 0.7820	44.1700
 0.7830	44.1750
 0.7840	44.1890
 0.7850	44.2090
 0.7860	44.2290
 0.7870	44.2390
 0.7880	44.2530
 0.7890	44.2680
 0.7900	44.2750
 0.7910	44.2880
 0.7920	44.2950
 0.7930	44.3020
 0.7940	44.3230
 0.7950	44.3320
 0.7960	44.3340
 0.7970	44.3400
 0.7980	44.3530
 0.7990	44.3630
 0.8000	44.3680
 0.8010	44.3710
 0.8020	44.3790
 0.8030	44.3830
 0.8040	44.3840
 0.8050	44.3830
 0.8060	44.3830
 0.8070	44.3830
 0.8080	44.3850
 0.8090	44.3910
 0.8100	44.3800
 0.8110	44.3730
 0.8120	44.3810
 0.8130	44.3900
 0.8140	44.3850
 0.8150	44.3770
 0.8160	44.3760
 0.8170	44.3770
 0.8180	44.3670
 0.8190	44.3560
 0.8200	44.3600
 0.8210	44.3590
 0.8220	44.3510
 0.8230	44.3420
 0.8240	44.3380
 0.8250	44.3320
 0.8260	44.3240
 0.8270	44.3180
 0.8280	44.3140
 0.8290	44.3080
 0.8300	44.3040
 0.8310	44.2990
 0.8320	44.2870
 0.8330	44.2830
 0.8340	44.2840
 0.8350	44.2780
 0.8360	44.2650
 0.8370	44.2590
 0.8380	44.2640
 0.8390	44.2730
 0.8400	44.2650
 0.8410	44.2590
 0.8420	44.2640
 0.8430	44.2600
 0.8440	44.2610
 0.8450	44.2640
 0.8460	44.2640
 0.8470	44.2580
 0.8480	44.2590
 0.8490	44.2640
 0.8500	44.2670
 0.8510	44.2780
 0.8520	44.2790
 0.8530	44.2710
 0.8540	44.2700
 0.8550	44.2690
 0.8560	44.2720
 0.8570	44.2780
 0.8580	44.2820
 0.8590	44.2970
 0.8600	44.3020
 0.8610	44.2910
 0.8620	44.2950
 0.8630	44.2940
 0.8640	44.2980
 0.8650	44.3130
 0.8660	44.3180
 0.8670	44.3250
 0.8680	44.3320
 0.8690	44.3350
 0.8700	44.3410
 0.8710	44.3390
 0.8720	44.3360
 0.8730	44.3440
 0.8740	44.3630
 0.8750	44.3730
 0.8760	44.3730
 0.8770	44.3860
 0.8780	44.3890
 0.8790	44.3950
 0.8800	44.4050
 0.8810	44.4010
 0.8820	44.4050
 0.8830	44.4210
 0.8840	44.4400
 0.8850	44.4380
 0.8860	44.4370
 0.8870	44.4440
 0.8880	44.4550
 0.8890	44.4550
 0.8900	44.4680
 0.8910	44.4810
 0.8920	44.4780
 0.8930	44.4810
 0.8940	44.4890
 0.8950	44.5000
 0.8960	44.5070
 0.8970	44.5090
 0.8980	44.5130
 0.8990	44.5200
 0.9000	44.5290
 0.9010	44.5350
 0.9020	44.5400
 0.9030	44.5450
 0.9040	44.5610
 0.9050	44.5630
 0.9060	44.5660
 0.9070	44.5780
 0.9080	44.5850
 0.9090	44.5840
 0.9100	44.5870
 0.9110	44.5960
 0.9120	44.5910
 0.9130	44.5980
 0.9140	44.6090
 0.9150	44.6120
 0.9160	44.6240
 0.9170	44.6370
 0.9180	44.6430
 0.9190	44.6350
 0.9200	44.6390
 0.9210	44.6340
 0.9220	44.6280
 0.9230	44.6390
 0.9240	44.6420
 0.9250	44.6400
 0.9260	44.6300
 0.9270	44.6120
 0.9280	44.6150
 0.9290	44.6110
 0.9300	44.6000
 0.9310	44.6110
 0.9320	44.5980
 0.9330	44.5800
 0.9340	44.5710
 0.9350	44.5560
 0.9360	44.5340
 0.9370	44.5140
 0.9380	44.5000
 0.9390	44.4880
 0.9400	44.4720
 0.9410	44.4560
 0.9420	44.4420
 0.9430	44.4320
 0.9440	44.4110
 0.9450	44.3880
 0.9460	44.3620
 0.9470	44.3100
 0.9480	44.2830
 0.9490	44.2640
 0.9500	44.2300
 0.9510	44.1970
 0.9520	44.1580
 0.9530	44.1100
 0.9540	44.0560
 0.9550	44.0210
 0.9560	43.9820
 0.9570	43.9440
 0.9580	43.9140
 0.9590	43.8620
 0.9600	43.8140
 0.9610	43.7830
 0.9620	43.7660
 0.9630	43.7270
 0.9640	43.6970
 0.9650	43.6760
 0.9660	43.6610
 0.9670	43.6610
 0.9680	43.6470
 0.9690	43.6290
 0.9700	43.6280
 0.9710	43.6130
 0.9720	43.5950
 0.9730	43.5770
 0.9740	43.5620
 0.9750	43.5650
 0.9760	43.5620
 0.9770	43.5580
 0.9780	43.5640
 0.9790	43.5560
 0.9800	43.5480
 0.9810	43.5500
 0.9820	43.5630
 0.9830	43.5670
 0.9840	43.5870
 0.9850	43.6050
 0.9860	43.5910
 0.9870	43.5910
 0.9880	43.5980
 0.9890	43.6060
 0.9900	43.6150
 0.9910	43.6480
 0.9920	43.6510
 0.9930	43.6400
 0.9940	43.6540
 0.9950	43.6670
 0.9960	43.6730
 0.9970	43.6840
 0.9980	43.7110
 0.9990	43.7220
 1.0000	43.9840
 1.0010	44.5160
 1.0020	44.7910
 1.0030	44.8030
 1.0040	44.8150
 1.0050	44.8270
 1.0060	44.8410
 1.0070	44.8570
 1.0080	44.8720
 1.0090	44.8880
 1.0100	44.9000
 1.0110	44.9100
 1.0120	44.9240
 1.0130	44.9400
 1.0140	44.9520
 1.0150	44.9630
 1.0160	44.9770
 1.0170	44.9840
 1.0180	44.9890
 1.0190	45.0030
 1.0200	45.0130
 1.0210	45.0180
 1.0220	45.0290
 1.0230	45.0410
 1.0240	45.0510
 1.0250	45.0640
 1.0260	45.0810
 1.0270	45.0950
 1.0280	45.1090
 1.0290	45.1200
 1.0300	45.1280
 1.0310	45.1380
 1.0320	45.1470
 1.0330	45.1580
 1.0340	45.1720
 1.0350	45.1840
 1.0360	45.1920
 1.0370	45.1970
 1.0380	45.2050
 1.0390	45.2130
 1.0400	45.2210
 1.0410	45.2330
 1.0420	45.2420
 1.0430	45.2500
 1.0440	45.2580
 1.0450	45.2640
 1.0460	45.2740
 1.0470	45.2850
 1.0480	45.2940
 1.0490	45.3050
 1.0500	45.3120
 1.0510	45.3170
 1.0520	45.3180
 1.0530	45.3220
 1.0540	45.3220
 1.0550	45.3280
 1.0560	45.3370
 1.0570	45.3430
 1.0580	45.3500
 1.0590	45.3550
 1.0600	45.3560
 1.0610	45.3580
 1.0620	45.3610
 1.0630	45.3620
 1.0640	45.3600
 1.0650	45.3590
 1.0660	45.3580
 1.0670	45.3560
 1.0680	45.3550
 1.0690	45.3550
 1.0700	45.3530
 1.0710	45.3500
 1.0720	45.3470
 1.0730	45.3440
 1.0740	45.3410
 1.0750	45.3400
 1.0760	45.3370
 1.0770	45.3350
 1.0780	45.3330
 1.0790	45.3300
 1.0800	45.3260
 1.0810	45.3200
 1.0820	45.3160
 1.0830	45.3160
 1.0840	45.3120
 1.0850	45.3080
 1.0860	45.3030
 1.0870	45.2980
 1.0880	45.2880
 1.0890	45.2820
 1.0900	45.2780
 1.0910	45.2710
 1.0920	45.2630
 1.0930	45.2550
 1.0940	45.2450
 1.0950	45.2360
 1.0960	45.2280
 1.0970	45.2200
 1.0980	45.2130
 1.0990	45.2060
 1.1000	45.1990
 1.1010	45.1910
 1.1020	45.1820
 1.1030	45.1740
 1.1040	45.1650
 1.1050	45.1550
 1.1060	45.1480
 1.1070	45.1440
 1.1080	45.1350
 1.1090	45.1280
 1.1100	45.1160
 1.1110	45.0990
 1.1120	45.0850
 1.1130	45.0690
 1.1140	45.0560
 1.1150	45.0460
 1.1160	45.0330
 1.1170	45.0220
 1.1180	45.0060
 1.1190	44.9860
 1.1200	44.9650
 1.1210	44.9460
 1.1220	44.9240
 1.1230	44.9010
 1.1240	44.8780
 1.1250	44.8480
 1.1260	44.8130
 1.1270	44.7730
 1.1280	44.7310
 1.1290	44.6840
 1.1300	44.6340
 1.1310	44.5790
 1.1320	44.5230
 1.1330	44.4610
 1.1340	44.3960
 1.1350	44.3250
 1.1360	44.2480
 1.1370	44.1660
 1.1380	44.0790
 1.1390	43.9890
 1.1400	43.8940
 1.1410	43.7980
 1.1420	43.7000
 1.1430	43.5980
 1.1440	43.4970
 1.1450	43.3930
 1.1460	43.2920
 1.1470	43.1890
 1.1480	43.0920
 1.1490	42.9960
 1.1500	42.9060
 1.1510	42.8150
 1.1520	42.7350
 1.1530	42.6590
 1.1540	42.5900
 1.1550	42.5280
 1.1560	42.4740
 1.1570	42.4240
 1.1580	42.3800
 1.1590	42.3420
 1.1600	42.3050
 1.1610	42.2720
 1.1620	42.2450
 1.1630	42.2240
 1.1640	42.2080
 1.1650	42.1930
 1.1660	42.1840
 1.1670	42.1730
 1.1680	42.1650
 1.1690	42.1560
 1.1700	42.1490
 1.1710	42.1430
 1.1720	42.1350
 1.1730	42.1290
 1.1740	42.1250
 1.1750	42.1200
 1.1760	42.1130
 1.1770	42.1070
 1.1780	42.1000
 1.1790	42.0910
 1.1800	42.0800
 1.1810	42.0710
 1.1820	42.0610
 1.1830	42.0500
 1.1840	42.0430
 1.1850	42.0360
 1.1860	42.0260
 1.1870	42.0180
 1.1880	42.0090
 1.1890	41.9990
 1.1900	41.9910
 1.1910	41.9860
 1.1920	41.9820
 1.1930	41.9800
 1.1940	41.9780
 1.1950	41.9780
 1.1960	41.9790
 1.1970	41.9810
 1.1980	41.9830
 1.1990	41.9860
 1.2000	41.9910
 1.2010	41.9950
 1.2020	42.0010
 1.2030	42.0080
 1.2040	42.0140
 1.2050	42.0220
 1.2060	42.0290
 1.2070	42.0390
 1.2080	42.0500
 1.2090	42.0600
 1.2100	42.0730
 1.2110	42.0850
 1.2120	42.0960
 1.2130	42.1100
 1.2140	42.1260
 1.2150	42.1430
 1.2160	42.1610
 1.2170	42.1790
 1.2180	42.1970
 1.2190	42.2160
 1.2200	42.2330
 1.2210	42.2510
 1.2220	42.2700
 1.2230	42.2860
 1.2240	42.3040
 1.2250	42.3220
 1.2260	42.3400
 1.2270	42.3560
 1.2280	42.3710
 1.2290	42.3880
 1.2300	42.4030
 1.2310	42.4170
 1.2320	42.4320
 1.2330	42.4460
 1.2340	42.4590
 1.2350	42.4730
 1.2360	42.4870
 1.2370	42.4990
 1.2380	42.5110
 1.2390	42.5230
 1.2400	42.5340
 1.2410	42.5470
 1.2420	42.5620
 1.2430	42.5740
 1.2440	42.5850
 1.2450	42.5950
 1.2460	42.6040
 1.2470	42.6120
 1.2480	42.6210
 1.2490	42.6300
 1.2500	42.6370
 1.2510	42.6430
 1.2520	42.6480
 1.2530	42.6500
 1.2540	42.6540
 1.2550	42.6610
 1.2560	42.6680
 1.2570	42.6740
 1.2580	42.6770
 1.2590	42.6780
 1.2600	42.6770
 1.2610	42.6770
 1.2620	42.6760
 1.2630	42.6740
 1.2640	42.6730
 1.2650	42.6710
 1.2660	42.6680
 1.2670	42.6660
 1.2680	42.6620
 1.2690	42.6580
 1.2700	42.6550
 1.2710	42.6500
 1.2720	42.6460
 1.2730	42.6410
 1.2740	42.6310
 1.2750	42.6220
 1.2760	42.6130
 1.2770	42.6010
 1.2780	42.5920
 1.2790	42.5830
 1.2800	42.5720
 1.2810	42.5610
 1.2820	42.5490
 1.2830	42.5340
 1.2840	42.5150
 1.2850	42.4980
 1.2860	42.4780
 1.2870	42.4560
 1.2880	42.4330
 1.2890	42.4110
 1.2900	42.3860
 1.2910	42.3580
 1.2920	42.3310
 1.2930	42.3000
 1.2940	42.2670
 1.2950	42.2340
 1.2960	42.1990
 1.2970	42.1630
 1.2980	42.1270
 1.2990	42.0890
 1.3000	42.0470
 1.3010	42.0040
 1.3020	41.9580
 1.3030	41.9110
 1.3040	41.8630
 1.3050	41.8150
 1.3060	41.7630
 1.3070	41.7080
 1.3080	41.6490
 1.3090	41.5870
 1.3100	41.5240
 1.3110	41.4610
 1.3120	41.3950
 1.3130	41.3250
 1.3140	41.2550
 1.3150	41.1820
 1.3160	41.1070
 1.3170	41.0320
 1.3180	40.9540
 1.3190	40.8710
 1.3200	40.7870
 1.3210	40.7000
 1.3220	40.6130
 1.3230	40.5230
 1.3240	40.4290
 1.3250	40.3360
 1.3260	40.2390
 1.3270	40.1420
 1.3280	40.0460
 1.3290	39.9450
 1.3300	39.8430
 1.3310	39.7390
 1.3320	39.6330
 1.3330	39.5240
 1.3340	39.4140
 1.3350	39.3020
 1.3360	39.1900
 1.3370	39.0790
 1.3380	38.9690
 1.3390	38.8560
 1.3400	38.7430
 1.3410	38.6330
 1.3420	38.5230
 1.3430	38.4130
 1.3440	38.3060
 1.3450	38.1960
 1.3460	38.0830
 1.3470	37.9760
 1.3480	37.8710
 1.3490	37.7660
 1.3500	37.6640
 1.3510	37.5620
 1.3520	37.4570
 1.3530	37.3540
 1.3540	37.2500
 1.3550	37.1460
 1.3560	37.0400
 1.3570	36.9340
 1.3580	36.8260
 1.3590	36.7160
 1.3600	36.6030
 1.3610	36.4880
 1.3620	36.3690
 1.3630	36.2440
 1.3640	36.1150
 1.3650	35.9790
 1.3660	35.8370
 1.3670	35.6890
 1.3680	35.5320
 1.3690	35.3660
 1.3700	35.1870
 1.3710	34.9980
 1.3720	34.7960
 1.3730	34.5790
 1.3740	34.3500
 1.3750	34.1050
 1.3760	33.8410
 1.3770	33.5590
 1.3780	33.2520
 1.3790	32.9260
 1.3800	32.5800
 1.3810	32.2100
 1.3820	31.8260
 1.3830	31.4260
 1.3840	31.0060
 1.3850	30.5680
 1.3860	30.1150
 1.3870	29.6400
 1.3880	29.1600
 1.3890	28.6660
 1.3900	28.1620
 1.3910	27.6560
 1.3920	27.1420
 1.3930	26.6220
 1.3940	26.1020
 1.3950	25.5780
 1.3960	25.0590
 1.3970	24.5480
 1.3980	24.0450
 1.3990	23.5590
 1.4000	23.0850
 1.4010	22.6210
 1.4020	22.1770
 1.4030	21.7480
 1.4040	21.3360
 1.4050	20.9460
 1.4060	20.5750
 1.4070	20.2270
 1.4080	19.8980
 1.4090	19.5890
 1.4100	19.3000
 1.4110	19.0290
 1.4120	18.7780
 1.4130	18.5480
 1.4140	18.3350
 1.4150	18.1420
 1.4160	17.9650
 1.4170	17.8020
 1.4180	17.6540
 1.4190	17.5190
 1.4200	17.3970
 1.4210	17.2870
 1.4220	17.1900
 1.4230	17.1030
 1.4240	17.0250
 1.4250	16.9560
 1.4260	16.8980
 1.4270	16.8450
 1.4280	16.8000
 1.4290	16.7600
 1.4300	16.7260
 1.4310	16.6980
 1.4320	16.6770
 1.4330	16.6590
 1.4340	16.6470
 1.4350	16.6380
 1.4360	16.6340
 1.4370	16.6330
 1.4380	16.6360
 1.4390	16.6430
 1.4400	16.6520
 1.4410	16.6610
 1.4420	16.6730
 1.4430	16.6870
 1.4440	16.7030
 1.4450	16.7210
 1.4460	16.7400
 1.4470	16.7600
 1.4480	16.7800
 1.4490	16.8010
 1.4500	16.8230
 1.4510	16.8460
 1.4520	16.8710
 1.4530	16.8970
 1.4540	16.9230
 1.4550	16.9530
 1.4560	16.9820
 1.4570	17.0130
 1.4580	17.0480
 1.4590	17.0850
 1.4600	17.1260
 1.4610	17.1710
 1.4620	17.2190
 1.4630	17.2710
 1.4640	17.3270
 1.4650	17.3880
 1.4660	17.4540
 1.4670	17.5240
 1.4680	17.5990
 1.4690	17.6780
 1.4700	17.7610
 1.4710	17.8490
