Name: Heteromeles arbutifolia 1
Type: vegetation
Class: Shrub
Genus: Heteromeles
Species: arbutifolia
Sample No.: VH013
Owner: UCSB
Wavelength Range: TIR
Origin: 34.4907; -119.791; WGS84
Collection Date: 4/1/2013
Description: Samples were collected as part of the HyspIRI Airborne Campaign. 48 individual plants were sampled in three times in 2013 - spring  summer  and fall. The name of the sample includes a 1  2  or 3 which references a different individual of the species. Samples were taken to JPL and processed within 48 hours of collection. The same leaves were processed in the Nicolet and then measured using the ASD.
Measurement: Hemispherical reflectance
First Column: X
Second Column: Y
X Units: Wavelength (micrometers)
Y Units: Reflectance (percentage)
First X Value: 2.501
Last X Value: 15.387
Number of X Values: 1737
Additional Information: vegetation.shrub.heteromeles.arbutifolia.tir.vh013.ucsb.nicolet.ancillary.txt

 2.5010	 6.6770
 2.5030	 6.5810
 2.5040	 6.5280
 2.5050	 6.5560
 2.5060	 6.5660
 2.5070	 6.4710
 2.5090	 6.5610
 2.5100	 6.6360
 2.5110	 6.5660
 2.5120	 6.4480
 2.5140	 6.4740
 2.5150	 6.3680
 2.5160	 6.2720
 2.5170	 6.2480
 2.5180	 6.3020
 2.5200	 6.2780
 2.5210	 6.3710
 2.5220	 6.4880
 2.5230	 6.5680
 2.5250	 6.4750
 2.5260	 6.4550
 2.5270	 6.4180
 2.5280	 6.4740
 2.5290	 6.4580
 2.5310	 6.4730
 2.5320	 6.4930
 2.5330	 6.5290
 2.5340	 6.4010
 2.5360	 6.4130
 2.5370	 6.3900
 2.5380	 6.4160
 2.5390	 6.4740
 2.5410	 6.5360
 2.5420	 6.4080
 2.5430	 6.4050
 2.5440	 6.3730
 2.5460	 6.4210
 2.5470	 6.3630
 2.5480	 6.3480
 2.5490	 6.4320
 2.5510	 6.4870
 2.5520	 6.4010
 2.5530	 6.4040
 2.5540	 6.3830
 2.5560	 6.4560
 2.5570	 6.4200
 2.5580	 6.3620
 2.5590	 6.3120
 2.5610	 6.4010
 2.5620	 6.4750
 2.5630	 6.5590
 2.5640	 6.5920
 2.5660	 6.5210
 2.5670	 6.4900
 2.5680	 6.5600
 2.5700	 6.5480
 2.5710	 6.5290
 2.5720	 6.4480
 2.5730	 6.3910
 2.5750	 6.4320
 2.5760	 6.5220
 2.5770	 6.4190
 2.5790	 6.4300
 2.5800	 6.4980
 2.5810	 6.5800
 2.5820	 6.4930
 2.5840	 6.4660
 2.5850	 6.3950
 2.5860	 6.3880
 2.5880	 6.3840
 2.5890	 6.4020
 2.5900	 6.3570
 2.5910	 6.4120
 2.5930	 6.3420
 2.5940	 6.4540
 2.5950	 6.3560
 2.5970	 6.2480
 2.5980	 6.2500
 2.5990	 6.2530
 2.6000	 6.1840
 2.6020	 6.1480
 2.6030	 6.0810
 2.6040	 6.1720
 2.6060	 6.2000
 2.6070	 6.1320
 2.6080	 6.0530
 2.6100	 6.0760
 2.6110	 6.0010
 2.6120	 6.0990
 2.6140	 6.1300
 2.6150	 6.1730
 2.6160	 6.0970
 2.6180	 5.9860
 2.6190	 5.8890
 2.6200	 5.9380
 2.6220	 5.9440
 2.6230	 6.0430
 2.6240	 5.9590
 2.6260	 5.8650
 2.6270	 5.8300
 2.6280	 5.8360
 2.6300	 5.7200
 2.6310	 5.6730
 2.6320	 5.6070
 2.6340	 5.6080
 2.6350	 5.5470
 2.6360	 5.4690
 2.6380	 5.3970
 2.6390	 5.4030
 2.6400	 5.3720
 2.6420	 5.4340
 2.6430	 5.4880
 2.6440	 5.5570
 2.6460	 5.4600
 2.6470	 5.2970
 2.6480	 5.1860
 2.6500	 5.2820
 2.6510	 5.3920
 2.6520	 5.4200
 2.6540	 5.2650
 2.6550	 5.2130
 2.6560	 5.1650
 2.6580	 5.1920
 2.6590	 5.2360
 2.6610	 5.2390
 2.6620	 5.0970
 2.6630	 5.0650
 2.6650	 5.0920
 2.6660	 5.0070
 2.6670	 4.9090
 2.6690	 4.9460
 2.6700	 4.9350
 2.6720	 4.9040
 2.6730	 4.9040
 2.6740	 4.8770
 2.6760	 4.8670
 2.6770	 4.9600
 2.6780	 4.9220
 2.6800	 4.9620
 2.6810	 4.8860
 2.6830	 4.8650
 2.6840	 4.8580
 2.6850	 4.9310
 2.6870	 4.9030
 2.6880	 4.9180
 2.6900	 4.8830
 2.6910	 4.8520
 2.6920	 4.7620
 2.6940	 4.7750
 2.6950	 4.6360
 2.6970	 4.6460
 2.6980	 4.6480
 2.6990	 4.7110
 2.7010	 4.7580
 2.7020	 4.8240
 2.7040	 4.7640
 2.7050	 4.6890
 2.7060	 4.5810
 2.7080	 4.6100
 2.7090	 4.6100
 2.7110	 4.7020
 2.7120	 4.6350
 2.7130	 4.6740
 2.7150	 4.6530
 2.7160	 4.6610
 2.7180	 4.6540
 2.7190	 4.6790
 2.7210	 4.6700
 2.7220	 4.6790
 2.7230	 4.5980
 2.7250	 4.6380
 2.7260	 4.5940
 2.7280	 4.5570
 2.7290	 4.4340
 2.7310	 4.5010
 2.7320	 4.6410
 2.7330	 4.6130
 2.7350	 4.4950
 2.7360	 4.5730
 2.7380	 4.5810
 2.7390	 4.7200
 2.7410	 4.8030
 2.7420	 4.7460
 2.7440	 4.5490
 2.7450	 4.5290
 2.7470	 4.6840
 2.7480	 4.6860
 2.7490	 4.4950
 2.7510	 4.5230
 2.7520	 4.4760
 2.7540	 4.4210
 2.7550	 4.1460
 2.7570	 4.2080
 2.7580	 4.3780
 2.7600	 4.5140
 2.7610	 4.5320
 2.7630	 4.5590
 2.7640	 4.5970
 2.7660	 4.6530
 2.7670	 4.5700
 2.7680	 4.5590
 2.7700	 4.5050
 2.7710	 4.5380
 2.7730	 4.5920
 2.7740	 4.7100
 2.7760	 4.6980
 2.7770	 4.7190
 2.7790	 4.6480
 2.7800	 4.6830
 2.7820	 4.6830
 2.7830	 4.7050
 2.7850	 4.6280
 2.7860	 4.6480
 2.7880	 4.6010
 2.7890	 4.5120
 2.7910	 4.4160
 2.7920	 4.4670
 2.7940	 4.5020
 2.7950	 4.5550
 2.7970	 4.4970
 2.7980	 4.5340
 2.8000	 4.5510
 2.8010	 4.5790
 2.8030	 4.5040
 2.8040	 4.5210
 2.8060	 4.4530
 2.8070	 4.4490
 2.8090	 4.5220
 2.8110	 4.6700
 2.8120	 4.5800
 2.8140	 4.5120
 2.8150	 4.4740
 2.8170	 4.4850
 2.8180	 4.3580
 2.8200	 4.4330
 2.8210	 4.5170
 2.8230	 4.6400
 2.8240	 4.5090
 2.8260	 4.4250
 2.8270	 4.3660
 2.8290	 4.4320
 2.8300	 4.4840
 2.8320	 4.5670
 2.8340	 4.3570
 2.8350	 4.3520
 2.8370	 4.4610
 2.8380	 4.5540
 2.8400	 4.5650
 2.8410	 4.5960
 2.8430	 4.5350
 2.8440	 4.6320
 2.8460	 4.5560
 2.8480	 4.5230
 2.8490	 4.4870
 2.8510	 4.4730
 2.8520	 4.3900
 2.8540	 4.4880
 2.8550	 4.4270
 2.8570	 4.4770
 2.8590	 4.5090
 2.8600	 4.5510
 2.8620	 4.4220
 2.8630	 4.4280
 2.8650	 4.5870
 2.8660	 4.7490
 2.8680	 4.6120
 2.8700	 4.6120
 2.8710	 4.5340
 2.8730	 4.4990
 2.8740	 4.5360
 2.8760	 4.5860
 2.8780	 4.4430
 2.8790	 4.4540
 2.8810	 4.5290
 2.8820	 4.6700
 2.8840	 4.7160
 2.8860	 4.7450
 2.8870	 4.5780
 2.8890	 4.5010
 2.8900	 4.4200
 2.8920	 4.4900
 2.8940	 4.5360
 2.8950	 4.5400
 2.8970	 4.3850
 2.8980	 4.4950
 2.9000	 4.6160
 2.9020	 4.6100
 2.9030	 4.5420
 2.9050	 4.6530
 2.9070	 4.6540
 2.9080	 4.6470
 2.9100	 4.5130
 2.9120	 4.6170
 2.9130	 4.6450
 2.9150	 4.6940
 2.9160	 4.6150
 2.9180	 4.6520
 2.9200	 4.6320
 2.9210	 4.7010
 2.9230	 4.5590
 2.9250	 4.4660
 2.9260	 4.4700
 2.9280	 4.6060
 2.9300	 4.5250
 2.9310	 4.5410
 2.9330	 4.5730
 2.9350	 4.6780
 2.9360	 4.6130
 2.9380	 4.5720
 2.9400	 4.4800
 2.9410	 4.4760
 2.9430	 4.4420
 2.9450	 4.6480
 2.9460	 4.7360
 2.9480	 4.7110
 2.9500	 4.6230
 2.9510	 4.6460
 2.9530	 4.5620
 2.9550	 4.7570
 2.9560	 4.7090
 2.9580	 4.6380
 2.9600	 4.7130
 2.9610	 5.1240
 2.9630	 5.4140
 2.9650	 5.2350
 2.9660	 4.4100
 2.9680	 4.3100
 2.9700	 4.2410
 2.9720	 4.2230
 2.9730	 4.5340
 2.9750	 4.4960
 2.9770	 4.3610
 2.9780	 4.6970
 2.9800	 4.8990
 2.9820	 4.6670
 2.9840	 4.7650
 2.9850	 4.9670
 2.9870	 5.2390
 2.9890	 5.3000
 2.9900	 4.9310
 2.9920	 4.6940
 2.9940	 5.2010
 2.9960	 5.0900
 2.9970	 4.3740
 2.9990	 4.0980
 3.0010	 3.6250
 3.0030	 3.4630
 3.0040	 4.0750
 3.0060	 4.6230
 3.0080	 4.6380
 3.0100	 4.8790
 3.0110	 4.9080
 3.0130	 4.6530
 3.0150	 4.2300
 3.0170	 3.7830
 3.0180	 3.7380
 3.0200	 4.0990
 3.0220	 4.4280
 3.0240	 4.3960
 3.0250	 4.5340
 3.0270	 4.5930
 3.0290	 4.1670
 3.0310	 3.9100
 3.0320	 4.6090
 3.0340	 5.2820
 3.0360	 5.2370
 3.0380	 5.5450
 3.0400	 5.3370
 3.0410	 4.6600
 3.0430	 4.5100
 3.0450	 4.5210
 3.0470	 4.2290
 3.0480	 4.3840
 3.0500	 4.3560
 3.0520	 4.5960
 3.0540	 4.9730
 3.0560	 4.9200
 3.0570	 4.6050
 3.0590	 4.6580
 3.0610	 4.7430
 3.0630	 4.8900
 3.0650	 5.1780
 3.0660	 5.1760
 3.0680	 4.7580
 3.0700	 4.7050
 3.0720	 4.6630
 3.0740	 4.9210
 3.0760	 4.9900
 3.0770	 4.8680
 3.0790	 4.5560
 3.0810	 4.6920
 3.0830	 4.8690
 3.0850	 4.9670
 3.0870	 4.7700
 3.0880	 4.6150
 3.0900	 4.6490
 3.0920	 4.6010
 3.0940	 4.5080
 3.0960	 4.8990
 3.0980	 4.8530
 3.0990	 4.6080
 3.1010	 4.5090
 3.1030	 4.7430
 3.1050	 4.7850
 3.1070	 4.6290
 3.1090	 4.5310
 3.1110	 4.5780
 3.1120	 4.6500
 3.1140	 4.9220
 3.1160	 4.9920
 3.1180	 4.7280
 3.1200	 4.4690
 3.1220	 4.5920
 3.1240	 4.6150
 3.1260	 4.5590
 3.1270	 4.3990
 3.1290	 4.3990
 3.1310	 4.3530
 3.1330	 4.3630
 3.1350	 4.5200
 3.1370	 4.5030
 3.1390	 4.4390
 3.1410	 4.7700
 3.1430	 4.3310
 3.1450	 4.3030
 3.1460	 4.7340
 3.1480	 4.8670
 3.1500	 4.5260
 3.1520	 4.4740
 3.1540	 4.4890
 3.1560	 4.6190
 3.1580	 4.7430
 3.1600	 5.0760
 3.1620	 4.5510
 3.1640	 4.4640
 3.1660	 5.2970
 3.1680	 5.0840
 3.1700	 4.2580
 3.1710	 3.5880
 3.1730	 3.2530
 3.1750	 3.7940
 3.1770	 4.2180
 3.1790	 4.1000
 3.1810	 4.7690
 3.1830	 5.4420
 3.1850	 4.6530
 3.1870	 4.3560
 3.1890	 4.8120
 3.1910	 4.7870
 3.1930	 4.5600
 3.1950	 4.4980
 3.1970	 4.4570
 3.1990	 4.6500
 3.2010	 4.5900
 3.2030	 4.4490
 3.2050	 4.4510
 3.2070	 4.5710
 3.2090	 4.5270
 3.2110	 4.6070
 3.2130	 4.5560
 3.2150	 4.5100
 3.2170	 4.5350
 3.2190	 4.5420
 3.2210	 4.4590
 3.2230	 4.4440
 3.2250	 4.4060
 3.2270	 4.4750
 3.2290	 4.4440
 3.2310	 4.4770
 3.2330	 4.4770
 3.2350	 4.4280
 3.2370	 4.3900
 3.2390	 4.4970
 3.2410	 4.5490
 3.2430	 4.4620
 3.2450	 4.2990
 3.2470	 4.3740
 3.2490	 4.4120
 3.2510	 4.4490
 3.2530	 4.4960
 3.2550	 4.5570
 3.2570	 4.3770
 3.2590	 4.2340
 3.2610	 4.2080
 3.2630	 4.3540
 3.2650	 4.3860
 3.2670	 4.3730
 3.2690	 4.4240
 3.2720	 4.5460
 3.2740	 4.5030
 3.2760	 4.4750
 3.2780	 4.4390
 3.2800	 4.3590
 3.2820	 4.2380
 3.2840	 4.2820
 3.2860	 4.2920
 3.2880	 4.2740
 3.2900	 4.2030
 3.2920	 4.2040
 3.2940	 4.1900
 3.2960	 4.1370
 3.2990	 4.1100
 3.3010	 4.1840
 3.3030	 4.1490
 3.3050	 4.1350
 3.3070	 4.1080
 3.3090	 4.2510
 3.3110	 4.2810
 3.3130	 4.2280
 3.3150	 4.1310
 3.3180	 4.1020
 3.3200	 4.1560
 3.3220	 4.1580
 3.3240	 4.1540
 3.3260	 4.1250
 3.3280	 4.0410
 3.3300	 4.0360
 3.3330	 4.0480
 3.3350	 4.1150
 3.3370	 4.0420
 3.3390	 3.9860
 3.3410	 4.0240
 3.3430	 4.0110
 3.3450	 3.9220
 3.3480	 3.9580
 3.3500	 4.0070
 3.3520	 4.1270
 3.3540	 4.0890
 3.3560	 4.0640
 3.3580	 3.9190
 3.3610	 3.8910
 3.3630	 3.8730
 3.3650	 3.8440
 3.3670	 3.7700
 3.3690	 3.8050
 3.3720	 3.7940
 3.3740	 3.8990
 3.3760	 3.8870
 3.3780	 3.8380
 3.3800	 3.8730
 3.3830	 3.9000
 3.3850	 3.9040
 3.3870	 3.9110
 3.3890	 3.9210
 3.3910	 3.9510
 3.3940	 3.8590
 3.3960	 3.9090
 3.3980	 4.0030
 3.4000	 4.0860
 3.4020	 4.2260
 3.4050	 4.3910
 3.4070	 4.4240
 3.4090	 4.5400
 3.4110	 4.7400
 3.4140	 4.9190
 3.4160	 5.1710
 3.4180	 5.6400
 3.4200	 6.1890
 3.4230	 6.7950
 3.4250	 7.4720
 3.4270	 8.3380
 3.4290	 8.9140
 3.4320	 8.6450
 3.4340	 7.7040
 3.4360	 6.9820
 3.4390	 6.5720
 3.4410	 6.3050
 3.4430	 6.0820
 3.4450	 5.8780
 3.4480	 5.7750
 3.4500	 5.7530
 3.4520	 5.5830
 3.4550	 5.5510
 3.4570	 5.5330
 3.4590	 5.4850
 3.4620	 5.4280
 3.4640	 5.4560
 3.4660	 5.3920
 3.4680	 5.3800
 3.4710	 5.2910
 3.4730	 5.1890
 3.4750	 5.0880
 3.4780	 5.0080
 3.4800	 4.9310
 3.4820	 4.8590
 3.4850	 4.7800
 3.4870	 4.8220
 3.4890	 4.7950
 3.4920	 4.8010
 3.4940	 4.8580
 3.4970	 4.9750
 3.4990	 5.0770
 3.5010	 5.2400
 3.5040	 5.5240
 3.5060	 6.1960
 3.5080	 7.1380
 3.5110	 8.0590
 3.5130	 8.0050
 3.5160	 7.1550
 3.5180	 6.3660
 3.5200	 6.0450
 3.5230	 5.8690
 3.5250	 5.8040
 3.5270	 5.7470
 3.5300	 5.6390
 3.5320	 5.5380
 3.5350	 5.4670
 3.5370	 5.3750
 3.5400	 5.3380
 3.5420	 5.2510
 3.5440	 5.2920
 3.5470	 5.2860
 3.5490	 5.2070
 3.5520	 5.2220
 3.5540	 5.2970
 3.5570	 5.2130
 3.5590	 5.1890
 3.5610	 5.1940
 3.5640	 5.2290
 3.5660	 5.2540
 3.5690	 5.1910
 3.5710	 4.9730
 3.5740	 5.0020
 3.5760	 5.0970
 3.5790	 5.2210
 3.5810	 5.2260
 3.5840	 5.1350
 3.5860	 5.0650
 3.5890	 5.0390
 3.5910	 4.9690
 3.5930	 4.9500
 3.5960	 4.8220
 3.5980	 4.8750
 3.6010	 4.9320
 3.6030	 4.9460
 3.6060	 4.9640
 3.6080	 4.9530
 3.6110	 4.9970
 3.6140	 5.0320
 3.6160	 5.0670
 3.6190	 5.0780
 3.6210	 5.0020
 3.6240	 4.9630
 3.6260	 4.9560
 3.6290	 4.9590
 3.6310	 4.9020
 3.6340	 4.8840
 3.6360	 4.8740
 3.6390	 4.9490
 3.6410	 4.9110
 3.6440	 4.8810
 3.6470	 4.8600
 3.6490	 4.8790
 3.6520	 4.8890
 3.6540	 4.9210
 3.6570	 4.8900
 3.6590	 4.9310
 3.6620	 4.9040
 3.6650	 4.9090
 3.6670	 4.8920
 3.6700	 4.9170
 3.6720	 4.9270
 3.6750	 4.9410
 3.6780	 4.9400
 3.6800	 4.9470
 3.6830	 4.9140
 3.6850	 4.9230
 3.6880	 4.8750
 3.6910	 4.8420
 3.6930	 4.8020
 3.6960	 4.8640
 3.6990	 4.9040
 3.7010	 4.8820
 3.7040	 4.8290
 3.7060	 4.8380
 3.7090	 4.8850
 3.7120	 4.9160
 3.7140	 4.8880
 3.7170	 4.8860
 3.7200	 4.8740
 3.7220	 4.8110
 3.7250	 4.7650
 3.7280	 4.7910
 3.7300	 4.8280
 3.7330	 4.8150
 3.7360	 4.8450
 3.7390	 4.9590
 3.7410	 4.9690
 3.7440	 4.9400
 3.7470	 4.9210
 3.7490	 5.0270
 3.7520	 4.9110
 3.7550	 4.8640
 3.7580	 4.8940
 3.7600	 4.8550
 3.7630	 4.7310
 3.7660	 4.7520
 3.7680	 4.7560
 3.7710	 4.8330
 3.7740	 4.8420
 3.7770	 4.8350
 3.7790	 4.8210
 3.7820	 4.8590
 3.7850	 4.8410
 3.7880	 4.8260
 3.7900	 4.8470
 3.7930	 4.9260
 3.7960	 4.9150
 3.7990	 4.9010
 3.8020	 4.8920
 3.8040	 4.9000
 3.8070	 4.8430
 3.8100	 4.8590
 3.8130	 4.8830
 3.8160	 4.9240
 3.8180	 4.8450
 3.8210	 4.8010
 3.8240	 4.8420
 3.8270	 4.8920
 3.8300	 4.8810
 3.8330	 4.9720
 3.8350	 4.9670
 3.8380	 4.9330
 3.8410	 4.8610
 3.8440	 4.8310
 3.8470	 4.8200
 3.8500	 4.8780
 3.8520	 4.9220
 3.8550	 4.9420
 3.8580	 4.9090
 3.8610	 4.9180
 3.8640	 4.8720
 3.8670	 4.8510
 3.8700	 4.8300
 3.8730	 4.8830
 3.8750	 4.8850
 3.8780	 4.8990
 3.8810	 4.9250
 3.8840	 4.9150
 3.8870	 4.8610
 3.8900	 4.8820
 3.8930	 4.8720
 3.8960	 4.8710
 3.8990	 4.8890
 3.9020	 4.8900
 3.9050	 4.8590
 3.9080	 4.9170
 3.9110	 4.9130
 3.9140	 4.8860
 3.9160	 4.8430
 3.9190	 4.8830
 3.9220	 4.9160
 3.9250	 4.9410
 3.9280	 4.9550
 3.9310	 4.9640
 3.9340	 4.9680
 3.9370	 5.0050
 3.9400	 4.9660
 3.9430	 4.9670
 3.9460	 4.9430
 3.9490	 4.9320
 3.9520	 4.8870
 3.9550	 4.8880
 3.9580	 4.8920
 3.9610	 4.9150
 3.9640	 4.8940
 3.9670	 4.9490
 3.9700	 4.9700
 3.9730	 4.9780
 3.9770	 4.9340
 3.9800	 4.9140
 3.9830	 4.9060
 3.9860	 4.9410
 3.9890	 4.9440
 3.9920	 4.9520
 3.9950	 4.9300
 3.9980	 4.9790
 4.0010	 4.9790
 4.0040	 4.9420
 4.0070	 4.8810
 4.0100	 4.8750
 4.0130	 4.9260
 4.0170	 4.9430
 4.0200	 4.9270
 4.0230	 4.9190
 4.0260	 4.8470
 4.0290	 4.8310
 4.0320	 4.8630
 4.0350	 4.9240
 4.0380	 4.9170
 4.0420	 4.9070
 4.0450	 4.9200
 4.0480	 4.9340
 4.0510	 4.9270
 4.0540	 4.9630
 4.0570	 4.9430
 4.0610	 5.0010
 4.0640	 4.9920
 4.0670	 4.9440
 4.0700	 4.9580
 4.0730	 4.9710
 4.0770	 4.9980
 4.0800	 4.9890
 4.0830	 4.9310
 4.0860	 4.9590
 4.0890	 4.9800
 4.0930	 4.9330
 4.0960	 4.8530
 4.0990	 4.9090
 4.1020	 4.9440
 4.1060	 4.8590
 4.1090	 4.8470
 4.1120	 4.8950
 4.1150	 4.9190
 4.1190	 4.8860
 4.1220	 4.8510
 4.1250	 4.8890
 4.1280	 4.8760
 4.1320	 4.8230
 4.1350	 4.8300
 4.1380	 4.8940
 4.1420	 4.8360
 4.1450	 4.8450
 4.1480	 4.9130
 4.1520	 4.9050
 4.1550	 4.8630
 4.1580	 4.8830
 4.1620	 4.8810
 4.1650	 4.8740
 4.1680	 4.8630
 4.1720	 4.8330
 4.1750	 4.8160
 4.1780	 4.8780
 4.1820	 4.8800
 4.1850	 4.8840
 4.1890	 4.8790
 4.1920	 4.8280
 4.1950	 4.8150
 4.1990	 4.8470
 4.2020	 4.8420
 4.2060	 4.8170
 4.2090	 4.7630
 4.2120	 4.7900
 4.2160	 4.8330
 4.2190	 4.6850
 4.2230	 4.5800
 4.2260	 4.7520
 4.2300	 4.7620
 4.2330	 4.8230
 4.2360	 4.7780
 4.2400	 4.6000
 4.2430	 4.5100
 4.2470	 4.4880
 4.2500	 4.6010
 4.2540	 4.7830
 4.2570	 4.8400
 4.2610	 4.7960
 4.2640	 4.6680
 4.2680	 4.7250
 4.2710	 4.8410
 4.2750	 4.8990
 4.2780	 4.8230
 4.2820	 4.8260
 4.2850	 4.7840
 4.2890	 4.7240
 4.2930	 4.7090
 4.2960	 4.6560
 4.3000	 4.7010
 4.3030	 4.7310
 4.3070	 4.6910
 4.3100	 4.6360
 4.3140	 4.6680
 4.3180	 4.7570
 4.3210	 4.7630
 4.3250	 4.6600
 4.3280	 4.6310
 4.3320	 4.6590
 4.3360	 4.7330
 4.3390	 4.7880
 4.3430	 4.7600
 4.3470	 4.6990
 4.3500	 4.6640
 4.3540	 4.6630
 4.3570	 4.7050
 4.3610	 4.7430
 4.3650	 4.6960
 4.3680	 4.6960
 4.3720	 4.6840
 4.3760	 4.6770
 4.3800	 4.6750
 4.3830	 4.6600
 4.3870	 4.6700
 4.3910	 4.6750
 4.3940	 4.6350
 4.3980	 4.6520
 4.4020	 4.6610
 4.4060	 4.6890
 4.4090	 4.6540
 4.4130	 4.6640
 4.4170	 4.7180
 4.4210	 4.7030
 4.4240	 4.6470
 4.4280	 4.6390
 4.4320	 4.6540
 4.4360	 4.6730
 4.4400	 4.6650
 4.4430	 4.6460
 4.4470	 4.6170
 4.4510	 4.6090
 4.4550	 4.6330
 4.4590	 4.6460
 4.4620	 4.6250
 4.4660	 4.6270
 4.4700	 4.6160
 4.4740	 4.6370
 4.4780	 4.6420
 4.4820	 4.6090
 4.4860	 4.6010
 4.4900	 4.6220
 4.4930	 4.6250
 4.4970	 4.5930
 4.5010	 4.6190
 4.5050	 4.6610
 4.5090	 4.6500
 4.5130	 4.6020
 4.5170	 4.5900
 4.5210	 4.6310
 4.5250	 4.6790
 4.5290	 4.6670
 4.5330	 4.6320
 4.5370	 4.6380
 4.5410	 4.6140
 4.5450	 4.5930
 4.5490	 4.6360
 4.5530	 4.6170
 4.5570	 4.6100
 4.5610	 4.6380
 4.5650	 4.6780
 4.5690	 4.6680
 4.5730	 4.6030
 4.5770	 4.5810
 4.5810	 4.5590
 4.5850	 4.6080
 4.5890	 4.6790
 4.5930	 4.6400
 4.5970	 4.6030
 4.6010	 4.5940
 4.6050	 4.6650
 4.6090	 4.7870
 4.6130	 4.7400
 4.6170	 4.6650
 4.6220	 4.6740
 4.6260	 4.6180
 4.6300	 4.5710
 4.6340	 4.5040
 4.6380	 4.5060
 4.6420	 4.5870
 4.6460	 4.5800
 4.6510	 4.5340
 4.6550	 4.5600
 4.6590	 4.5930
 4.6630	 4.6030
 4.6670	 4.5630
 4.6720	 4.5230
 4.6760	 4.5390
 4.6800	 4.6010
 4.6840	 4.6210
 4.6880	 4.5750
 4.6930	 4.4990
 4.6970	 4.5040
 4.7010	 4.5650
 4.7050	 4.6220
 4.7100	 4.6310
 4.7140	 4.5520
 4.7180	 4.5200
 4.7230	 4.5400
 4.7270	 4.5320
 4.7310	 4.5960
 4.7360	 4.5750
 4.7400	 4.5770
 4.7440	 4.6170
 4.7490	 4.5850
 4.7530	 4.5540
 4.7570	 4.5410
 4.7620	 4.5560
 4.7660	 4.5990
 4.7700	 4.5850
 4.7750	 4.5440
 4.7790	 4.5180
 4.7840	 4.5320
 4.7880	 4.5090
 4.7920	 4.4940
 4.7970	 4.4850
 4.8010	 4.5000
 4.8060	 4.5270
 4.8100	 4.5850
 4.8150	 4.6000
 4.8190	 4.5740
 4.8240	 4.5650
 4.8280	 4.6060
 4.8330	 4.5420
 4.8370	 4.5120
 4.8420	 4.5110
 4.8460	 4.5120
 4.8510	 4.5420
 4.8550	 4.5440
 4.8600	 4.5520
 4.8640	 4.5350
 4.8690	 4.5340
 4.8730	 4.5730
 4.8780	 4.5640
 4.8830	 4.5330
 4.8870	 4.5150
 4.8920	 4.5030
 4.8960	 4.5220
 4.9010	 4.5700
 4.9060	 4.5530
 4.9100	 4.5310
 4.9150	 4.5210
 4.9200	 4.5350
 4.9240	 4.5260
 4.9290	 4.5250
 4.9340	 4.5450
 4.9380	 4.5550
 4.9430	 4.5480
 4.9480	 4.5680
 4.9530	 4.5360
 4.9570	 4.5340
 4.9620	 4.5630
 4.9670	 4.5750
 4.9720	 4.5480
 4.9760	 4.5110
 4.9810	 4.5240
 4.9860	 4.5370
 4.9910	 4.5220
 4.9960	 4.5540
 5.0000	 4.5780
 5.0050	 4.5850
 5.0100	 4.5710
 5.0150	 4.5170
 5.0200	 4.4870
 5.0250	 4.5620
 5.0290	 4.6150
 5.0340	 4.5990
 5.0390	 4.5520
 5.0440	 4.5720
 5.0490	 4.5600
 5.0540	 4.5760
 5.0590	 4.5840
 5.0640	 4.6040
 5.0690	 4.6280
 5.0740	 4.6270
 5.0790	 4.5890
 5.0840	 4.5650
 5.0890	 4.5610
 5.0940	 4.6000
 5.0990	 4.5760
 5.1040	 4.5830
 5.1090	 4.6030
 5.1140	 4.6030
 5.1190	 4.5740
 5.1240	 4.5900
 5.1290	 4.5900
 5.1340	 4.5620
 5.1390	 4.5590
 5.1440	 4.5770
 5.1490	 4.5880
 5.1540	 4.6330
 5.1600	 4.5980
 5.1650	 4.6220
 5.1700	 4.6230
 5.1750	 4.6250
 5.1800	 4.6440
 5.1850	 4.5750
 5.1910	 4.4860
 5.1960	 4.5440
 5.2010	 4.5610
 5.2060	 4.5560
 5.2110	 4.5610
 5.2170	 4.6020
 5.2220	 4.6350
 5.2270	 4.6290
 5.2320	 4.5300
 5.2380	 4.5280
 5.2430	 4.6010
 5.2480	 4.6410
 5.2540	 4.5940
 5.2590	 4.5950
 5.2640	 4.6030
 5.2700	 4.5970
 5.2750	 4.5420
 5.2800	 4.5390
 5.2860	 4.5560
 5.2910	 4.5770
 5.2970	 4.5810
 5.3020	 4.6110
 5.3070	 4.5830
 5.3130	 4.5140
 5.3180	 4.4750
 5.3240	 4.5320
 5.3290	 4.5290
 5.3350	 4.5240
 5.3400	 4.4940
 5.3460	 4.5070
 5.3510	 4.5050
 5.3570	 4.5510
 5.3620	 4.5220
 5.3680	 4.4990
 5.3730	 4.5120
 5.3790	 4.5490
 5.3850	 4.4890
 5.3900	 4.4400
 5.3960	 4.4660
 5.4010	 4.4820
 5.4070	 4.4440
 5.4130	 4.4630
 5.4180	 4.4660
 5.4240	 4.4920
 5.4300	 4.4380
 5.4350	 4.4200
