Name: Arctostaphylos glandulosa 1
Type: vegetation
Class: Shrub
Genus: Arctostaphylos
Species: glandulosa
Sample No.: VH242
Owner: UCSB
Wavelength Range: VSWIR
Origin: 37.0432; -119.304; WGS84
Collection Date: 11/2/2013
Description: Samples were collected as part of the HyspIRI Airborne Campaign. 48 individual plants were sampled in three times in 2013 - spring  summer  and fall. The name of the sample includes a 1  2  or 3 which references a different individual of the species. Samples were taken to JPL and processed within 48 hours of collection. The same leaves were processed in the Nicolet and then measured using the ASD.
Measurement: Bidirectional reflectance
First Column: X
Second Column: Y
X Units: Wavelength (micrometers)
Y Units: Reflectance (percentage)
First X Value: 0.35
Last X Value: 2.5
Number of X Values: 2151
Additional Information: vegetation.shrub.arctostaphylos.glandulosa.vswir.vh242.ucsb.asd.ancillary.txt

 0.3500	 4.8450
 0.3510	 4.6500
 0.3520	 4.6350
 0.3530	 4.6010
 0.3540	 4.4180
 0.3550	 4.4610
 0.3560	 4.5940
 0.3570	 4.6840
 0.3580	 4.6330
 0.3590	 4.5260
 0.3600	 4.5790
 0.3610	 4.7220
 0.3620	 4.4900
 0.3630	 4.3780
 0.3640	 4.4300
 0.3650	 4.5290
 0.3660	 4.4490
 0.3670	 4.3710
 0.3680	 4.3480
 0.3690	 4.3380
 0.3700	 4.3860
 0.3710	 4.4110
 0.3720	 4.3880
 0.3730	 4.4140
 0.3740	 4.4210
 0.3750	 4.4060
 0.3760	 4.3840
 0.3770	 4.3620
 0.3780	 4.4100
 0.3790	 4.4730
 0.3800	 4.4060
 0.3810	 4.4220
 0.3820	 4.4760
 0.3830	 4.4990
 0.3840	 4.4590
 0.3850	 4.3980
 0.3860	 4.3650
 0.3870	 4.3890
 0.3880	 4.3810
 0.3890	 4.3330
 0.3900	 4.2900
 0.3910	 4.3420
 0.3920	 4.3950
 0.3930	 4.3950
 0.3940	 4.3500
 0.3950	 4.4000
 0.3960	 4.3910
 0.3970	 4.3440
 0.3980	 4.3510
 0.3990	 4.4020
 0.4000	 4.4210
 0.4010	 4.4020
 0.4020	 4.4220
 0.4030	 4.4410
 0.4040	 4.4550
 0.4050	 4.4700
 0.4060	 4.4910
 0.4070	 4.5000
 0.4080	 4.5040
 0.4090	 4.5220
 0.4100	 4.5440
 0.4110	 4.5670
 0.4120	 4.5880
 0.4130	 4.6080
 0.4140	 4.6290
 0.4150	 4.6640
 0.4160	 4.7140
 0.4170	 4.7230
 0.4180	 4.7380
 0.4190	 4.7710
 0.4200	 4.8010
 0.4210	 4.8140
 0.4220	 4.8260
 0.4230	 4.8520
 0.4240	 4.8820
 0.4250	 4.9150
 0.4260	 4.9520
 0.4270	 4.9900
 0.4280	 5.0100
 0.4290	 5.0310
 0.4300	 5.0610
 0.4310	 5.0850
 0.4320	 5.1110
 0.4330	 5.1370
 0.4340	 5.1610
 0.4350	 5.1940
 0.4360	 5.2260
 0.4370	 5.2550
 0.4380	 5.2880
 0.4390	 5.3210
 0.4400	 5.3500
 0.4410	 5.3730
 0.4420	 5.3970
 0.4430	 5.4250
 0.4440	 5.4550
 0.4450	 5.4810
 0.4460	 5.5160
 0.4470	 5.5390
 0.4480	 5.5520
 0.4490	 5.5810
 0.4500	 5.6050
 0.4510	 5.6300
 0.4520	 5.6630
 0.4530	 5.6890
 0.4540	 5.7120
 0.4550	 5.7350
 0.4560	 5.7580
 0.4570	 5.7840
 0.4580	 5.8100
 0.4590	 5.8330
 0.4600	 5.8430
 0.4610	 5.8610
 0.4620	 5.8820
 0.4630	 5.8980
 0.4640	 5.9130
 0.4650	 5.9290
 0.4660	 5.9440
 0.4670	 5.9570
 0.4680	 5.9750
 0.4690	 5.9840
 0.4700	 5.9810
 0.4710	 5.9960
 0.4720	 6.0140
 0.4730	 6.0250
 0.4740	 6.0280
 0.4750	 6.0330
 0.4760	 6.0400
 0.4770	 6.0470
 0.4780	 6.0540
 0.4790	 6.0630
 0.4800	 6.0710
 0.4810	 6.0750
 0.4820	 6.0730
 0.4830	 6.0740
 0.4840	 6.0800
 0.4850	 6.0950
 0.4860	 6.1080
 0.4870	 6.1220
 0.4880	 6.1400
 0.4890	 6.1600
 0.4900	 6.1850
 0.4910	 6.2120
 0.4920	 6.2390
 0.4930	 6.2650
 0.4940	 6.2940
 0.4950	 6.3290
 0.4960	 6.3740
 0.4970	 6.4210
 0.4980	 6.4730
 0.4990	 6.5320
 0.5000	 6.5930
 0.5010	 6.6600
 0.5020	 6.7350
 0.5030	 6.8140
 0.5040	 6.9060
 0.5050	 7.0030
 0.5060	 7.1010
 0.5070	 7.2140
 0.5080	 7.3430
 0.5090	 7.4810
 0.5100	 7.6190
 0.5110	 7.7760
 0.5120	 7.9450
 0.5130	 8.1200
 0.5140	 8.2990
 0.5150	 8.5000
 0.5160	 8.7140
 0.5170	 8.9310
 0.5180	 9.1570
 0.5190	 9.3910
 0.5200	 9.6310
 0.5210	 9.8720
 0.5220	10.1180
 0.5230	10.3660
 0.5240	10.6140
 0.5250	10.8570
 0.5260	11.0960
 0.5270	11.3280
 0.5280	11.5510
 0.5290	11.7610
 0.5300	11.9650
 0.5310	12.1660
 0.5320	12.3580
 0.5330	12.5420
 0.5340	12.7120
 0.5350	12.8680
 0.5360	13.0200
 0.5370	13.1650
 0.5380	13.2990
 0.5390	13.4210
 0.5400	13.5400
 0.5410	13.6560
 0.5420	13.7660
 0.5430	13.8670
 0.5440	13.9690
 0.5450	14.0700
 0.5460	14.1640
 0.5470	14.2530
 0.5480	14.3400
 0.5490	14.4250
 0.5500	14.5020
 0.5510	14.5620
 0.5520	14.6090
 0.5530	14.6470
 0.5540	14.6650
 0.5550	14.6660
 0.5560	14.6510
 0.5570	14.6220
 0.5580	14.5740
 0.5590	14.5100
 0.5600	14.4350
 0.5610	14.3420
 0.5620	14.2480
 0.5630	14.1470
 0.5640	14.0270
 0.5650	13.9100
 0.5660	13.7860
 0.5670	13.6510
 0.5680	13.5070
 0.5690	13.3530
 0.5700	13.2000
 0.5710	13.0540
 0.5720	12.9070
 0.5730	12.7590
 0.5740	12.6140
 0.5750	12.4730
 0.5760	12.3320
 0.5770	12.1980
 0.5780	12.0740
 0.5790	11.9610
 0.5800	11.8610
 0.5810	11.7690
 0.5820	11.6820
 0.5830	11.6000
 0.5840	11.5250
 0.5850	11.4510
 0.5860	11.3770
 0.5870	11.3130
 0.5880	11.2570
 0.5890	11.2040
 0.5900	11.1490
 0.5910	11.0930
 0.5920	11.0410
 0.5930	10.9970
 0.5940	10.9570
 0.5950	10.9220
 0.5960	10.8880
 0.5970	10.8550
 0.5980	10.8180
 0.5990	10.7790
 0.6000	10.7400
 0.6010	10.7040
 0.6020	10.6580
 0.6030	10.6020
 0.6040	10.5440
 0.6050	10.4800
 0.6060	10.4080
 0.6070	10.3320
 0.6080	10.2530
 0.6090	10.1710
 0.6100	10.0860
 0.6110	 9.9930
 0.6120	 9.9060
 0.6130	 9.8230
 0.6140	 9.7420
 0.6150	 9.6620
 0.6160	 9.5840
 0.6170	 9.5080
 0.6180	 9.4390
 0.6190	 9.3760
 0.6200	 9.3200
 0.6210	 9.2710
 0.6220	 9.2270
 0.6230	 9.1900
 0.6240	 9.1630
 0.6250	 9.1430
 0.6260	 9.1190
 0.6270	 9.1040
 0.6280	 9.0980
 0.6290	 9.0900
 0.6300	 9.0810
 0.6310	 9.0740
 0.6320	 9.0640
 0.6330	 9.0470
 0.6340	 9.0240
 0.6350	 8.9900
 0.6360	 8.9440
 0.6370	 8.8860
 0.6380	 8.8150
 0.6390	 8.7340
 0.6400	 8.6460
 0.6410	 8.5490
 0.6420	 8.4480
 0.6430	 8.3450
 0.6440	 8.2380
 0.6450	 8.1260
 0.6460	 8.0150
 0.6470	 7.9120
 0.6480	 7.8180
 0.6490	 7.7370
 0.6500	 7.6680
 0.6510	 7.6040
 0.6520	 7.5490
 0.6530	 7.4980
 0.6540	 7.4480
 0.6550	 7.3970
 0.6560	 7.3420
 0.6570	 7.2800
 0.6580	 7.2080
 0.6590	 7.1260
 0.6600	 7.0390
 0.6610	 6.9510
 0.6620	 6.8640
 0.6630	 6.7770
 0.6640	 6.6930
 0.6650	 6.6170
 0.6660	 6.5500
 0.6670	 6.4900
 0.6680	 6.4360
 0.6690	 6.3910
 0.6700	 6.3550
 0.6710	 6.3270
 0.6720	 6.3060
 0.6730	 6.2930
 0.6740	 6.2830
 0.6750	 6.2770
 0.6760	 6.2780
 0.6770	 6.2840
 0.6780	 6.2940
 0.6790	 6.3120
 0.6800	 6.3370
 0.6810	 6.3700
 0.6820	 6.4190
 0.6830	 6.4880
 0.6840	 6.5770
 0.6850	 6.6890
 0.6860	 6.8330
 0.6870	 7.0190
 0.6880	 7.2460
 0.6890	 7.5280
 0.6900	 7.8700
 0.6910	 8.2750
 0.6920	 8.7570
 0.6930	 9.3100
 0.6940	 9.9300
 0.6950	10.6330
 0.6960	11.4040
 0.6970	12.2340
 0.6980	13.1170
 0.6990	14.0630
 0.7000	15.0570
 0.7010	16.0890
 0.7020	17.1520
 0.7030	18.2440
 0.7040	19.3530
 0.7050	20.4730
 0.7060	21.6120
 0.7070	22.7410
 0.7080	23.8650
 0.7090	24.9980
 0.7100	26.1350
 0.7110	27.2640
 0.7120	28.3860
 0.7130	29.5070
 0.7140	30.6200
 0.7150	31.7230
 0.7160	32.8160
 0.7170	33.8970
 0.7180	34.9630
 0.7190	36.0110
 0.7200	37.0410
 0.7210	38.0580
 0.7220	39.0580
 0.7230	40.0340
 0.7240	40.9790
 0.7250	41.8940
 0.7260	42.7840
 0.7270	43.6490
 0.7280	44.4710
 0.7290	45.2590
 0.7300	46.0150
 0.7310	46.7340
 0.7320	47.4150
 0.7330	48.0770
 0.7340	48.7130
 0.7350	49.2940
 0.7360	49.8390
 0.7370	50.3610
 0.7380	50.8640
 0.7390	51.3330
 0.7400	51.7810
 0.7410	52.2000
 0.7420	52.5870
 0.7430	52.9640
 0.7440	53.3130
 0.7450	53.6310
 0.7460	53.9280
 0.7470	54.2010
 0.7480	54.4550
 0.7490	54.6910
 0.7500	54.9100
 0.7510	55.1120
 0.7520	55.2890
 0.7530	55.4420
 0.7540	55.6030
 0.7550	55.7430
 0.7560	55.8640
 0.7570	55.9930
 0.7580	56.0940
 0.7590	56.1950
 0.7600	56.3030
 0.7610	56.3680
 0.7620	56.4330
 0.7630	56.5050
 0.7640	56.5730
 0.7650	56.6040
 0.7660	56.6510
 0.7670	56.7070
 0.7680	56.7330
 0.7690	56.7670
 0.7700	56.8090
 0.7710	56.8510
 0.7720	56.8680
 0.7730	56.8950
 0.7740	56.9240
 0.7750	56.9430
 0.7760	56.9560
 0.7770	56.9750
 0.7780	56.9980
 0.7790	57.0190
 0.7800	57.0370
 0.7810	57.0450
 0.7820	57.0490
 0.7830	57.0690
 0.7840	57.0930
 0.7850	57.1130
 0.7860	57.1270
 0.7870	57.1370
 0.7880	57.1380
 0.7890	57.1410
 0.7900	57.1590
 0.7910	57.1750
 0.7920	57.1920
 0.7930	57.2080
 0.7940	57.2170
 0.7950	57.2390
 0.7960	57.2540
 0.7970	57.2560
 0.7980	57.2650
 0.7990	57.2800
 0.8000	57.3020
 0.8010	57.3270
 0.8020	57.3270
 0.8030	57.3340
 0.8040	57.3520
 0.8050	57.3740
 0.8060	57.3920
 0.8070	57.3970
 0.8080	57.4020
 0.8090	57.4290
 0.8100	57.4300
 0.8110	57.4390
 0.8120	57.4730
 0.8130	57.4910
 0.8140	57.5030
 0.8150	57.5220
 0.8160	57.5500
 0.8170	57.5550
 0.8180	57.5590
 0.8190	57.5760
 0.8200	57.6080
 0.8210	57.6280
 0.8220	57.6410
 0.8230	57.6510
 0.8240	57.6590
 0.8250	57.6800
 0.8260	57.6880
 0.8270	57.6800
 0.8280	57.6940
 0.8290	57.7100
 0.8300	57.7310
 0.8310	57.7590
 0.8320	57.7660
 0.8330	57.7810
 0.8340	57.7920
 0.8350	57.7790
 0.8360	57.7940
 0.8370	57.8150
 0.8380	57.8360
 0.8390	57.8630
 0.8400	57.8630
 0.8410	57.8720
 0.8420	57.9040
 0.8430	57.9300
 0.8440	57.9710
 0.8450	58.0010
 0.8460	58.0090
 0.8470	58.0270
 0.8480	58.0400
 0.8490	58.0510
 0.8500	58.0680
 0.8510	58.0760
 0.8520	58.0970
 0.8530	58.1320
 0.8540	58.1650
 0.8550	58.1510
 0.8560	58.1430
 0.8570	58.1670
 0.8580	58.2020
 0.8590	58.2200
 0.8600	58.2240
 0.8610	58.2260
 0.8620	58.2410
 0.8630	58.2530
 0.8640	58.2730
 0.8650	58.3020
 0.8660	58.2900
 0.8670	58.2880
 0.8680	58.2930
 0.8690	58.2940
 0.8700	58.3130
 0.8710	58.3310
 0.8720	58.3350
 0.8730	58.3240
 0.8740	58.3280
 0.8750	58.3390
 0.8760	58.3460
 0.8770	58.3380
 0.8780	58.3410
 0.8790	58.3330
 0.8800	58.3210
 0.8810	58.3600
 0.8820	58.3590
 0.8830	58.3460
 0.8840	58.3500
 0.8850	58.3420
 0.8860	58.3330
 0.8870	58.3320
 0.8880	58.3400
 0.8890	58.3390
 0.8900	58.3220
 0.8910	58.2940
 0.8920	58.2740
 0.8930	58.2880
 0.8940	58.3010
 0.8950	58.2990
 0.8960	58.2870
 0.8970	58.2740
 0.8980	58.2500
 0.8990	58.2320
 0.9000	58.2560
 0.9010	58.2460
 0.9020	58.2300
 0.9030	58.2250
 0.9040	58.2060
 0.9050	58.1850
 0.9060	58.1750
 0.9070	58.1760
 0.9080	58.1580
 0.9090	58.1330
 0.9100	58.1230
 0.9110	58.1320
 0.9120	58.1250
 0.9130	58.0960
 0.9140	58.0690
 0.9150	58.0620
 0.9160	58.0470
 0.9170	58.0260
 0.9180	58.0120
 0.9190	58.0140
 0.9200	57.9960
 0.9210	57.9680
 0.9220	57.9350
 0.9230	57.9020
 0.9240	57.8830
 0.9250	57.8630
 0.9260	57.8410
 0.9270	57.8270
 0.9280	57.8000
 0.9290	57.7600
 0.9300	57.7110
 0.9310	57.6590
 0.9320	57.6130
 0.9330	57.5830
 0.9340	57.5590
 0.9350	57.5110
 0.9360	57.4500
 0.9370	57.3840
 0.9380	57.3230
 0.9390	57.2780
 0.9400	57.2230
 0.9410	57.1610
 0.9420	57.0980
 0.9430	57.0340
 0.9440	56.9700
 0.9450	56.9100
 0.9460	56.8410
 0.9470	56.7290
 0.9480	56.6160
 0.9490	56.5100
 0.9500	56.4060
 0.9510	56.2940
 0.9520	56.1830
 0.9530	56.0610
 0.9540	55.9210
 0.9550	55.7900
 0.9560	55.6770
 0.9570	55.5590
 0.9580	55.4220
 0.9590	55.3040
 0.9600	55.2080
 0.9610	55.1280
 0.9620	55.0570
 0.9630	55.0100
 0.9640	54.9720
 0.9650	54.9250
 0.9660	54.8650
 0.9670	54.8200
 0.9680	54.8140
 0.9690	54.8250
 0.9700	54.8190
 0.9710	54.8100
 0.9720	54.7650
 0.9730	54.7230
 0.9740	54.7330
 0.9750	54.7490
 0.9760	54.7710
 0.9770	54.7930
 0.9780	54.8080
 0.9790	54.8280
 0.9800	54.8400
 0.9810	54.8360
 0.9820	54.8240
 0.9830	54.8710
 0.9840	54.9300
 0.9850	54.9840
 0.9860	55.0380
 0.9870	55.0700
 0.9880	55.1150
 0.9890	55.1770
 0.9900	55.2380
 0.9910	55.2860
 0.9920	55.3200
 0.9930	55.3660
 0.9940	55.4490
 0.9950	55.5250
 0.9960	55.5540
 0.9970	55.5810
 0.9980	55.6710
 0.9990	55.7670
 1.0000	55.6360
 1.0010	55.2500
 1.0020	55.1120
 1.0030	55.1680
 1.0040	55.2260
 1.0050	55.2950
 1.0060	55.3600
 1.0070	55.4200
 1.0080	55.4790
 1.0090	55.5320
 1.0100	55.5880
 1.0110	55.6460
 1.0120	55.7040
 1.0130	55.7640
 1.0140	55.8220
 1.0150	55.8780
 1.0160	55.9350
 1.0170	55.9940
 1.0180	56.0510
 1.0190	56.1130
 1.0200	56.1720
 1.0210	56.2270
 1.0220	56.2830
 1.0230	56.3360
 1.0240	56.3870
 1.0250	56.4370
 1.0260	56.4840
 1.0270	56.5310
 1.0280	56.5750
 1.0290	56.6210
 1.0300	56.6710
 1.0310	56.7170
 1.0320	56.7600
 1.0330	56.8060
 1.0340	56.8510
 1.0350	56.8950
 1.0360	56.9410
 1.0370	56.9820
 1.0380	57.0210
 1.0390	57.0540
 1.0400	57.0950
 1.0410	57.1400
 1.0420	57.1810
 1.0430	57.2250
 1.0440	57.2630
 1.0450	57.2960
 1.0460	57.3270
 1.0470	57.3520
 1.0480	57.3810
 1.0490	57.4110
 1.0500	57.4370
 1.0510	57.4630
 1.0520	57.4910
 1.0530	57.5140
 1.0540	57.5330
 1.0550	57.5540
 1.0560	57.5770
 1.0570	57.5960
 1.0580	57.6120
 1.0590	57.6290
 1.0600	57.6440
 1.0610	57.6600
 1.0620	57.6800
 1.0630	57.6920
 1.0640	57.6960
 1.0650	57.7050
 1.0660	57.7110
 1.0670	57.7180
 1.0680	57.7260
 1.0690	57.7380
 1.0700	57.7450
 1.0710	57.7500
 1.0720	57.7540
 1.0730	57.7580
 1.0740	57.7570
 1.0750	57.7480
 1.0760	57.7450
 1.0770	57.7410
 1.0780	57.7350
 1.0790	57.7310
 1.0800	57.7260
 1.0810	57.7180
 1.0820	57.7090
 1.0830	57.7010
 1.0840	57.6890
 1.0850	57.6700
 1.0860	57.6540
 1.0870	57.6380
 1.0880	57.6200
 1.0890	57.6030
 1.0900	57.5910
 1.0910	57.5720
 1.0920	57.5540
 1.0930	57.5310
 1.0940	57.5030
 1.0950	57.4730
 1.0960	57.4380
 1.0970	57.4070
 1.0980	57.3770
 1.0990	57.3480
 1.1000	57.3240
 1.1010	57.2960
 1.1020	57.2670
 1.1030	57.2360
 1.1040	57.2020
 1.1050	57.1670
 1.1060	57.1320
 1.1070	57.0960
 1.1080	57.0610
 1.1090	57.0280
 1.1100	56.9910
 1.1110	56.9550
 1.1120	56.9150
 1.1130	56.8720
 1.1140	56.8270
 1.1150	56.7820
 1.1160	56.7310
 1.1170	56.6810
 1.1180	56.6220
 1.1190	56.5580
 1.1200	56.4890
 1.1210	56.4130
 1.1220	56.3300
 1.1230	56.2420
 1.1240	56.1450
 1.1250	56.0370
 1.1260	55.9240
 1.1270	55.7930
 1.1280	55.6490
 1.1290	55.4920
 1.1300	55.3260
 1.1310	55.1410
 1.1320	54.9420
 1.1330	54.7280
 1.1340	54.4970
 1.1350	54.2540
 1.1360	53.9980
 1.1370	53.7270
 1.1380	53.4420
 1.1390	53.1520
 1.1400	52.8540
 1.1410	52.5580
 1.1420	52.2630
 1.1430	51.9650
 1.1440	51.6700
 1.1450	51.3720
 1.1460	51.0860
 1.1470	50.7990
 1.1480	50.5300
 1.1490	50.2680
 1.1500	50.0250
 1.1510	49.7910
 1.1520	49.5770
 1.1530	49.3790
 1.1540	49.1970
 1.1550	49.0300
 1.1560	48.8790
 1.1570	48.7420
 1.1580	48.6210
 1.1590	48.5140
 1.1600	48.4190
 1.1610	48.3340
 1.1620	48.2570
 1.1630	48.1900
 1.1640	48.1290
 1.1650	48.0770
 1.1660	48.0360
 1.1670	47.9960
 1.1680	47.9650
 1.1690	47.9330
 1.1700	47.9030
 1.1710	47.8730
 1.1720	47.8440
 1.1730	47.8140
 1.1740	47.7850
 1.1750	47.7540
 1.1760	47.7250
 1.1770	47.6940
 1.1780	47.6590
 1.1790	47.6250
 1.1800	47.5880
 1.1810	47.5500
 1.1820	47.5110
 1.1830	47.4700
 1.1840	47.4320
 1.1850	47.3930
 1.1860	47.3550
 1.1870	47.3180
 1.1880	47.2830
 1.1890	47.2480
 1.1900	47.2160
 1.1910	47.1890
 1.1920	47.1620
 1.1930	47.1360
 1.1940	47.1140
 1.1950	47.0940
 1.1960	47.0750
 1.1970	47.0610
 1.1980	47.0500
 1.1990	47.0460
 1.2000	47.0480
 1.2010	47.0550
 1.2020	47.0670
 1.2030	47.0840
 1.2040	47.1050
 1.2050	47.1360
 1.2060	47.1740
 1.2070	47.2170
 1.2080	47.2620
 1.2090	47.3110
 1.2100	47.3630
 1.2110	47.4180
 1.2120	47.4760
 1.2130	47.5390
 1.2140	47.6050
 1.2150	47.6740
 1.2160	47.7480
 1.2170	47.8210
 1.2180	47.8980
 1.2190	47.9760
 1.2200	48.0550
 1.2210	48.1370
 1.2220	48.2190
 1.2230	48.2980
 1.2240	48.3790
 1.2250	48.4590
 1.2260	48.5370
 1.2270	48.6140
 1.2280	48.6890
 1.2290	48.7590
 1.2300	48.8280
 1.2310	48.8950
 1.2320	48.9630
 1.2330	49.0290
 1.2340	49.0930
 1.2350	49.1560
 1.2360	49.2150
 1.2370	49.2700
 1.2380	49.3250
 1.2390	49.3810
 1.2400	49.4320
 1.2410	49.4840
 1.2420	49.5350
 1.2430	49.5840
 1.2440	49.6330
 1.2450	49.6790
 1.2460	49.7200
 1.2470	49.7620
 1.2480	49.8020
 1.2490	49.8380
 1.2500	49.8740
 1.2510	49.9080
 1.2520	49.9390
 1.2530	49.9700
 1.2540	50.0000
 1.2550	50.0260
 1.2560	50.0510
 1.2570	50.0750
 1.2580	50.0970
 1.2590	50.1160
 1.2600	50.1330
 1.2610	50.1490
 1.2620	50.1620
 1.2630	50.1730
 1.2640	50.1820
 1.2650	50.1920
 1.2660	50.1980
 1.2670	50.2000
 1.2680	50.2010
 1.2690	50.1990
 1.2700	50.1930
 1.2710	50.1880
 1.2720	50.1820
 1.2730	50.1700
 1.2740	50.1580
 1.2750	50.1440
 1.2760	50.1270
 1.2770	50.1100
 1.2780	50.0870
 1.2790	50.0640
 1.2800	50.0390
 1.2810	50.0100
 1.2820	49.9820
 1.2830	49.9510
 1.2840	49.9160
 1.2850	49.8770
 1.2860	49.8310
 1.2870	49.7830
 1.2880	49.7290
 1.2890	49.6720
 1.2900	49.6150
 1.2910	49.5560
 1.2920	49.4910
 1.2930	49.4260
 1.2940	49.3550
 1.2950	49.2780
 1.2960	49.1980
 1.2970	49.1140
 1.2980	49.0220
 1.2990	48.9260
 1.3000	48.8270
 1.3010	48.7200
 1.3020	48.6070
 1.3030	48.4920
 1.3040	48.3730
 1.3050	48.2490
 1.3060	48.1210
 1.3070	47.9870
 1.3080	47.8470
 1.3090	47.7050
 1.3100	47.5580
 1.3110	47.4030
 1.3120	47.2430
 1.3130	47.0790
 1.3140	46.9110
 1.3150	46.7410
 1.3160	46.5640
 1.3170	46.3850
 1.3180	46.1980
 1.3190	46.0060
 1.3200	45.8090
 1.3210	45.6050
 1.3220	45.3980
 1.3230	45.1870
 1.3240	44.9730
 1.3250	44.7580
 1.3260	44.5360
 1.3270	44.3090
 1.3280	44.0790
 1.3290	43.8470
 1.3300	43.6150
 1.3310	43.3840
 1.3320	43.1490
 1.3330	42.9130
 1.3340	42.6770
 1.3350	42.4410
 1.3360	42.2060
 1.3370	41.9720
 1.3380	41.7410
 1.3390	41.5100
 1.3400	41.2800
 1.3410	41.0570
 1.3420	40.8360
 1.3430	40.6150
 1.3440	40.3990
 1.3450	40.1840
 1.3460	39.9700
 1.3470	39.7610
 1.3480	39.5560
 1.3490	39.3540
 1.3500	39.1560
 1.3510	38.9590
 1.3520	38.7630
 1.3530	38.5720
 1.3540	38.3810
 1.3550	38.1920
 1.3560	38.0020
 1.3570	37.8080
 1.3580	37.6140
 1.3590	37.4150
 1.3600	37.2130
 1.3610	37.0060
 1.3620	36.7930
 1.3630	36.5730
 1.3640	36.3420
 1.3650	36.1010
 1.3660	35.8520
 1.3670	35.5910
 1.3680	35.3180
 1.3690	35.0340
 1.3700	34.7310
 1.3710	34.4140
 1.3720	34.0840
 1.3730	33.7330
 1.3740	33.3680
 1.3750	32.9830
 1.3760	32.5750
 1.3770	32.1480
 1.3780	31.6950
 1.3790	31.2190
 1.3800	30.7220
 1.3810	30.1980
 1.3820	29.6610
 1.3830	29.1060
 1.3840	28.5360
 1.3850	27.9490
 1.3860	27.3580
 1.3870	26.7480
 1.3880	26.1440
 1.3890	25.5350
 1.3900	24.9250
 1.3910	24.3240
 1.3920	23.7260
 1.3930	23.1320
 1.3940	22.5490
 1.3950	21.9720
 1.3960	21.4100
 1.3970	20.8660
 1.3980	20.3380
 1.3990	19.8360
 1.4000	19.3520
 1.4010	18.8860
 1.4020	18.4460
 1.4030	18.0230
 1.4040	17.6230
 1.4050	17.2460
 1.4060	16.8900
 1.4070	16.5590
 1.4080	16.2480
 1.4090	15.9560
 1.4100	15.6860
 1.4110	15.4320
 1.4120	15.1990
 1.4130	14.9830
 1.4140	14.7830
 1.4150	14.6010
 1.4160	14.4320
 1.4170	14.2750
 1.4180	14.1310
 1.4190	13.9980
 1.4200	13.8770
 1.4210	13.7670
 1.4220	13.6670
 1.4230	13.5770
 1.4240	13.4950
 1.4250	13.4210
 1.4260	13.3540
 1.4270	13.2930
 1.4280	13.2380
 1.4290	13.1900
 1.4300	13.1480
 1.4310	13.1100
 1.4320	13.0800
 1.4330	13.0520
 1.4340	13.0280
 1.4350	13.0080
 1.4360	12.9930
 1.4370	12.9830
 1.4380	12.9760
 1.4390	12.9720
 1.4400	12.9700
 1.4410	12.9700
 1.4420	12.9730
 1.4430	12.9780
 1.4440	12.9850
 1.4450	12.9940
 1.4460	13.0050
 1.4470	13.0170
 1.4480	13.0300
 1.4490	13.0440
 1.4500	13.0580
 1.4510	13.0730
 1.4520	13.0920
 1.4530	13.1110
 1.4540	13.1320
 1.4550	13.1550
 1.4560	13.1790
 1.4570	13.2060
 1.4580	13.2350
 1.4590	13.2660
 1.4600	13.3020
 1.4610	13.3400
 1.4620	13.3810
 1.4630	13.4260
 1.4640	13.4750
 1.4650	13.5280
 1.4660	13.5850
 1.4670	13.6470
 1.4680	13.7130
