Name: Jacaranda mimosifolia
Type: vegetation
Class: Tree
Genus: Jacaranda
Species: mimosifolia
Sample No.: JPL204
Owner: JPL
Wavelength Range: VSWIR
Origin: 34.12571; -118.11267; WGS84
Collection Date: 10/3/2016
Description: Samples were collected at the Huntington Garden in San Marino California as part of a JPL Subcontract studying HyTES imagery. Samples were taken to JPL and processed within 48 hours of collection. The same leaves were processed in the Nicolet and then measured using the ASD.
Measurement: Bidirectional reflectance
First Column: X
Second Column: Y
X Units: Wavelength (micrometer)
Y Units: Reflectance (percentage)
First X Value: 0.35
Last X Value: 2.5
Number of X Values: 2151
Additional Information: vegetation.tree.jacaranda.mimosifolia.vswir.jpl204.jpl.asd.ancillary.txt

 0.3500	 3.3310
 0.3510	 3.2030
 0.3520	 3.1470
 0.3530	 3.1430
 0.3540	 3.1300
 0.3550	 3.1180
 0.3560	 3.0960
 0.3570	 3.0940
 0.3580	 3.1530
 0.3590	 3.2310
 0.3600	 3.2240
 0.3610	 3.1340
 0.3620	 3.1130
 0.3630	 3.0460
 0.3640	 3.0160
 0.3650	 3.0870
 0.3660	 3.0570
 0.3670	 3.0850
 0.3680	 3.1580
 0.3690	 3.1480
 0.3700	 3.0800
 0.3710	 3.0350
 0.3720	 3.0320
 0.3730	 2.9730
 0.3740	 2.9620
 0.3750	 2.9850
 0.3760	 3.0050
 0.3770	 3.0580
 0.3780	 3.0500
 0.3790	 2.9860
 0.3800	 2.9630
 0.3810	 2.9830
 0.3820	 3.0090
 0.3830	 3.0080
 0.3840	 2.9660
 0.3850	 2.9770
 0.3860	 2.9920
 0.3870	 2.9370
 0.3880	 2.9070
 0.3890	 2.9340
 0.3900	 2.9870
 0.3910	 2.9680
 0.3920	 2.9460
 0.3930	 2.9460
 0.3940	 2.9680
 0.3950	 2.9800
 0.3960	 2.9820
 0.3970	 2.9690
 0.3980	 2.9380
 0.3990	 2.9160
 0.4000	 2.9250
 0.4010	 2.9540
 0.4020	 2.9470
 0.4030	 2.9360
 0.4040	 2.9240
 0.4050	 2.9120
 0.4060	 2.9200
 0.4070	 2.9270
 0.4080	 2.9230
 0.4090	 2.9100
 0.4100	 2.9230
 0.4110	 2.9370
 0.4120	 2.9380
 0.4130	 2.9400
 0.4140	 2.9350
 0.4150	 2.9340
 0.4160	 2.9470
 0.4170	 2.9510
 0.4180	 2.9550
 0.4190	 2.9670
 0.4200	 2.9960
 0.4210	 3.0030
 0.4220	 3.0020
 0.4230	 3.0090
 0.4240	 3.0230
 0.4250	 3.0440
 0.4260	 3.0660
 0.4270	 3.0800
 0.4280	 3.0940
 0.4290	 3.1120
 0.4300	 3.1320
 0.4310	 3.1430
 0.4320	 3.1520
 0.4330	 3.1660
 0.4340	 3.1840
 0.4350	 3.1930
 0.4360	 3.2010
 0.4370	 3.2110
 0.4380	 3.2170
 0.4390	 3.2360
 0.4400	 3.2620
 0.4410	 3.2840
 0.4420	 3.2860
 0.4430	 3.2870
 0.4440	 3.3000
 0.4450	 3.3270
 0.4460	 3.3420
 0.4470	 3.3480
 0.4480	 3.3510
 0.4490	 3.3560
 0.4500	 3.3750
 0.4510	 3.3910
 0.4520	 3.3920
 0.4530	 3.3980
 0.4540	 3.4080
 0.4550	 3.4200
 0.4560	 3.4300
 0.4570	 3.4300
 0.4580	 3.4320
 0.4590	 3.4420
 0.4600	 3.4460
 0.4610	 3.4560
 0.4620	 3.4660
 0.4630	 3.4710
 0.4640	 3.4670
 0.4650	 3.4620
 0.4660	 3.4620
 0.4670	 3.4660
 0.4680	 3.4760
 0.4690	 3.4790
 0.4700	 3.4720
 0.4710	 3.4740
 0.4720	 3.4810
 0.4730	 3.4860
 0.4740	 3.4810
 0.4750	 3.4820
 0.4760	 3.4830
 0.4770	 3.4830
 0.4780	 3.4860
 0.4790	 3.4900
 0.4800	 3.4960
 0.4810	 3.5020
 0.4820	 3.4980
 0.4830	 3.4980
 0.4840	 3.5030
 0.4850	 3.5020
 0.4860	 3.5140
 0.4870	 3.5260
 0.4880	 3.5280
 0.4890	 3.5390
 0.4900	 3.5500
 0.4910	 3.5620
 0.4920	 3.5760
 0.4930	 3.5910
 0.4940	 3.6030
 0.4950	 3.6130
 0.4960	 3.6340
 0.4970	 3.6560
 0.4980	 3.6800
 0.4990	 3.7040
 0.5000	 3.7290
 0.5010	 3.7590
 0.5020	 3.7920
 0.5030	 3.8280
 0.5040	 3.8750
 0.5050	 3.9270
 0.5060	 3.9780
 0.5070	 4.0370
 0.5080	 4.1020
 0.5090	 4.1740
 0.5100	 4.2540
 0.5110	 4.3450
 0.5120	 4.4460
 0.5130	 4.5580
 0.5140	 4.6730
 0.5150	 4.7970
 0.5160	 4.9320
 0.5170	 5.0790
 0.5180	 5.2290
 0.5190	 5.3890
 0.5200	 5.5610
 0.5210	 5.7400
 0.5220	 5.9140
 0.5230	 6.0920
 0.5240	 6.2780
 0.5250	 6.4570
 0.5260	 6.6290
 0.5270	 6.7950
 0.5280	 6.9600
 0.5290	 7.1150
 0.5300	 7.2560
 0.5310	 7.3870
 0.5320	 7.5130
 0.5330	 7.6250
 0.5340	 7.7250
 0.5350	 7.8190
 0.5360	 7.9020
 0.5370	 7.9740
 0.5380	 8.0400
 0.5390	 8.1060
 0.5400	 8.1670
 0.5410	 8.2260
 0.5420	 8.2840
 0.5430	 8.3360
 0.5440	 8.3770
 0.5450	 8.4100
 0.5460	 8.4390
 0.5470	 8.4610
 0.5480	 8.4790
 0.5490	 8.4960
 0.5500	 8.5150
 0.5510	 8.5270
 0.5520	 8.5310
 0.5530	 8.5240
 0.5540	 8.5000
 0.5550	 8.4680
 0.5560	 8.4270
 0.5570	 8.3740
 0.5580	 8.3100
 0.5590	 8.2390
 0.5600	 8.1630
 0.5610	 8.0870
 0.5620	 8.0040
 0.5630	 7.9150
 0.5640	 7.8230
 0.5650	 7.7240
 0.5660	 7.6210
 0.5670	 7.5130
 0.5680	 7.4010
 0.5690	 7.2830
 0.5700	 7.1630
 0.5710	 7.0440
 0.5720	 6.9280
 0.5730	 6.8190
 0.5740	 6.7180
 0.5750	 6.6190
 0.5760	 6.5260
 0.5770	 6.4400
 0.5780	 6.3600
 0.5790	 6.2870
 0.5800	 6.2190
 0.5810	 6.1570
 0.5820	 6.0960
 0.5830	 6.0410
 0.5840	 5.9870
 0.5850	 5.9340
 0.5860	 5.8870
 0.5870	 5.8470
 0.5880	 5.8090
 0.5890	 5.7710
 0.5900	 5.7340
 0.5910	 5.7030
 0.5920	 5.6780
 0.5930	 5.6570
 0.5940	 5.6320
 0.5950	 5.6130
 0.5960	 5.6000
 0.5970	 5.5810
 0.5980	 5.5670
 0.5990	 5.5540
 0.6000	 5.5370
 0.6010	 5.5150
 0.6020	 5.4900
 0.6030	 5.4630
 0.6040	 5.4320
 0.6050	 5.3970
 0.6060	 5.3570
 0.6070	 5.3130
 0.6080	 5.2680
 0.6090	 5.2230
 0.6100	 5.1790
 0.6110	 5.1400
 0.6120	 5.0910
 0.6130	 5.0360
 0.6140	 4.9800
 0.6150	 4.9290
 0.6160	 4.8810
 0.6170	 4.8380
 0.6180	 4.7990
 0.6190	 4.7650
 0.6200	 4.7320
 0.6210	 4.7020
 0.6220	 4.6780
 0.6230	 4.6590
 0.6240	 4.6430
 0.6250	 4.6280
 0.6260	 4.6140
 0.6270	 4.6030
 0.6280	 4.5940
 0.6290	 4.5880
 0.6300	 4.5840
 0.6310	 4.5780
 0.6320	 4.5670
 0.6330	 4.5540
 0.6340	 4.5400
 0.6350	 4.5210
 0.6360	 4.4950
 0.6370	 4.4660
 0.6380	 4.4330
 0.6390	 4.3960
 0.6400	 4.3550
 0.6410	 4.3170
 0.6420	 4.2770
 0.6430	 4.2340
 0.6440	 4.1920
 0.6450	 4.1510
 0.6460	 4.1120
 0.6470	 4.0760
 0.6480	 4.0450
 0.6490	 4.0170
 0.6500	 3.9910
 0.6510	 3.9720
 0.6520	 3.9560
 0.6530	 3.9410
 0.6540	 3.9240
 0.6550	 3.9100
 0.6560	 3.8930
 0.6570	 3.8730
 0.6580	 3.8500
 0.6590	 3.8240
 0.6600	 3.7990
 0.6610	 3.7760
 0.6620	 3.7520
 0.6630	 3.7290
 0.6640	 3.7090
 0.6650	 3.6930
 0.6660	 3.6810
 0.6670	 3.6720
 0.6680	 3.6650
 0.6690	 3.6600
 0.6700	 3.6620
 0.6710	 3.6680
 0.6720	 3.6760
 0.6730	 3.6900
 0.6740	 3.7010
 0.6750	 3.7160
 0.6760	 3.7390
 0.6770	 3.7590
 0.6780	 3.7830
 0.6790	 3.8130
 0.6800	 3.8460
 0.6810	 3.8780
 0.6820	 3.9140
 0.6830	 3.9570
 0.6840	 4.0040
 0.6850	 4.0550
 0.6860	 4.1140
 0.6870	 4.1840
 0.6880	 4.2710
 0.6890	 4.3800
 0.6900	 4.5170
 0.6910	 4.6870
 0.6920	 4.9010
 0.6930	 5.1630
 0.6940	 5.4770
 0.6950	 5.8520
 0.6960	 6.2830
 0.6970	 6.7700
 0.6980	 7.3110
 0.6990	 7.8940
 0.7000	 8.5210
 0.7010	 9.1870
 0.7020	 9.8750
 0.7030	10.5810
 0.7040	11.3010
 0.7050	12.0330
 0.7060	12.7690
 0.7070	13.5070
 0.7080	14.2460
 0.7090	14.9870
 0.7100	15.7330
 0.7110	16.4780
 0.7120	17.2230
 0.7130	17.9670
 0.7140	18.7120
 0.7150	19.4540
 0.7160	20.1890
 0.7170	20.9210
 0.7180	21.6450
 0.7190	22.3590
 0.7200	23.0630
 0.7210	23.7500
 0.7220	24.4230
 0.7230	25.0800
 0.7240	25.7160
 0.7250	26.3290
 0.7260	26.9200
 0.7270	27.4890
 0.7280	28.0320
 0.7290	28.5520
 0.7300	29.0480
 0.7310	29.5160
 0.7320	29.9590
 0.7330	30.3780
 0.7340	30.7750
 0.7350	31.1450
 0.7360	31.4910
 0.7370	31.8140
 0.7380	32.1170
 0.7390	32.3980
 0.7400	32.6610
 0.7410	32.9040
 0.7420	33.1240
 0.7430	33.3290
 0.7440	33.5170
 0.7450	33.6870
 0.7460	33.8430
 0.7470	33.9850
 0.7480	34.1130
 0.7490	34.2280
 0.7500	34.3340
 0.7510	34.4300
 0.7520	34.5140
 0.7530	34.5890
 0.7540	34.6580
 0.7550	34.7210
 0.7560	34.7770
 0.7570	34.8290
 0.7580	34.8760
 0.7590	34.9170
 0.7600	34.9550
 0.7610	34.9880
 0.7620	35.0160
 0.7630	35.0410
 0.7640	35.0660
 0.7650	35.0880
 0.7660	35.1050
 0.7670	35.1210
 0.7680	35.1350
 0.7690	35.1500
 0.7700	35.1630
 0.7710	35.1720
 0.7720	35.1790
 0.7730	35.1890
 0.7740	35.2000
 0.7750	35.2090
 0.7760	35.2180
 0.7770	35.2260
 0.7780	35.2330
 0.7790	35.2410
 0.7800	35.2490
 0.7810	35.2570
 0.7820	35.2620
 0.7830	35.2650
 0.7840	35.2700
 0.7850	35.2760
 0.7860	35.2830
 0.7870	35.2870
 0.7880	35.2910
 0.7890	35.2950
 0.7900	35.2990
 0.7910	35.3040
 0.7920	35.3080
 0.7930	35.3080
 0.7940	35.3080
 0.7950	35.3080
 0.7960	35.3090
 0.7970	35.3080
 0.7980	35.3070
 0.7990	35.3030
 0.8000	35.3020
 0.8010	35.3040
 0.8020	35.3010
 0.8030	35.2970
 0.8040	35.2930
 0.8050	35.2880
 0.8060	35.2850
 0.8070	35.2810
 0.8080	35.2760
 0.8090	35.2710
 0.8100	35.2640
 0.8110	35.2600
 0.8120	35.2560
 0.8130	35.2450
 0.8140	35.2380
 0.8150	35.2330
 0.8160	35.2250
 0.8170	35.2190
 0.8180	35.2120
 0.8190	35.2050
 0.8200	35.1990
 0.8210	35.1920
 0.8220	35.1830
 0.8230	35.1750
 0.8240	35.1710
 0.8250	35.1650
 0.8260	35.1570
 0.8270	35.1490
 0.8280	35.1430
 0.8290	35.1380
 0.8300	35.1330
 0.8310	35.1250
 0.8320	35.1170
 0.8330	35.1120
 0.8340	35.1100
 0.8350	35.1070
 0.8360	35.1010
 0.8370	35.0950
 0.8380	35.0920
 0.8390	35.0920
 0.8400	35.0900
 0.8410	35.0870
 0.8420	35.0850
 0.8430	35.0810
 0.8440	35.0830
 0.8450	35.0830
 0.8460	35.0800
 0.8470	35.0830
 0.8480	35.0820
 0.8490	35.0830
 0.8500	35.0880
 0.8510	35.0840
 0.8520	35.0830
 0.8530	35.0860
 0.8540	35.0860
 0.8550	35.0880
 0.8560	35.0930
 0.8570	35.0980
 0.8580	35.0970
 0.8590	35.1000
 0.8600	35.1050
 0.8610	35.1070
 0.8620	35.1100
 0.8630	35.1140
 0.8640	35.1180
 0.8650	35.1210
 0.8660	35.1240
 0.8670	35.1280
 0.8680	35.1300
 0.8690	35.1320
 0.8700	35.1390
 0.8710	35.1460
 0.8720	35.1510
 0.8730	35.1570
 0.8740	35.1640
 0.8750	35.1680
 0.8760	35.1730
 0.8770	35.1810
 0.8780	35.1900
 0.8790	35.1940
 0.8800	35.1970
 0.8810	35.2110
 0.8820	35.2200
 0.8830	35.2260
 0.8840	35.2310
 0.8850	35.2370
 0.8860	35.2380
 0.8870	35.2420
 0.8880	35.2540
 0.8890	35.2610
 0.8900	35.2650
 0.8910	35.2690
 0.8920	35.2750
 0.8930	35.2830
 0.8940	35.2910
 0.8950	35.2940
 0.8960	35.2940
 0.8970	35.3020
 0.8980	35.3090
 0.8990	35.3130
 0.9000	35.3190
 0.9010	35.3250
 0.9020	35.3300
 0.9030	35.3350
 0.9040	35.3430
 0.9050	35.3450
 0.9060	35.3460
 0.9070	35.3500
 0.9080	35.3530
 0.9090	35.3630
 0.9100	35.3700
 0.9110	35.3660
 0.9120	35.3630
 0.9130	35.3700
 0.9140	35.3810
 0.9150	35.3810
 0.9160	35.3730
 0.9170	35.3810
 0.9180	35.3940
 0.9190	35.3900
 0.9200	35.3860
 0.9210	35.3870
 0.9220	35.3900
 0.9230	35.3920
 0.9240	35.3910
 0.9250	35.3870
 0.9260	35.3840
 0.9270	35.3860
 0.9280	35.3860
 0.9290	35.3770
 0.9300	35.3660
 0.9310	35.3650
 0.9320	35.3570
 0.9330	35.3490
 0.9340	35.3440
 0.9350	35.3390
 0.9360	35.3320
 0.9370	35.3260
 0.9380	35.3200
 0.9390	35.3090
 0.9400	35.3000
 0.9410	35.2910
 0.9420	35.2780
 0.9430	35.2630
 0.9440	35.2490
 0.9450	35.2320
 0.9460	35.2140
 0.9470	35.2050
 0.9480	35.1860
 0.9490	35.1600
 0.9500	35.1330
 0.9510	35.1140
 0.9520	35.0910
 0.9530	35.0660
 0.9540	35.0410
 0.9550	35.0140
 0.9560	34.9830
 0.9570	34.9540
 0.9580	34.9320
 0.9590	34.9100
 0.9600	34.8890
 0.9610	34.8650
 0.9620	34.8390
 0.9630	34.8240
 0.9640	34.8100
 0.9650	34.7970
 0.9660	34.7860
 0.9670	34.7730
 0.9680	34.7640
 0.9690	34.7560
 0.9700	34.7460
 0.9710	34.7340
 0.9720	34.7220
 0.9730	34.7130
 0.9740	34.7070
 0.9750	34.6870
 0.9760	34.6840
 0.9770	34.6900
 0.9780	34.6840
 0.9790	34.6770
 0.9800	34.6700
 0.9810	34.6650
 0.9820	34.6650
 0.9830	34.6610
 0.9840	34.6630
 0.9850	34.6680
 0.9860	34.6690
 0.9870	34.6680
 0.9880	34.6660
 0.9890	34.6680
 0.9900	34.6740
 0.9910	34.6710
 0.9920	34.6720
 0.9930	34.6830
 0.9940	34.7000
 0.9950	34.7100
 0.9960	34.7090
 0.9970	34.7060
 0.9980	34.7110
 0.9990	34.7220
 1.0000	34.7330
 1.0010	35.7620
 1.0020	35.7640
 1.0030	35.7690
 1.0040	35.7730
 1.0050	35.7790
 1.0060	35.7890
 1.0070	35.7980
 1.0080	35.8050
 1.0090	35.8110
 1.0100	35.8180
 1.0110	35.8230
 1.0120	35.8280
 1.0130	35.8360
 1.0140	35.8440
 1.0150	35.8500
 1.0160	35.8530
 1.0170	35.8630
 1.0180	35.8700
 1.0190	35.8750
 1.0200	35.8810
 1.0210	35.8850
 1.0220	35.8900
 1.0230	35.8970
 1.0240	35.9080
 1.0250	35.9150
 1.0260	35.9200
 1.0270	35.9270
 1.0280	35.9310
 1.0290	35.9380
 1.0300	35.9460
 1.0310	35.9530
 1.0320	35.9600
 1.0330	35.9660
 1.0340	35.9720
 1.0350	35.9780
 1.0360	35.9890
 1.0370	36.0000
 1.0380	36.0080
 1.0390	36.0150
 1.0400	36.0210
 1.0410	36.0230
 1.0420	36.0270
 1.0430	36.0320
 1.0440	36.0360
 1.0450	36.0390
 1.0460	36.0420
 1.0470	36.0440
 1.0480	36.0490
 1.0490	36.0570
 1.0500	36.0610
 1.0510	36.0660
 1.0520	36.0710
 1.0530	36.0730
 1.0540	36.0710
 1.0550	36.0720
 1.0560	36.0720
 1.0570	36.0760
 1.0580	36.0820
 1.0590	36.0860
 1.0600	36.0950
 1.0610	36.0970
 1.0620	36.0930
 1.0630	36.0930
 1.0640	36.0910
 1.0650	36.0900
 1.0660	36.0920
 1.0670	36.0920
 1.0680	36.0910
 1.0690	36.0890
 1.0700	36.0850
 1.0710	36.0800
 1.0720	36.0780
 1.0730	36.0790
 1.0740	36.0780
 1.0750	36.0800
 1.0760	36.0770
 1.0770	36.0670
 1.0780	36.0630
 1.0790	36.0600
 1.0800	36.0570
 1.0810	36.0590
 1.0820	36.0570
 1.0830	36.0510
 1.0840	36.0470
 1.0850	36.0410
 1.0860	36.0370
 1.0870	36.0330
 1.0880	36.0310
 1.0890	36.0280
 1.0900	36.0260
 1.0910	36.0210
 1.0920	36.0170
 1.0930	36.0120
 1.0940	36.0060
 1.0950	36.0000
 1.0960	35.9940
 1.0970	35.9890
 1.0980	35.9840
 1.0990	35.9780
 1.1000	35.9730
 1.1010	35.9670
 1.1020	35.9590
 1.1030	35.9530
 1.1040	35.9460
 1.1050	35.9400
 1.1060	35.9340
 1.1070	35.9280
 1.1080	35.9220
 1.1090	35.9160
 1.1100	35.9080
 1.1110	35.8990
 1.1120	35.8910
 1.1130	35.8830
 1.1140	35.8730
 1.1150	35.8650
 1.1160	35.8530
 1.1170	35.8390
 1.1180	35.8240
 1.1190	35.8100
 1.1200	35.7930
 1.1210	35.7770
 1.1220	35.7600
 1.1230	35.7420
 1.1240	35.7210
 1.1250	35.6970
 1.1260	35.6710
 1.1270	35.6420
 1.1280	35.6090
 1.1290	35.5740
 1.1300	35.5370
 1.1310	35.4970
 1.1320	35.4530
 1.1330	35.4080
 1.1340	35.3590
 1.1350	35.3080
 1.1360	35.2530
 1.1370	35.1980
 1.1380	35.1400
 1.1390	35.0800
 1.1400	35.0210
 1.1410	34.9600
 1.1420	34.8970
 1.1430	34.8360
 1.1440	34.7760
 1.1450	34.7160
 1.1460	34.6560
 1.1470	34.5980
 1.1480	34.5400
 1.1490	34.4810
 1.1500	34.4260
 1.1510	34.3730
 1.1520	34.3230
 1.1530	34.2750
 1.1540	34.2300
 1.1550	34.1870
 1.1560	34.1470
 1.1570	34.1080
 1.1580	34.0720
 1.1590	34.0390
 1.1600	34.0080
 1.1610	33.9820
 1.1620	33.9560
 1.1630	33.9290
 1.1640	33.9040
 1.1650	33.8810
 1.1660	33.8580
 1.1670	33.8380
 1.1680	33.8210
 1.1690	33.8030
 1.1700	33.7880
 1.1710	33.7710
 1.1720	33.7560
 1.1730	33.7400
 1.1740	33.7240
 1.1750	33.7080
 1.1760	33.6950
 1.1770	33.6810
 1.1780	33.6670
 1.1790	33.6540
 1.1800	33.6380
 1.1810	33.6220
 1.1820	33.6070
 1.1830	33.5920
 1.1840	33.5760
 1.1850	33.5610
 1.1860	33.5470
 1.1870	33.5330
 1.1880	33.5200
 1.1890	33.5110
 1.1900	33.5000
 1.1910	33.4890
 1.1920	33.4800
 1.1930	33.4700
 1.1940	33.4620
 1.1950	33.4550
 1.1960	33.4490
 1.1970	33.4440
 1.1980	33.4390
 1.1990	33.4350
 1.2000	33.4340
 1.2010	33.4330
 1.2020	33.4350
 1.2030	33.4390
 1.2040	33.4430
 1.2050	33.4490
 1.2060	33.4560
 1.2070	33.4640
 1.2080	33.4730
 1.2090	33.4840
 1.2100	33.4980
 1.2110	33.5110
 1.2120	33.5240
 1.2130	33.5390
 1.2140	33.5540
 1.2150	33.5710
 1.2160	33.5890
 1.2170	33.6070
 1.2180	33.6260
 1.2190	33.6450
 1.2200	33.6620
 1.2210	33.6800
 1.2220	33.6980
 1.2230	33.7170
 1.2240	33.7350
 1.2250	33.7520
 1.2260	33.7690
 1.2270	33.7840
 1.2280	33.7970
 1.2290	33.8130
 1.2300	33.8280
 1.2310	33.8420
 1.2320	33.8580
 1.2330	33.8710
 1.2340	33.8830
 1.2350	33.8930
 1.2360	33.9040
 1.2370	33.9140
 1.2380	33.9230
 1.2390	33.9330
 1.2400	33.9440
 1.2410	33.9520
 1.2420	33.9610
 1.2430	33.9700
 1.2440	33.9780
 1.2450	33.9870
 1.2460	33.9970
 1.2470	34.0050
 1.2480	34.0110
 1.2490	34.0160
 1.2500	34.0200
 1.2510	34.0230
 1.2520	34.0290
 1.2530	34.0340
 1.2540	34.0370
 1.2550	34.0400
 1.2560	34.0420
 1.2570	34.0440
 1.2580	34.0450
 1.2590	34.0470
 1.2600	34.0500
 1.2610	34.0500
 1.2620	34.0500
 1.2630	34.0530
 1.2640	34.0540
 1.2650	34.0530
 1.2660	34.0520
 1.2670	34.0490
 1.2680	34.0440
 1.2690	34.0420
 1.2700	34.0410
 1.2710	34.0390
 1.2720	34.0370
 1.2730	34.0330
 1.2740	34.0290
 1.2750	34.0240
 1.2760	34.0200
 1.2770	34.0150
 1.2780	34.0090
 1.2790	34.0020
 1.2800	33.9950
 1.2810	33.9850
 1.2820	33.9750
 1.2830	33.9650
 1.2840	33.9530
 1.2850	33.9400
 1.2860	33.9260
 1.2870	33.9110
 1.2880	33.8950
 1.2890	33.8770
 1.2900	33.8600
 1.2910	33.8410
 1.2920	33.8210
 1.2930	33.8000
 1.2940	33.7770
 1.2950	33.7530
 1.2960	33.7280
 1.2970	33.7020
 1.2980	33.6760
 1.2990	33.6460
 1.3000	33.6160
 1.3010	33.5850
 1.3020	33.5530
 1.3030	33.5200
 1.3040	33.4860
 1.3050	33.4500
 1.3060	33.4130
 1.3070	33.3750
 1.3080	33.3370
 1.3090	33.2980
 1.3100	33.2560
 1.3110	33.2140
 1.3120	33.1710
 1.3130	33.1250
 1.3140	33.0790
 1.3150	33.0340
 1.3160	32.9860
 1.3170	32.9360
 1.3180	32.8870
 1.3190	32.8370
 1.3200	32.7840
 1.3210	32.7280
 1.3220	32.6710
 1.3230	32.6110
 1.3240	32.5520
 1.3250	32.4930
 1.3260	32.4330
 1.3270	32.3700
 1.3280	32.3060
 1.3290	32.2380
 1.3300	32.1710
 1.3310	32.1030
 1.3320	32.0320
 1.3330	31.9640
 1.3340	31.8930
 1.3350	31.8210
 1.3360	31.7520
 1.3370	31.6800
 1.3380	31.6070
 1.3390	31.5340
 1.3400	31.4610
 1.3410	31.3880
 1.3420	31.3170
 1.3430	31.2460
 1.3440	31.1760
 1.3450	31.1050
 1.3460	31.0350
 1.3470	30.9670
 1.3480	30.9000
 1.3490	30.8320
 1.3500	30.7660
 1.3510	30.6970
 1.3520	30.6270
 1.3530	30.5580
 1.3540	30.4880
 1.3550	30.4200
 1.3560	30.3510
 1.3570	30.2830
 1.3580	30.2140
 1.3590	30.1430
 1.3600	30.0710
 1.3610	29.9970
 1.3620	29.9210
 1.3630	29.8440
 1.3640	29.7630
 1.3650	29.6780
 1.3660	29.5890
 1.3670	29.4960
 1.3680	29.3950
 1.3690	29.2890
 1.3700	29.1760
 1.3710	29.0540
 1.3720	28.9250
 1.3730	28.7840
 1.3740	28.6320
 1.3750	28.4700
 1.3760	28.2940
 1.3770	28.1050
 1.3780	27.8970
 1.3790	27.6750
 1.3800	27.4370
 1.3810	27.1810
 1.3820	26.9110
 1.3830	26.6280
 1.3840	26.3290
 1.3850	26.0150
 1.3860	25.6860
 1.3870	25.3400
 1.3880	24.9860
 1.3890	24.6180
 1.3900	24.2400
 1.3910	23.8570
 1.3920	23.4650
 1.3930	23.0640
 1.3940	22.6610
 1.3950	22.2500
 1.3960	21.8400
 1.3970	21.4340
 1.3980	21.0310
 1.3990	20.6360
 1.4000	20.2480
 1.4010	19.8650
 1.4020	19.4940
 1.4030	19.1300
 1.4040	18.7780
 1.4050	18.4400
 1.4060	18.1140
 1.4070	17.8040
 1.4080	17.5080
 1.4090	17.2250
 1.4100	16.9580
 1.4110	16.7050
 1.4120	16.4660
 1.4130	16.2430
 1.4140	16.0320
 1.4150	15.8370
 1.4160	15.6530
 1.4170	15.4800
 1.4180	15.3210
 1.4190	15.1700
 1.4200	15.0290
 1.4210	14.8990
 1.4220	14.7790
 1.4230	14.6680
 1.4240	14.5660
 1.4250	14.4700
 1.4260	14.3820
 1.4270	14.3010
 1.4280	14.2280
 1.4290	14.1590
 1.4300	14.0980
 1.4310	14.0410
 1.4320	13.9910
 1.4330	13.9440
 1.4340	13.9040
 1.4350	13.8680
 1.4360	13.8360
 1.4370	13.8090
 1.4380	13.7870
 1.4390	13.7670
 1.4400	13.7510
 1.4410	13.7380
 1.4420	13.7280
 1.4430	13.7210
 1.4440	13.7160
 1.4450	13.7140
 1.4460	13.7140
 1.4470	13.7160
 1.4480	13.7210
 1.4490	13.7260
 1.4500	13.7330
 1.4510	13.7420
 1.4520	13.7510
 1.4530	13.7630
 1.4540	13.7760
 1.4550	13.7920
 1.4560	13.8100
 1.4570	13.8290
 1.4580	13.8500
 1.4590	13.8750
 1.4600	13.9020
 1.4610	13.9330
 1.4620	13.9680
 1.4630	14.0060
 1.4640	14.0480
 1.4650	14.0930
 1.4660	14.1420
 1.4670	14.1940
 1.4680	14.2520
 1.4690	14.3130
 1.4700	14.3780
 1.4710	14.4470
 1.4720	14.5180
 1.4730	14.5920
 1.4740	14.6700
 1.4750	14.7520
 1.4760	14.8360
 1.4770	14.9220
