Name: Pyllostachys vivax
Type: vegetation
Class: Tree
Genus: Pyllostachys
Species: vivax
Sample No.: JPL191
Owner: JPL
Wavelength Range: VSWIR
Origin: 34.12505; -118.11546; WGS84
Collection Date: 10/3/2016
Description: Samples were collected at the Huntington Garden in San Marino California as part of a JPL Subcontract studying HyTES imagery. Samples were taken to JPL and processed within 48 hours of collection. The same leaves were processed in the Nicolet and then measured using the ASD.
Measurement: Bidirectional reflectance
First Column: X
Second Column: Y
X Units: Wavelength (micrometer)
Y Units: Reflectance (percentage)
First X Value: 0.35
Last X Value: 2.5
Number of X Values: 2151
Additional Information: vegetation.tree.pyllostachys.vivax.vswir.jpl191.jpl.asd.ancillary.txt

 0.3500	 9.3260
 0.3510	 9.5660
 0.3520	 9.6750
 0.3530	 9.6040
 0.3540	 9.4690
 0.3550	 9.4780
 0.3560	 9.5210
 0.3570	 9.5340
 0.3580	 9.4890
 0.3590	 9.4070
 0.3600	 9.3930
 0.3610	 9.4340
 0.3620	 9.3400
 0.3630	 9.2750
 0.3640	 9.2560
 0.3650	 9.2620
 0.3660	 9.3060
 0.3670	 9.2870
 0.3680	 9.2450
 0.3690	 9.2940
 0.3700	 9.3400
 0.3710	 9.3640
 0.3720	 9.3530
 0.3730	 9.2740
 0.3740	 9.2030
 0.3750	 9.1710
 0.3760	 9.1910
 0.3770	 9.2710
 0.3780	 9.3070
 0.3790	 9.2750
 0.3800	 9.2310
 0.3810	 9.2100
 0.3820	 9.2190
 0.3830	 9.2370
 0.3840	 9.2140
 0.3850	 9.2260
 0.3860	 9.2520
 0.3870	 9.2400
 0.3880	 9.1900
 0.3890	 9.1840
 0.3900	 9.2280
 0.3910	 9.2500
 0.3920	 9.2510
 0.3930	 9.2450
 0.3940	 9.2370
 0.3950	 9.2140
 0.3960	 9.2200
 0.3970	 9.2350
 0.3980	 9.2210
 0.3990	 9.2540
 0.4000	 9.2370
 0.4010	 9.1700
 0.4020	 9.1880
 0.4030	 9.2230
 0.4040	 9.2440
 0.4050	 9.2440
 0.4060	 9.2530
 0.4070	 9.2620
 0.4080	 9.2690
 0.4090	 9.2760
 0.4100	 9.2790
 0.4110	 9.2780
 0.4120	 9.2780
 0.4130	 9.2900
 0.4140	 9.3070
 0.4150	 9.3230
 0.4160	 9.3320
 0.4170	 9.3360
 0.4180	 9.3290
 0.4190	 9.3160
 0.4200	 9.3140
 0.4210	 9.3140
 0.4220	 9.3140
 0.4230	 9.3140
 0.4240	 9.3170
 0.4250	 9.3170
 0.4260	 9.3120
 0.4270	 9.3050
 0.4280	 9.3010
 0.4290	 9.2930
 0.4300	 9.2780
 0.4310	 9.2570
 0.4320	 9.2380
 0.4330	 9.2170
 0.4340	 9.1910
 0.4350	 9.1820
 0.4360	 9.1840
 0.4370	 9.1950
 0.4380	 9.2160
 0.4390	 9.2360
 0.4400	 9.2570
 0.4410	 9.2810
 0.4420	 9.2980
 0.4430	 9.3080
 0.4440	 9.3140
 0.4450	 9.3230
 0.4460	 9.3350
 0.4470	 9.3390
 0.4480	 9.3380
 0.4490	 9.3430
 0.4500	 9.3510
 0.4510	 9.3580
 0.4520	 9.3630
 0.4530	 9.3670
 0.4540	 9.3740
 0.4550	 9.3810
 0.4560	 9.3750
 0.4570	 9.3780
 0.4580	 9.3860
 0.4590	 9.3930
 0.4600	 9.3900
 0.4610	 9.3860
 0.4620	 9.3870
 0.4630	 9.3890
 0.4640	 9.3860
 0.4650	 9.3860
 0.4660	 9.3910
 0.4670	 9.3920
 0.4680	 9.3880
 0.4690	 9.3850
 0.4700	 9.3880
 0.4710	 9.3960
 0.4720	 9.4000
 0.4730	 9.3980
 0.4740	 9.3950
 0.4750	 9.4050
 0.4760	 9.4150
 0.4770	 9.4180
 0.4780	 9.4160
 0.4790	 9.4100
 0.4800	 9.4070
 0.4810	 9.4120
 0.4820	 9.4110
 0.4830	 9.4000
 0.4840	 9.3850
 0.4850	 9.3780
 0.4860	 9.3740
 0.4870	 9.3720
 0.4880	 9.3740
 0.4890	 9.3850
 0.4900	 9.3930
 0.4910	 9.4030
 0.4920	 9.4280
 0.4930	 9.4470
 0.4940	 9.4670
 0.4950	 9.4900
 0.4960	 9.5110
 0.4970	 9.5370
 0.4980	 9.5690
 0.4990	 9.6040
 0.5000	 9.6430
 0.5010	 9.6800
 0.5020	 9.7180
 0.5030	 9.7680
 0.5040	 9.8210
 0.5050	 9.8780
 0.5060	 9.9420
 0.5070	10.0110
 0.5080	10.0910
 0.5090	10.1810
 0.5100	10.2790
 0.5110	10.3850
 0.5120	10.5040
 0.5130	10.6350
 0.5140	10.7720
 0.5150	10.9240
 0.5160	11.0890
 0.5170	11.2620
 0.5180	11.4520
 0.5190	11.6490
 0.5200	11.8500
 0.5210	12.0560
 0.5220	12.2620
 0.5230	12.4680
 0.5240	12.6740
 0.5250	12.8700
 0.5260	13.0590
 0.5270	13.2390
 0.5280	13.4090
 0.5290	13.5630
 0.5300	13.7060
 0.5310	13.8390
 0.5320	13.9540
 0.5330	14.0580
 0.5340	14.1510
 0.5350	14.2280
 0.5360	14.2900
 0.5370	14.3400
 0.5380	14.3780
 0.5390	14.4000
 0.5400	14.3940
 0.5410	14.3690
 0.5420	14.3400
 0.5430	14.3230
 0.5440	14.3310
 0.5450	14.3680
 0.5460	14.4290
 0.5470	14.4990
 0.5480	14.5590
 0.5490	14.5990
 0.5500	14.6210
 0.5510	14.6330
 0.5520	14.6390
 0.5530	14.6370
 0.5540	14.6280
 0.5550	14.6050
 0.5560	14.5650
 0.5570	14.5080
 0.5580	14.4340
 0.5590	14.3510
 0.5600	14.2600
 0.5610	14.1560
 0.5620	14.0440
 0.5630	13.9270
 0.5640	13.8040
 0.5650	13.6740
 0.5660	13.5440
 0.5670	13.4180
 0.5680	13.2920
 0.5690	13.1660
 0.5700	13.0400
 0.5710	12.9160
 0.5720	12.7940
 0.5730	12.6800
 0.5740	12.5740
 0.5750	12.4680
 0.5760	12.3620
 0.5770	12.2620
 0.5780	12.1690
 0.5790	12.0800
 0.5800	12.0020
 0.5810	11.9330
 0.5820	11.8680
 0.5830	11.8040
 0.5840	11.7420
 0.5850	11.6880
 0.5860	11.6400
 0.5870	11.5920
 0.5880	11.5550
 0.5890	11.5340
 0.5900	11.5100
 0.5910	11.4830
 0.5920	11.4530
 0.5930	11.4210
 0.5940	11.3990
 0.5950	11.3830
 0.5960	11.3690
 0.5970	11.3520
 0.5980	11.3320
 0.5990	11.3100
 0.6000	11.2870
 0.6010	11.2660
 0.6020	11.2420
 0.6030	11.2120
 0.6040	11.1790
 0.6050	11.1400
 0.6060	11.0990
 0.6070	11.0550
 0.6080	11.0050
 0.6090	10.9290
 0.6100	10.8190
 0.6110	10.6910
 0.6120	10.6450
 0.6130	10.6450
 0.6140	10.6500
 0.6150	10.6300
 0.6160	10.6040
 0.6170	10.5730
 0.6180	10.5360
 0.6190	10.4970
 0.6200	10.4610
 0.6210	10.4300
 0.6220	10.4090
 0.6230	10.3900
 0.6240	10.3750
 0.6250	10.3650
 0.6260	10.3550
 0.6270	10.3480
 0.6280	10.3400
 0.6290	10.3310
 0.6300	10.3160
 0.6310	10.3050
 0.6320	10.3000
 0.6330	10.2960
 0.6340	10.2810
 0.6350	10.2590
 0.6360	10.2320
 0.6370	10.2000
 0.6380	10.1620
 0.6390	10.1190
 0.6400	10.0760
 0.6410	10.0320
 0.6420	 9.9880
 0.6430	 9.9430
 0.6440	 9.9010
 0.6450	 9.8610
 0.6460	 9.8250
 0.6470	 9.7950
 0.6480	 9.7670
 0.6490	 9.7440
 0.6500	 9.7260
 0.6510	 9.7110
 0.6520	 9.7040
 0.6530	 9.7020
 0.6540	 9.6990
 0.6550	 9.6980
 0.6560	 9.6950
 0.6570	 9.6880
 0.6580	 9.6790
 0.6590	 9.6700
 0.6600	 9.6600
 0.6610	 9.6500
 0.6620	 9.6400
 0.6630	 9.6320
 0.6640	 9.6280
 0.6650	 9.6290
 0.6660	 9.6300
 0.6670	 9.6350
 0.6680	 9.6430
 0.6690	 9.6570
 0.6700	 9.6730
 0.6710	 9.6920
 0.6720	 9.7140
 0.6730	 9.7390
 0.6740	 9.7670
 0.6750	 9.7980
 0.6760	 9.8300
 0.6770	 9.8670
 0.6780	 9.9070
 0.6790	 9.9490
 0.6800	 9.9930
 0.6810	10.0410
 0.6820	10.0920
 0.6830	10.1430
 0.6840	10.1950
 0.6850	10.2470
 0.6860	10.3010
 0.6870	10.3620
 0.6880	10.4370
 0.6890	10.5320
 0.6900	10.6520
 0.6910	10.8040
 0.6920	10.9990
 0.6930	11.2420
 0.6940	11.5370
 0.6950	11.8930
 0.6960	12.3100
 0.6970	12.7880
 0.6980	13.3250
 0.6990	13.9160
 0.7000	14.5510
 0.7010	15.2210
 0.7020	15.9220
 0.7030	16.6350
 0.7040	17.3590
 0.7050	18.0920
 0.7060	18.8230
 0.7070	19.5530
 0.7080	20.2810
 0.7090	21.0080
 0.7100	21.7320
 0.7110	22.4520
 0.7120	23.1670
 0.7130	23.8780
 0.7140	24.5900
 0.7150	25.2990
 0.7160	26.0000
 0.7170	26.6960
 0.7180	27.3860
 0.7190	28.0690
 0.7200	28.7460
 0.7210	29.4140
 0.7220	30.0750
 0.7230	30.7260
 0.7240	31.3620
 0.7250	31.9820
 0.7260	32.5890
 0.7270	33.1820
 0.7280	33.7550
 0.7290	34.3090
 0.7300	34.8450
 0.7310	35.3630
 0.7320	35.8590
 0.7330	36.3340
 0.7340	36.7880
 0.7350	37.2220
 0.7360	37.6330
 0.7370	38.0230
 0.7380	38.3920
 0.7390	38.7400
 0.7400	39.0680
 0.7410	39.3750
 0.7420	39.6600
 0.7430	39.9260
 0.7440	40.1710
 0.7450	40.3960
 0.7460	40.6040
 0.7470	40.7930
 0.7480	40.9660
 0.7490	41.1250
 0.7500	41.2690
 0.7510	41.3980
 0.7520	41.5160
 0.7530	41.6230
 0.7540	41.7150
 0.7550	41.7980
 0.7560	41.8740
 0.7570	41.9430
 0.7580	42.0060
 0.7590	42.0620
 0.7600	42.1100
 0.7610	42.1530
 0.7620	42.1920
 0.7630	42.2260
 0.7640	42.2550
 0.7650	42.2790
 0.7660	42.2980
 0.7670	42.3140
 0.7680	42.3290
 0.7690	42.3430
 0.7700	42.3520
 0.7710	42.3570
 0.7720	42.3660
 0.7730	42.3730
 0.7740	42.3780
 0.7750	42.3810
 0.7760	42.3840
 0.7770	42.3870
 0.7780	42.3890
 0.7790	42.3880
 0.7800	42.3910
 0.7810	42.3940
 0.7820	42.3950
 0.7830	42.3950
 0.7840	42.3940
 0.7850	42.3930
 0.7860	42.3910
 0.7870	42.3880
 0.7880	42.3850
 0.7890	42.3810
 0.7900	42.3750
 0.7910	42.3700
 0.7920	42.3640
 0.7930	42.3590
 0.7940	42.3550
 0.7950	42.3470
 0.7960	42.3370
 0.7970	42.3260
 0.7980	42.3160
 0.7990	42.3030
 0.8000	42.2900
 0.8010	42.2810
 0.8020	42.2700
 0.8030	42.2570
 0.8040	42.2440
 0.8050	42.2330
 0.8060	42.2200
 0.8070	42.2030
 0.8080	42.1850
 0.8090	42.1710
 0.8100	42.1540
 0.8110	42.1370
 0.8120	42.1200
 0.8130	42.1020
 0.8140	42.0850
 0.8150	42.0690
 0.8160	42.0510
 0.8170	42.0330
 0.8180	42.0140
 0.8190	41.9950
 0.8200	41.9780
 0.8210	41.9610
 0.8220	41.9440
 0.8230	41.9280
 0.8240	41.9070
 0.8250	41.8870
 0.8260	41.8720
 0.8270	41.8570
 0.8280	41.8390
 0.8290	41.8230
 0.8300	41.8070
 0.8310	41.7900
 0.8320	41.7760
 0.8330	41.7620
 0.8340	41.7480
 0.8350	41.7340
 0.8360	41.7200
 0.8370	41.7070
 0.8380	41.6960
 0.8390	41.6840
 0.8400	41.6730
 0.8410	41.6650
 0.8420	41.6570
 0.8430	41.6470
 0.8440	41.6410
 0.8450	41.6330
 0.8460	41.6240
 0.8470	41.6180
 0.8480	41.6140
 0.8490	41.6090
 0.8500	41.6040
 0.8510	41.5990
 0.8520	41.5960
 0.8530	41.5930
 0.8540	41.5890
 0.8550	41.5880
 0.8560	41.5860
 0.8570	41.5830
 0.8580	41.5840
 0.8590	41.5840
 0.8600	41.5850
 0.8610	41.5890
 0.8620	41.5930
 0.8630	41.5920
 0.8640	41.5930
 0.8650	41.6000
 0.8660	41.6060
 0.8670	41.6070
 0.8680	41.6100
 0.8690	41.6200
 0.8700	41.6250
 0.8710	41.6290
 0.8720	41.6350
 0.8730	41.6450
 0.8740	41.6540
 0.8750	41.6590
 0.8760	41.6650
 0.8770	41.6790
 0.8780	41.6880
 0.8790	41.6940
 0.8800	41.7000
 0.8810	41.7080
 0.8820	41.7180
 0.8830	41.7270
 0.8840	41.7320
 0.8850	41.7390
 0.8860	41.7460
 0.8870	41.7550
 0.8880	41.7670
 0.8890	41.7760
 0.8900	41.7840
 0.8910	41.7900
 0.8920	41.7970
 0.8930	41.8090
 0.8940	41.8220
 0.8950	41.8310
 0.8960	41.8370
 0.8970	41.8450
 0.8980	41.8560
 0.8990	41.8660
 0.9000	41.8690
 0.9010	41.8780
 0.9020	41.8880
 0.9030	41.8960
 0.9040	41.9050
 0.9050	41.9130
 0.9060	41.9210
 0.9070	41.9260
 0.9080	41.9330
 0.9090	41.9410
 0.9100	41.9470
 0.9110	41.9490
 0.9120	41.9550
 0.9130	41.9560
 0.9140	41.9580
 0.9150	41.9640
 0.9160	41.9650
 0.9170	41.9680
 0.9180	41.9720
 0.9190	41.9760
 0.9200	41.9750
 0.9210	41.9740
 0.9220	41.9730
 0.9230	41.9730
 0.9240	41.9710
 0.9250	41.9700
 0.9260	41.9700
 0.9270	41.9660
 0.9280	41.9550
 0.9290	41.9460
 0.9300	41.9420
 0.9310	41.9430
 0.9320	41.9330
 0.9330	41.9200
 0.9340	41.9100
 0.9350	41.9060
 0.9360	41.8970
 0.9370	41.8850
 0.9380	41.8730
 0.9390	41.8620
 0.9400	41.8550
 0.9410	41.8430
 0.9420	41.8260
 0.9430	41.8200
 0.9440	41.8120
 0.9450	41.7950
 0.9460	41.7690
 0.9470	41.7480
 0.9480	41.7350
 0.9490	41.7270
 0.9500	41.7150
 0.9510	41.6890
 0.9520	41.6610
 0.9530	41.6380
 0.9540	41.6220
 0.9550	41.6030
 0.9560	41.5790
 0.9570	41.5520
 0.9580	41.5280
 0.9590	41.5150
 0.9600	41.4990
 0.9610	41.4800
 0.9620	41.4610
 0.9630	41.4450
 0.9640	41.4290
 0.9650	41.4180
 0.9660	41.4140
 0.9670	41.3870
 0.9680	41.3800
 0.9690	41.3780
 0.9700	41.3550
 0.9710	41.3520
 0.9720	41.3430
 0.9730	41.3330
 0.9740	41.3330
 0.9750	41.3320
 0.9760	41.3240
 0.9770	41.3170
 0.9780	41.3170
 0.9790	41.3050
 0.9800	41.2950
 0.9810	41.2910
 0.9820	41.2900
 0.9830	41.2920
 0.9840	41.2790
 0.9850	41.2650
 0.9860	41.2750
 0.9870	41.2840
 0.9880	41.2790
 0.9890	41.2710
 0.9900	41.2830
 0.9910	41.2870
 0.9920	41.2740
 0.9930	41.2650
 0.9940	41.2780
 0.9950	41.2640
 0.9960	41.2640
 0.9970	41.2720
 0.9980	41.2630
 0.9990	41.2560
 1.0000	41.2620
 1.0010	42.5860
 1.0020	42.5850
 1.0030	42.5820
 1.0040	42.5820
 1.0050	42.5790
 1.0060	42.5780
 1.0070	42.5820
 1.0080	42.5820
 1.0090	42.5790
 1.0100	42.5770
 1.0110	42.5740
 1.0120	42.5720
 1.0130	42.5730
 1.0140	42.5720
 1.0150	42.5690
 1.0160	42.5650
 1.0170	42.5670
 1.0180	42.5710
 1.0190	42.5730
 1.0200	42.5770
 1.0210	42.5740
 1.0220	42.5690
 1.0230	42.5660
 1.0240	42.5630
 1.0250	42.5630
 1.0260	42.5650
 1.0270	42.5650
 1.0280	42.5670
 1.0290	42.5700
 1.0300	42.5720
 1.0310	42.5740
 1.0320	42.5770
 1.0330	42.5790
 1.0340	42.5770
 1.0350	42.5790
 1.0360	42.5830
 1.0370	42.5820
 1.0380	42.5850
 1.0390	42.5900
 1.0400	42.5910
 1.0410	42.5900
 1.0420	42.5910
 1.0430	42.5870
 1.0440	42.5870
 1.0450	42.5910
 1.0460	42.5920
 1.0470	42.5920
 1.0480	42.5920
 1.0490	42.5910
 1.0500	42.5910
 1.0510	42.5920
 1.0520	42.5920
 1.0530	42.5910
 1.0540	42.5890
 1.0550	42.5860
 1.0560	42.5800
 1.0570	42.5770
 1.0580	42.5740
 1.0590	42.5730
 1.0600	42.5740
 1.0610	42.5720
 1.0620	42.5720
 1.0630	42.5670
 1.0640	42.5540
 1.0650	42.5470
 1.0660	42.5440
 1.0670	42.5370
 1.0680	42.5290
 1.0690	42.5240
 1.0700	42.5170
 1.0710	42.5040
 1.0720	42.4970
 1.0730	42.4950
 1.0740	42.4890
 1.0750	42.4800
 1.0760	42.4750
 1.0770	42.4690
 1.0780	42.4660
 1.0790	42.4670
 1.0800	42.4640
 1.0810	42.4590
 1.0820	42.4550
 1.0830	42.4460
 1.0840	42.4420
 1.0850	42.4400
 1.0860	42.4390
 1.0870	42.4360
 1.0880	42.4330
 1.0890	42.4300
 1.0900	42.4230
 1.0910	42.4190
 1.0920	42.4170
 1.0930	42.4140
 1.0940	42.4100
 1.0950	42.4080
 1.0960	42.4080
 1.0970	42.4050
 1.0980	42.4000
 1.0990	42.3990
 1.1000	42.3990
 1.1010	42.3980
 1.1020	42.4000
 1.1030	42.4010
 1.1040	42.3980
 1.1050	42.3910
 1.1060	42.3890
 1.1070	42.3860
 1.1080	42.3860
 1.1090	42.3890
 1.1100	42.3900
 1.1110	42.3910
 1.1120	42.3910
 1.1130	42.3900
 1.1140	42.3880
 1.1150	42.3820
 1.1160	42.3800
 1.1170	42.3790
 1.1180	42.3770
 1.1190	42.3750
 1.1200	42.3740
 1.1210	42.3680
 1.1220	42.3620
 1.1230	42.3560
 1.1240	42.3480
 1.1250	42.3410
 1.1260	42.3330
 1.1270	42.3220
 1.1280	42.3110
 1.1290	42.2960
 1.1300	42.2780
 1.1310	42.2570
 1.1320	42.2330
 1.1330	42.2090
 1.1340	42.1830
 1.1350	42.1550
 1.1360	42.1260
 1.1370	42.0930
 1.1380	42.0560
 1.1390	42.0200
 1.1400	41.9820
 1.1410	41.9430
 1.1420	41.9060
 1.1430	41.8670
 1.1440	41.8250
 1.1450	41.7800
 1.1460	41.7370
 1.1470	41.6910
 1.1480	41.6510
 1.1490	41.6150
 1.1500	41.5800
 1.1510	41.5460
 1.1520	41.5140
 1.1530	41.4840
 1.1540	41.4550
 1.1550	41.4290
 1.1560	41.4050
 1.1570	41.3840
 1.1580	41.3650
 1.1590	41.3490
 1.1600	41.3330
 1.1610	41.3190
 1.1620	41.3050
 1.1630	41.2930
 1.1640	41.2840
 1.1650	41.2770
 1.1660	41.2720
 1.1670	41.2660
 1.1680	41.2620
 1.1690	41.2570
 1.1700	41.2510
 1.1710	41.2450
 1.1720	41.2380
 1.1730	41.2320
 1.1740	41.2260
 1.1750	41.2210
 1.1760	41.2150
 1.1770	41.2100
 1.1780	41.2040
 1.1790	41.1960
 1.1800	41.1890
 1.1810	41.1810
 1.1820	41.1740
 1.1830	41.1670
 1.1840	41.1600
 1.1850	41.1540
 1.1860	41.1450
 1.1870	41.1370
 1.1880	41.1290
 1.1890	41.1220
 1.1900	41.1150
 1.1910	41.1080
 1.1920	41.1010
 1.1930	41.0900
 1.1940	41.0840
 1.1950	41.0790
 1.1960	41.0740
 1.1970	41.0710
 1.1980	41.0700
 1.1990	41.0680
 1.2000	41.0640
 1.2010	41.0610
 1.2020	41.0580
 1.2030	41.0530
 1.2040	41.0510
 1.2050	41.0530
 1.2060	41.0540
 1.2070	41.0550
 1.2080	41.0560
 1.2090	41.0560
 1.2100	41.0550
 1.2110	41.0560
 1.2120	41.0580
 1.2130	41.0590
 1.2140	41.0600
 1.2150	41.0630
 1.2160	41.0650
 1.2170	41.0690
 1.2180	41.0750
 1.2190	41.0810
 1.2200	41.0860
 1.2210	41.0900
 1.2220	41.0930
 1.2230	41.0950
 1.2240	41.1000
 1.2250	41.1050
 1.2260	41.1100
 1.2270	41.1160
 1.2280	41.1180
 1.2290	41.1210
 1.2300	41.1250
 1.2310	41.1270
 1.2320	41.1310
 1.2330	41.1350
 1.2340	41.1380
 1.2350	41.1400
 1.2360	41.1430
 1.2370	41.1450
 1.2380	41.1460
 1.2390	41.1480
 1.2400	41.1500
 1.2410	41.1500
 1.2420	41.1520
 1.2430	41.1520
 1.2440	41.1520
 1.2450	41.1510
 1.2460	41.1490
 1.2470	41.1490
 1.2480	41.1490
 1.2490	41.1500
 1.2500	41.1530
 1.2510	41.1540
 1.2520	41.1530
 1.2530	41.1500
 1.2540	41.1460
 1.2550	41.1440
 1.2560	41.1410
 1.2570	41.1380
 1.2580	41.1360
 1.2590	41.1330
 1.2600	41.1290
 1.2610	41.1250
 1.2620	41.1200
 1.2630	41.1160
 1.2640	41.1100
 1.2650	41.1050
 1.2660	41.1000
 1.2670	41.0960
 1.2680	41.0920
 1.2690	41.0880
 1.2700	41.0840
 1.2710	41.0780
 1.2720	41.0700
 1.2730	41.0630
 1.2740	41.0570
 1.2750	41.0500
 1.2760	41.0440
 1.2770	41.0390
 1.2780	41.0330
 1.2790	41.0240
 1.2800	41.0150
 1.2810	41.0050
 1.2820	40.9920
 1.2830	40.9790
 1.2840	40.9660
 1.2850	40.9500
 1.2860	40.9330
 1.2870	40.9150
 1.2880	40.8960
 1.2890	40.8760
 1.2900	40.8550
 1.2910	40.8330
 1.2920	40.8080
 1.2930	40.7830
 1.2940	40.7570
 1.2950	40.7310
 1.2960	40.7060
 1.2970	40.6800
 1.2980	40.6520
 1.2990	40.6240
 1.3000	40.5960
 1.3010	40.5660
 1.3020	40.5340
 1.3030	40.5020
 1.3040	40.4680
 1.3050	40.4350
 1.3060	40.4050
 1.3070	40.3740
 1.3080	40.3440
 1.3090	40.3130
 1.3100	40.2790
 1.3110	40.2480
 1.3120	40.2190
 1.3130	40.1870
 1.3140	40.1550
 1.3150	40.1210
 1.3160	40.0880
 1.3170	40.0520
 1.3180	40.0190
 1.3190	39.9860
 1.3200	39.9530
 1.3210	39.9200
 1.3220	39.8880
 1.3230	39.8550
 1.3240	39.8230
 1.3250	39.7900
 1.3260	39.7550
 1.3270	39.7200
 1.3280	39.6830
 1.3290	39.6460
 1.3300	39.6100
 1.3310	39.5740
 1.3320	39.5380
 1.3330	39.5000
 1.3340	39.4620
 1.3350	39.4220
 1.3360	39.3830
 1.3370	39.3450
 1.3380	39.3050
 1.3390	39.2650
 1.3400	39.2240
 1.3410	39.1840
 1.3420	39.1470
 1.3430	39.1100
 1.3440	39.0720
 1.3450	39.0330
 1.3460	38.9950
 1.3470	38.9560
 1.3480	38.9160
 1.3490	38.8760
 1.3500	38.8360
 1.3510	38.7960
 1.3520	38.7550
 1.3530	38.7130
 1.3540	38.6720
 1.3550	38.6300
 1.3560	38.5850
 1.3570	38.5410
 1.3580	38.4950
 1.3590	38.4500
 1.3600	38.4030
 1.3610	38.3540
 1.3620	38.3020
 1.3630	38.2470
 1.3640	38.1880
 1.3650	38.1270
 1.3660	38.0630
 1.3670	37.9950
 1.3680	37.9230
 1.3690	37.8460
 1.3700	37.7610
 1.3710	37.6690
 1.3720	37.5690
 1.3730	37.4600
 1.3740	37.3430
 1.3750	37.2160
 1.3760	37.0770
 1.3770	36.9260
 1.3780	36.7600
 1.3790	36.5830
 1.3800	36.3910
 1.3810	36.1840
 1.3820	35.9630
 1.3830	35.7290
 1.3840	35.4800
 1.3850	35.2180
 1.3860	34.9420
 1.3870	34.6520
 1.3880	34.3530
 1.3890	34.0400
 1.3900	33.7170
 1.3910	33.3900
 1.3920	33.0520
 1.3930	32.7060
 1.3940	32.3550
 1.3950	31.9980
 1.3960	31.6390
 1.3970	31.2830
 1.3980	30.9280
 1.3990	30.5810
 1.4000	30.2380
 1.4010	29.9000
 1.4020	29.5710
 1.4030	29.2500
 1.4040	28.9400
 1.4050	28.6430
 1.4060	28.3580
 1.4070	28.0880
 1.4080	27.8310
 1.4090	27.5860
 1.4100	27.3560
 1.4110	27.1380
 1.4120	26.9330
 1.4130	26.7430
 1.4140	26.5650
 1.4150	26.4020
 1.4160	26.2510
 1.4170	26.1100
 1.4180	25.9830
 1.4190	25.8650
 1.4200	25.7560
 1.4210	25.6580
 1.4220	25.5670
 1.4230	25.4850
 1.4240	25.4100
 1.4250	25.3430
 1.4260	25.2840
 1.4270	25.2310
 1.4280	25.1850
 1.4290	25.1450
 1.4300	25.1110
 1.4310	25.0810
 1.4320	25.0570
 1.4330	25.0360
 1.4340	25.0190
 1.4350	25.0060
 1.4360	24.9970
 1.4370	24.9910
 1.4380	24.9890
 1.4390	24.9890
 1.4400	24.9920
 1.4410	24.9980
 1.4420	25.0060
 1.4430	25.0160
 1.4440	25.0290
 1.4450	25.0430
 1.4460	25.0590
 1.4470	25.0760
 1.4480	25.0920
 1.4490	25.1100
 1.4500	25.1290
 1.4510	25.1480
 1.4520	25.1700
 1.4530	25.1930
 1.4540	25.2180
 1.4550	25.2460
 1.4560	25.2740
 1.4570	25.3040
 1.4580	25.3370
 1.4590	25.3720
 1.4600	25.4120
 1.4610	25.4540
 1.4620	25.5000
 1.4630	25.5520
 1.4640	25.6060
 1.4650	25.6640
 1.4660	25.7270
 1.4670	25.7920
 1.4680	25.8630
 1.4690	25.9370
 1.4700	26.0150
 1.4710	26.0960
 1.4720	26.1790
 1.4730	26.2650
 1.4740	26.3540
 1.4750	26.4450
 1.4760	26.5400
 1.4770	26.6350
