Name: Betula lenta
Type: Vegetation
Class: Tree
Genus: Betula
Species: lenta
Sample No.: BELE-2-59
Owner: UCSB
Wavelength Range: VSWIR
Origin: USA; Massachusetts; Harvard Forest
Collection Date: 7/8/2013
Description: Samples were collected as part of NSF Macrosystem Biology proposal titled: Collaborative Research: Thermal controls on ecosystem metabolism and function: scaling from leaves to canopies to regions. Samples were collected and overnighted to JPL facilities for processing. The same leaves were processed in the Nicolet and then measured using the ASD.
Measurement: Bidirectional reflectance
First Column: X
Second Column: Y
X Units: Wavelength (micrometers)
Y Units: Reflectance (percentage)
First X Value: 0.35
Last X Value: 2.5
Number of X Values: 2151
Additional Information: vegetation.tree.betula.lenta.vswir.bele-2-59.ucsb.asd.ancillary.txt

 0.3500	 8.8950
 0.3510	 8.6530
 0.3520	 8.4450
 0.3530	 8.4970
 0.3540	 8.7800
 0.3550	 8.6380
 0.3560	 8.4710
 0.3570	 8.4080
 0.3580	 8.4300
 0.3590	 8.5730
 0.3600	 8.5240
 0.3610	 8.2810
 0.3620	 8.2980
 0.3630	 8.3430
 0.3640	 8.3520
 0.3650	 8.3260
 0.3660	 8.3370
 0.3670	 8.3200
 0.3680	 8.2790
 0.3690	 8.2650
 0.3700	 8.2670
 0.3710	 8.2700
 0.3720	 8.2780
 0.3730	 8.3410
 0.3740	 8.3170
 0.3750	 8.2940
 0.3760	 8.3570
 0.3770	 8.1820
 0.3780	 8.1540
 0.3790	 8.2970
 0.3800	 8.3220
 0.3810	 8.3660
 0.3820	 8.3310
 0.3830	 8.2210
 0.3840	 8.3610
 0.3850	 8.4190
 0.3860	 8.3250
 0.3870	 8.1610
 0.3880	 8.2190
 0.3890	 8.2960
 0.3900	 8.3030
 0.3910	 8.3020
 0.3920	 8.2990
 0.3930	 8.2960
 0.3940	 8.2950
 0.3950	 8.3010
 0.3960	 8.2820
 0.3970	 8.2450
 0.3980	 8.2260
 0.3990	 8.3150
 0.4000	 8.3200
 0.4010	 8.2310
 0.4020	 8.2960
 0.4030	 8.3290
 0.4040	 8.3240
 0.4050	 8.3170
 0.4060	 8.3400
 0.4070	 8.3360
 0.4080	 8.3060
 0.4090	 8.2880
 0.4100	 8.3030
 0.4110	 8.3080
 0.4120	 8.2900
 0.4130	 8.3180
 0.4140	 8.3200
 0.4150	 8.3110
 0.4160	 8.3170
 0.4170	 8.2800
 0.4180	 8.2990
 0.4190	 8.3550
 0.4200	 8.3270
 0.4210	 8.3340
 0.4220	 8.3460
 0.4230	 8.3320
 0.4240	 8.3290
 0.4250	 8.3430
 0.4260	 8.3610
 0.4270	 8.3650
 0.4280	 8.3200
 0.4290	 8.3170
 0.4300	 8.3640
 0.4310	 8.3430
 0.4320	 8.3360
 0.4330	 8.3200
 0.4340	 8.2690
 0.4350	 8.2710
 0.4360	 8.2750
 0.4370	 8.2710
 0.4380	 8.2790
 0.4390	 8.2960
 0.4400	 8.3010
 0.4410	 8.2890
 0.4420	 8.2810
 0.4430	 8.2900
 0.4440	 8.3020
 0.4450	 8.3040
 0.4460	 8.3230
 0.4470	 8.3370
 0.4480	 8.3380
 0.4490	 8.3430
 0.4500	 8.3350
 0.4510	 8.3310
 0.4520	 8.3450
 0.4530	 8.3510
 0.4540	 8.3590
 0.4550	 8.3670
 0.4560	 8.3680
 0.4570	 8.3640
 0.4580	 8.3660
 0.4590	 8.3750
 0.4600	 8.3670
 0.4610	 8.3640
 0.4620	 8.3710
 0.4630	 8.3840
 0.4640	 8.3740
 0.4650	 8.3740
 0.4660	 8.3870
 0.4670	 8.3780
 0.4680	 8.3910
 0.4690	 8.3910
 0.4700	 8.3600
 0.4710	 8.3800
 0.4720	 8.3780
 0.4730	 8.3620
 0.4740	 8.3750
 0.4750	 8.3670
 0.4760	 8.3700
 0.4770	 8.3900
 0.4780	 8.3750
 0.4790	 8.3730
 0.4800	 8.3820
 0.4810	 8.3870
 0.4820	 8.3990
 0.4830	 8.3980
 0.4840	 8.3870
 0.4850	 8.3960
 0.4860	 8.4120
 0.4870	 8.4210
 0.4880	 8.4170
 0.4890	 8.4220
 0.4900	 8.4320
 0.4910	 8.4450
 0.4920	 8.4620
 0.4930	 8.4740
 0.4940	 8.4920
 0.4950	 8.5210
 0.4960	 8.5430
 0.4970	 8.5580
 0.4980	 8.5760
 0.4990	 8.6100
 0.5000	 8.6440
 0.5010	 8.6820
 0.5020	 8.7260
 0.5030	 8.7710
 0.5040	 8.8200
 0.5050	 8.8760
 0.5060	 8.9440
 0.5070	 9.0140
 0.5080	 9.0890
 0.5090	 9.1780
 0.5100	 9.2890
 0.5110	 9.4060
 0.5120	 9.5330
 0.5130	 9.6750
 0.5140	 9.8350
 0.5150	10.0090
 0.5160	10.2030
 0.5170	10.4190
 0.5180	10.6440
 0.5190	10.8720
 0.5200	11.1090
 0.5210	11.3680
 0.5220	11.6240
 0.5230	11.8780
 0.5240	12.1300
 0.5250	12.3730
 0.5260	12.6130
 0.5270	12.8430
 0.5280	13.0570
 0.5290	13.2580
 0.5300	13.4400
 0.5310	13.6060
 0.5320	13.7720
 0.5330	13.9060
 0.5340	14.0180
 0.5350	14.1230
 0.5360	14.2140
 0.5370	14.2960
 0.5380	14.3700
 0.5390	14.4300
 0.5400	14.4850
 0.5410	14.5260
 0.5420	14.5550
 0.5430	14.6010
 0.5440	14.6440
 0.5450	14.6860
 0.5460	14.7370
 0.5470	14.7910
 0.5480	14.8380
 0.5490	14.8730
 0.5500	14.8930
 0.5510	14.9130
 0.5520	14.9250
 0.5530	14.9210
 0.5540	14.9090
 0.5550	14.8780
 0.5560	14.8260
 0.5570	14.7590
 0.5580	14.6820
 0.5590	14.5890
 0.5600	14.4750
 0.5610	14.3480
 0.5620	14.2140
 0.5630	14.0680
 0.5640	13.9000
 0.5650	13.7290
 0.5660	13.5610
 0.5670	13.3900
 0.5680	13.2060
 0.5690	13.0250
 0.5700	12.8480
 0.5710	12.6730
 0.5720	12.5070
 0.5730	12.3480
 0.5740	12.1950
 0.5750	12.0510
 0.5760	11.9060
 0.5770	11.7790
 0.5780	11.6750
 0.5790	11.5710
 0.5800	11.4720
 0.5810	11.3730
 0.5820	11.2740
 0.5830	11.1930
 0.5840	11.1280
 0.5850	11.0690
 0.5860	11.0090
 0.5870	10.9470
 0.5880	10.8870
 0.5890	10.8290
 0.5900	10.7800
 0.5910	10.7320
 0.5920	10.6860
 0.5930	10.6490
 0.5940	10.6160
 0.5950	10.5900
 0.5960	10.5700
 0.5970	10.5420
 0.5980	10.5180
 0.5990	10.4960
 0.6000	10.4720
 0.6010	10.4420
 0.6020	10.4090
 0.6030	10.3720
 0.6040	10.3240
 0.6050	10.2810
 0.6060	10.2360
 0.6070	10.1810
 0.6080	10.1160
 0.6090	10.0420
 0.6100	 9.9630
 0.6110	 9.8850
 0.6120	 9.8260
 0.6130	 9.7820
 0.6140	 9.7420
 0.6150	 9.6850
 0.6160	 9.6360
 0.6170	 9.5950
 0.6180	 9.5550
 0.6190	 9.5040
 0.6200	 9.4680
 0.6210	 9.4440
 0.6220	 9.4130
 0.6230	 9.3890
 0.6240	 9.3680
 0.6250	 9.3480
 0.6260	 9.3430
 0.6270	 9.3350
 0.6280	 9.3260
 0.6290	 9.3190
 0.6300	 9.3010
 0.6310	 9.2880
 0.6320	 9.2840
 0.6330	 9.2740
 0.6340	 9.2550
 0.6350	 9.2290
 0.6360	 9.1980
 0.6370	 9.1620
 0.6380	 9.1200
 0.6390	 9.0740
 0.6400	 9.0270
 0.6410	 8.9730
 0.6420	 8.9200
 0.6430	 8.8710
 0.6440	 8.8230
 0.6450	 8.7780
 0.6460	 8.7340
 0.6470	 8.6940
 0.6480	 8.6670
 0.6490	 8.6400
 0.6500	 8.6130
 0.6510	 8.5920
 0.6520	 8.5780
 0.6530	 8.5620
 0.6540	 8.5430
 0.6550	 8.5350
 0.6560	 8.5220
 0.6570	 8.5060
 0.6580	 8.4940
 0.6590	 8.4800
 0.6600	 8.4610
 0.6610	 8.4390
 0.6620	 8.4210
 0.6630	 8.4100
 0.6640	 8.4030
 0.6650	 8.3990
 0.6660	 8.3990
 0.6670	 8.4020
 0.6680	 8.4050
 0.6690	 8.4100
 0.6700	 8.4190
 0.6710	 8.4350
 0.6720	 8.4570
 0.6730	 8.4780
 0.6740	 8.4920
 0.6750	 8.5100
 0.6760	 8.5400
 0.6770	 8.5680
 0.6780	 8.5960
 0.6790	 8.6280
 0.6800	 8.6640
 0.6810	 8.7040
 0.6820	 8.7460
 0.6830	 8.7880
 0.6840	 8.8360
 0.6850	 8.8900
 0.6860	 8.9540
 0.6870	 9.0280
 0.6880	 9.1100
 0.6890	 9.2210
 0.6900	 9.3710
 0.6910	 9.5580
 0.6920	 9.8000
 0.6930	10.1050
 0.6940	10.4860
 0.6950	10.9570
 0.6960	11.5100
 0.6970	12.1510
 0.6980	12.8810
 0.6990	13.6900
 0.7000	14.5720
 0.7010	15.5160
 0.7020	16.5130
 0.7030	17.5380
 0.7040	18.5860
 0.7050	19.6510
 0.7060	20.7230
 0.7070	21.7890
 0.7080	22.8510
 0.7090	23.9110
 0.7100	24.9360
 0.7110	25.9640
 0.7120	26.9900
 0.7130	27.9680
 0.7140	28.9290
 0.7150	29.8730
 0.7160	30.7960
 0.7170	31.6850
 0.7180	32.5520
 0.7190	33.3880
 0.7200	34.1840
 0.7210	34.9610
 0.7220	35.7050
 0.7230	36.4110
 0.7240	37.0850
 0.7250	37.7350
 0.7260	38.3580
 0.7270	38.9440
 0.7280	39.4890
 0.7290	40.0090
 0.7300	40.5020
 0.7310	40.9600
 0.7320	41.3900
 0.7330	41.7940
 0.7340	42.1750
 0.7350	42.5410
 0.7360	42.8720
 0.7370	43.1680
 0.7380	43.4410
 0.7390	43.7240
 0.7400	43.9790
 0.7410	44.2070
 0.7420	44.4240
 0.7430	44.6140
 0.7440	44.8000
 0.7450	44.9800
 0.7460	45.1230
 0.7470	45.2310
 0.7480	45.3430
 0.7490	45.4720
 0.7500	45.5800
 0.7510	45.6780
 0.7520	45.7640
 0.7530	45.8330
 0.7540	45.8960
 0.7550	45.9560
 0.7560	46.0150
 0.7570	46.0690
 0.7580	46.1260
 0.7590	46.1680
 0.7600	46.1940
 0.7610	46.2280
 0.7620	46.2550
 0.7630	46.2710
 0.7640	46.2800
 0.7650	46.3170
 0.7660	46.3360
 0.7670	46.3410
 0.7680	46.3630
 0.7690	46.3770
 0.7700	46.3950
 0.7710	46.4160
 0.7720	46.4250
 0.7730	46.4200
 0.7740	46.4230
 0.7750	46.4440
 0.7760	46.4520
 0.7770	46.4570
 0.7780	46.4660
 0.7790	46.4800
 0.7800	46.4820
 0.7810	46.4840
 0.7820	46.4890
 0.7830	46.4890
 0.7840	46.4990
 0.7850	46.5110
 0.7860	46.5190
 0.7870	46.5280
 0.7880	46.5440
 0.7890	46.5550
 0.7900	46.5500
 0.7910	46.5500
 0.7920	46.5540
 0.7930	46.5520
 0.7940	46.5380
 0.7950	46.5540
 0.7960	46.5660
 0.7970	46.5630
 0.7980	46.5680
 0.7990	46.5680
 0.8000	46.5770
 0.8010	46.5940
 0.8020	46.5660
 0.8030	46.5480
 0.8040	46.5530
 0.8050	46.5680
 0.8060	46.5500
 0.8070	46.5440
 0.8080	46.5500
 0.8090	46.5280
 0.8100	46.5140
 0.8110	46.5100
 0.8120	46.5100
 0.8130	46.5020
 0.8140	46.4880
 0.8150	46.4810
 0.8160	46.4850
 0.8170	46.4680
 0.8180	46.4500
 0.8190	46.4470
 0.8200	46.4640
 0.8210	46.4580
 0.8220	46.4360
 0.8230	46.4060
 0.8240	46.3800
 0.8250	46.3790
 0.8260	46.3820
 0.8270	46.3730
 0.8280	46.3580
 0.8290	46.3560
 0.8300	46.3480
 0.8310	46.3230
 0.8320	46.3210
 0.8330	46.3210
 0.8340	46.3110
 0.8350	46.2890
 0.8360	46.2820
 0.8370	46.2960
 0.8380	46.3080
 0.8390	46.2780
 0.8400	46.2670
 0.8410	46.2560
 0.8420	46.2390
 0.8430	46.2440
 0.8440	46.2590
 0.8450	46.2500
 0.8460	46.2110
 0.8470	46.2150
 0.8480	46.2210
 0.8490	46.2300
 0.8500	46.2450
 0.8510	46.2220
 0.8520	46.2050
 0.8530	46.2070
 0.8540	46.2180
 0.8550	46.2110
 0.8560	46.2040
 0.8570	46.2030
 0.8580	46.1910
 0.8590	46.1940
 0.8600	46.2030
 0.8610	46.2040
 0.8620	46.2000
 0.8630	46.2040
 0.8640	46.2070
 0.8650	46.1980
 0.8660	46.1740
 0.8670	46.1780
 0.8680	46.1970
 0.8690	46.1990
 0.8700	46.2020
 0.8710	46.2010
 0.8720	46.1990
 0.8730	46.2030
 0.8740	46.2070
 0.8750	46.2070
 0.8760	46.2030
 0.8770	46.1970
 0.8780	46.2190
 0.8790	46.2240
 0.8800	46.2000
 0.8810	46.1930
 0.8820	46.2200
 0.8830	46.2390
 0.8840	46.2260
 0.8850	46.2250
 0.8860	46.2240
 0.8870	46.2330
 0.8880	46.2590
 0.8890	46.2820
 0.8900	46.2650
 0.8910	46.2390
 0.8920	46.2510
 0.8930	46.2690
 0.8940	46.2750
 0.8950	46.2740
 0.8960	46.2840
 0.8970	46.2940
 0.8980	46.2940
 0.8990	46.2870
 0.9000	46.2860
 0.9010	46.3000
 0.9020	46.3100
 0.9030	46.3040
 0.9040	46.2920
 0.9050	46.2960
 0.9060	46.3060
 0.9070	46.3090
 0.9080	46.3100
 0.9090	46.3220
 0.9100	46.3360
 0.9110	46.3440
 0.9120	46.3540
 0.9130	46.3630
 0.9140	46.3670
 0.9150	46.3650
 0.9160	46.3730
 0.9170	46.3770
 0.9180	46.3790
 0.9190	46.3880
 0.9200	46.3780
 0.9210	46.3760
 0.9220	46.3840
 0.9230	46.3840
 0.9240	46.3750
 0.9250	46.3880
 0.9260	46.4070
 0.9270	46.3910
 0.9280	46.3840
 0.9290	46.3630
 0.9300	46.3420
 0.9310	46.3670
 0.9320	46.3940
 0.9330	46.3810
 0.9340	46.3440
 0.9350	46.3600
 0.9360	46.3630
 0.9370	46.3620
 0.9380	46.3560
 0.9390	46.3180
 0.9400	46.3000
 0.9410	46.3030
 0.9420	46.3100
 0.9430	46.2970
 0.9440	46.2910
 0.9450	46.2780
 0.9460	46.2550
 0.9470	46.2580
 0.9480	46.2430
 0.9490	46.2290
 0.9500	46.2330
 0.9510	46.2260
 0.9520	46.2090
 0.9530	46.1800
 0.9540	46.1420
 0.9550	46.1290
 0.9560	46.1160
 0.9570	46.1000
 0.9580	46.0780
 0.9590	46.0290
 0.9600	45.9950
 0.9610	45.9850
 0.9620	45.9930
 0.9630	45.9960
 0.9640	45.9650
 0.9650	45.9330
 0.9660	45.9420
 0.9670	45.9820
 0.9680	45.9810
 0.9690	45.9350
 0.9700	45.8860
 0.9710	45.8920
 0.9720	45.9080
 0.9730	45.9210
 0.9740	45.9320
 0.9750	45.9270
 0.9760	45.9080
 0.9770	45.8930
 0.9780	45.8960
 0.9790	45.8820
 0.9800	45.9130
 0.9810	45.9480
 0.9820	45.9190
 0.9830	45.8870
 0.9840	45.8600
 0.9850	45.8660
 0.9860	45.9160
 0.9870	45.9010
 0.9880	45.8890
 0.9890	45.8900
 0.9900	45.8860
 0.9910	45.8860
 0.9920	45.9680
 0.9930	46.0490
 0.9940	46.1310
 0.9950	46.2130
 0.9960	46.2940
 0.9970	46.3760
 0.9980	46.4570
 0.9990	46.5390
 1.0000	46.6210
 1.0010	46.7020
 1.0020	46.7840
 1.0030	46.8650
 1.0040	46.9470
 1.0050	47.0280
 1.0060	47.1100
 1.0070	47.1920
 1.0080	47.2730
 1.0090	47.3550
 1.0100	47.3550
 1.0110	47.3600
 1.0120	47.3670
 1.0130	47.3750
 1.0140	47.3820
 1.0150	47.3930
 1.0160	47.3990
 1.0170	47.4000
 1.0180	47.4080
 1.0190	47.4060
 1.0200	47.4050
 1.0210	47.4090
 1.0220	47.4140
 1.0230	47.4210
 1.0240	47.4380
 1.0250	47.4460
 1.0260	47.4480
 1.0270	47.4540
 1.0280	47.4600
 1.0290	47.4620
 1.0300	47.4620
 1.0310	47.4670
 1.0320	47.4710
 1.0330	47.4760
 1.0340	47.4810
 1.0350	47.4950
 1.0360	47.5040
 1.0370	47.5070
 1.0380	47.5090
 1.0390	47.5090
 1.0400	47.5120
 1.0410	47.5100
 1.0420	47.5170
 1.0430	47.5380
 1.0440	47.5470
 1.0450	47.5560
 1.0460	47.5630
 1.0470	47.5600
 1.0480	47.5640
 1.0490	47.5760
 1.0500	47.5830
 1.0510	47.5850
 1.0520	47.5920
 1.0530	47.6000
 1.0540	47.6060
 1.0550	47.6130
 1.0560	47.6280
 1.0570	47.6340
 1.0580	47.6370
 1.0590	47.6400
 1.0600	47.6380
 1.0610	47.6410
 1.0620	47.6480
 1.0630	47.6510
 1.0640	47.6540
 1.0650	47.6580
 1.0660	47.6610
 1.0670	47.6650
 1.0680	47.6690
 1.0690	47.6760
 1.0700	47.6820
 1.0710	47.6870
 1.0720	47.6910
 1.0730	47.6960
 1.0740	47.6990
 1.0750	47.6980
 1.0760	47.6990
 1.0770	47.6990
 1.0780	47.7010
 1.0790	47.7080
 1.0800	47.7080
 1.0810	47.7070
 1.0820	47.7070
 1.0830	47.7060
 1.0840	47.7030
 1.0850	47.7020
 1.0860	47.6970
 1.0870	47.6940
 1.0880	47.6880
 1.0890	47.6850
 1.0900	47.6860
 1.0910	47.6840
 1.0920	47.6840
 1.0930	47.6800
 1.0940	47.6720
 1.0950	47.6700
 1.0960	47.6680
 1.0970	47.6670
 1.0980	47.6670
 1.0990	47.6690
 1.1000	47.6750
 1.1010	47.6760
 1.1020	47.6780
 1.1030	47.6730
 1.1040	47.6670
 1.1050	47.6660
 1.1060	47.6610
 1.1070	47.6590
 1.1080	47.6550
 1.1090	47.6460
 1.1100	47.6400
 1.1110	47.6350
 1.1120	47.6340
 1.1130	47.6370
 1.1140	47.6350
 1.1150	47.6350
 1.1160	47.6310
 1.1170	47.6170
 1.1180	47.6090
 1.1190	47.6030
 1.1200	47.5970
 1.1210	47.5910
 1.1220	47.5850
 1.1230	47.5750
 1.1240	47.5630
 1.1250	47.5480
 1.1260	47.5290
 1.1270	47.5120
 1.1280	47.4920
 1.1290	47.4760
 1.1300	47.4660
 1.1310	47.4480
 1.1320	47.4300
 1.1330	47.4050
 1.1340	47.3730
 1.1350	47.3420
 1.1360	47.3080
 1.1370	47.2760
 1.1380	47.2370
 1.1390	47.1970
 1.1400	47.1540
 1.1410	47.1080
 1.1420	47.0680
 1.1430	47.0300
 1.1440	46.9880
 1.1450	46.9430
 1.1460	46.9010
 1.1470	46.8580
 1.1480	46.8160
 1.1490	46.7750
 1.1500	46.7370
 1.1510	46.6940
 1.1520	46.6620
 1.1530	46.6390
 1.1540	46.6150
 1.1550	46.5940
 1.1560	46.5760
 1.1570	46.5570
 1.1580	46.5370
 1.1590	46.5240
 1.1600	46.5150
 1.1610	46.5070
 1.1620	46.5000
 1.1630	46.4970
 1.1640	46.4930
 1.1650	46.4880
 1.1660	46.4830
 1.1670	46.4800
 1.1680	46.4760
 1.1690	46.4730
 1.1700	46.4740
 1.1710	46.4720
 1.1720	46.4660
 1.1730	46.4630
 1.1740	46.4630
 1.1750	46.4580
 1.1760	46.4560
 1.1770	46.4570
 1.1780	46.4570
 1.1790	46.4610
 1.1800	46.4610
 1.1810	46.4590
 1.1820	46.4590
 1.1830	46.4520
 1.1840	46.4460
 1.1850	46.4450
 1.1860	46.4380
 1.1870	46.4340
 1.1880	46.4320
 1.1890	46.4300
 1.1900	46.4300
 1.1910	46.4340
 1.1920	46.4350
 1.1930	46.4350
 1.1940	46.4370
 1.1950	46.4370
 1.1960	46.4360
 1.1970	46.4400
 1.1980	46.4450
 1.1990	46.4510
 1.2000	46.4550
 1.2010	46.4560
 1.2020	46.4590
 1.2030	46.4630
 1.2040	46.4650
 1.2050	46.4680
 1.2060	46.4730
 1.2070	46.4740
 1.2080	46.4770
 1.2090	46.4870
 1.2100	46.4960
 1.2110	46.5060
 1.2120	46.5210
 1.2130	46.5310
 1.2140	46.5390
 1.2150	46.5460
 1.2160	46.5530
 1.2170	46.5560
 1.2180	46.5630
 1.2190	46.5700
 1.2200	46.5780
 1.2210	46.5910
 1.2220	46.5990
 1.2230	46.6100
 1.2240	46.6220
 1.2250	46.6310
 1.2260	46.6440
 1.2270	46.6570
 1.2280	46.6710
 1.2290	46.6830
 1.2300	46.6910
 1.2310	46.7020
 1.2320	46.7100
 1.2330	46.7140
 1.2340	46.7210
 1.2350	46.7280
 1.2360	46.7350
 1.2370	46.7420
 1.2380	46.7490
 1.2390	46.7600
 1.2400	46.7710
 1.2410	46.7790
 1.2420	46.7870
 1.2430	46.7930
 1.2440	46.7980
 1.2450	46.7990
 1.2460	46.7980
 1.2470	46.7970
 1.2480	46.7950
 1.2490	46.7980
 1.2500	46.8070
 1.2510	46.8160
 1.2520	46.8200
 1.2530	46.8210
 1.2540	46.8230
 1.2550	46.8250
 1.2560	46.8280
 1.2570	46.8360
 1.2580	46.8340
 1.2590	46.8350
 1.2600	46.8370
 1.2610	46.8370
 1.2620	46.8350
 1.2630	46.8400
 1.2640	46.8410
 1.2650	46.8380
 1.2660	46.8440
 1.2670	46.8490
 1.2680	46.8530
 1.2690	46.8600
 1.2700	46.8590
 1.2710	46.8560
 1.2720	46.8560
 1.2730	46.8550
 1.2740	46.8580
 1.2750	46.8590
 1.2760	46.8590
 1.2770	46.8600
 1.2780	46.8580
 1.2790	46.8590
 1.2800	46.8610
 1.2810	46.8580
 1.2820	46.8570
 1.2830	46.8500
 1.2840	46.8430
 1.2850	46.8390
 1.2860	46.8340
 1.2870	46.8270
 1.2880	46.8190
 1.2890	46.8070
 1.2900	46.7950
 1.2910	46.7840
 1.2920	46.7750
 1.2930	46.7670
 1.2940	46.7550
 1.2950	46.7400
 1.2960	46.7250
 1.2970	46.7120
 1.2980	46.6990
 1.2990	46.6790
 1.3000	46.6550
 1.3010	46.6320
 1.3020	46.6120
 1.3030	46.5880
 1.3040	46.5640
 1.3050	46.5370
 1.3060	46.5110
 1.3070	46.4850
 1.3080	46.4540
 1.3090	46.4250
 1.3100	46.3940
 1.3110	46.3570
 1.3120	46.3210
 1.3130	46.2880
 1.3140	46.2500
 1.3150	46.2100
 1.3160	46.1690
 1.3170	46.1280
 1.3180	46.0800
 1.3190	46.0300
 1.3200	45.9850
 1.3210	45.9390
 1.3220	45.8950
 1.3230	45.8490
 1.3240	45.8010
 1.3250	45.7510
 1.3260	45.6980
 1.3270	45.6450
 1.3280	45.5890
 1.3290	45.5360
 1.3300	45.4820
 1.3310	45.4280
 1.3320	45.3730
 1.3330	45.3150
 1.3340	45.2550
 1.3350	45.1990
 1.3360	45.1410
 1.3370	45.0790
 1.3380	45.0190
 1.3390	44.9580
 1.3400	44.8990
 1.3410	44.8470
 1.3420	44.7920
 1.3430	44.7350
 1.3440	44.6800
 1.3450	44.6210
 1.3460	44.5580
 1.3470	44.4990
 1.3480	44.4430
 1.3490	44.3830
 1.3500	44.3220
 1.3510	44.2630
 1.3520	44.2030
 1.3530	44.1420
 1.3540	44.0860
 1.3550	44.0290
 1.3560	43.9700
 1.3570	43.9130
 1.3580	43.8540
 1.3590	43.7970
 1.3600	43.7350
 1.3610	43.6690
 1.3620	43.5990
 1.3630	43.5260
 1.3640	43.4530
 1.3650	43.3790
 1.3660	43.3020
 1.3670	43.2180
 1.3680	43.1270
 1.3690	43.0290
 1.3700	42.9220
 1.3710	42.8120
 1.3720	42.6930
 1.3730	42.5630
 1.3740	42.4280
 1.3750	42.2810
 1.3760	42.1210
 1.3770	41.9510
 1.3780	41.7610
 1.3790	41.5580
 1.3800	41.3400
 1.3810	41.1010
 1.3820	40.8500
 1.3830	40.5860
 1.3840	40.3060
 1.3850	40.0120
 1.3860	39.7030
 1.3870	39.3780
 1.3880	39.0430
 1.3890	38.6950
 1.3900	38.3300
 1.3910	37.9640
 1.3920	37.5870
 1.3930	37.2000
 1.3940	36.8140
 1.3950	36.4200
 1.3960	36.0240
 1.3970	35.6300
 1.3980	35.2360
 1.3990	34.8490
 1.4000	34.4690
 1.4010	34.0940
 1.4020	33.7280
 1.4030	33.3700
 1.4040	33.0220
 1.4050	32.6900
 1.4060	32.3740
 1.4070	32.0750
 1.4080	31.7900
 1.4090	31.5190
 1.4100	31.2640
 1.4110	31.0220
 1.4120	30.7950
 1.4130	30.5860
 1.4140	30.3910
 1.4150	30.2120
 1.4160	30.0470
 1.4170	29.8920
 1.4180	29.7520
 1.4190	29.6220
 1.4200	29.5030
 1.4210	29.3940
 1.4220	29.2930
 1.4230	29.2040
 1.4240	29.1250
 1.4250	29.0540
 1.4260	28.9960
 1.4270	28.9430
 1.4280	28.8960
 1.4290	28.8560
 1.4300	28.8220
 1.4310	28.7930
 1.4320	28.7700
 1.4330	28.7520
 1.4340	28.7390
 1.4350	28.7310
 1.4360	28.7270
 1.4370	28.7290
 1.4380	28.7350
 1.4390	28.7420
 1.4400	28.7520
 1.4410	28.7630
 1.4420	28.7770
 1.4430	28.7940
 1.4440	28.8130
 1.4450	28.8340
 1.4460	28.8560
 1.4470	28.8790
 1.4480	28.9020
 1.4490	28.9270
 1.4500	28.9540
 1.4510	28.9820
 1.4520	29.0120
 1.4530	29.0430
 1.4540	29.0750
 1.4550	29.1090
 1.4560	29.1450
 1.4570	29.1840
 1.4580	29.2250
 1.4590	29.2710
 1.4600	29.3220
 1.4610	29.3750
 1.4620	29.4330
 1.4630	29.4970
 1.4640	29.5640
 1.4650	29.6360
 1.4660	29.7150
 1.4670	29.7990
 1.4680	29.8850
 1.4690	29.9760
 1.4700	30.0670
 1.4710	30.1580
 1.4720	30.2570
 1.4730	30.3600
