Name: Bambusa beecheyana
Type: vegetation
Class: Tree
Genus: Bambusa
Species: beecheyana
Sample No.: JPL134
Owner: JPL
Wavelength Range: VSWIR
Origin: 34.12719; -118.11127;; WGS84
Collection Date: 9/7/2016
Description: Samples were collected at the Huntington Garden in San Marino California as part of a JPL Subcontract studying HyTES imagery. Samples were taken to JPL and processed within 48 hours of collection. The same leaves were processed in the Nicolet and then measured using the ASD.
Measurement: Bidirectional reflectance
First Column: X
Second Column: Y
X Units: Wavelength (micrometer)
Y Units: Reflectance (percentage)
First X Value: 0.35
Last X Value: 2.5
Number of X Values: 2151
Additional Information: vegetation.tree.bambusa.beecheyana.vswir.jpl134.jpl.asd.ancillary.txt

 0.3500	 4.6340
 0.3510	 4.6670
 0.3520	 4.5140
 0.3530	 4.3490
 0.3540	 4.3350
 0.3550	 4.4650
 0.3560	 4.4090
 0.3570	 4.2640
 0.3580	 4.3130
 0.3590	 4.3220
 0.3600	 4.3410
 0.3610	 4.3900
 0.3620	 4.4030
 0.3630	 4.3210
 0.3640	 4.2560
 0.3650	 4.3000
 0.3660	 4.2970
 0.3670	 4.3080
 0.3680	 4.3200
 0.3690	 4.2770
 0.3700	 4.2750
 0.3710	 4.2900
 0.3720	 4.2910
 0.3730	 4.2640
 0.3740	 4.2660
 0.3750	 4.2860
 0.3760	 4.2850
 0.3770	 4.2250
 0.3780	 4.2110
 0.3790	 4.2370
 0.3800	 4.2060
 0.3810	 4.1980
 0.3820	 4.2440
 0.3830	 4.3190
 0.3840	 4.2770
 0.3850	 4.2690
 0.3860	 4.2790
 0.3870	 4.2430
 0.3880	 4.2230
 0.3890	 4.2360
 0.3900	 4.2630
 0.3910	 4.2570
 0.3920	 4.2240
 0.3930	 4.2260
 0.3940	 4.2810
 0.3950	 4.2800
 0.3960	 4.2720
 0.3970	 4.2700
 0.3980	 4.2690
 0.3990	 4.2550
 0.4000	 4.2530
 0.4010	 4.2740
 0.4020	 4.3130
 0.4030	 4.3020
 0.4040	 4.2770
 0.4050	 4.2830
 0.4060	 4.3180
 0.4070	 4.3420
 0.4080	 4.3540
 0.4090	 4.3750
 0.4100	 4.3720
 0.4110	 4.3760
 0.4120	 4.4020
 0.4130	 4.4270
 0.4140	 4.4480
 0.4150	 4.4540
 0.4160	 4.4430
 0.4170	 4.4600
 0.4180	 4.4660
 0.4190	 4.4640
 0.4200	 4.4910
 0.4210	 4.5150
 0.4220	 4.5260
 0.4230	 4.5290
 0.4240	 4.5490
 0.4250	 4.5650
 0.4260	 4.5780
 0.4270	 4.5940
 0.4280	 4.6070
 0.4290	 4.6180
 0.4300	 4.6270
 0.4310	 4.6250
 0.4320	 4.6320
 0.4330	 4.6410
 0.4340	 4.6440
 0.4350	 4.6430
 0.4360	 4.6540
 0.4370	 4.6710
 0.4380	 4.6810
 0.4390	 4.6860
 0.4400	 4.6940
 0.4410	 4.7090
 0.4420	 4.7250
 0.4430	 4.7310
 0.4440	 4.7310
 0.4450	 4.7330
 0.4460	 4.7470
 0.4470	 4.7590
 0.4480	 4.7630
 0.4490	 4.7710
 0.4500	 4.7830
 0.4510	 4.7920
 0.4520	 4.7960
 0.4530	 4.8010
 0.4540	 4.8080
 0.4550	 4.8160
 0.4560	 4.8240
 0.4570	 4.8300
 0.4580	 4.8370
 0.4590	 4.8440
 0.4600	 4.8400
 0.4610	 4.8410
 0.4620	 4.8470
 0.4630	 4.8530
 0.4640	 4.8570
 0.4650	 4.8570
 0.4660	 4.8550
 0.4670	 4.8600
 0.4680	 4.8580
 0.4690	 4.8550
 0.4700	 4.8570
 0.4710	 4.8620
 0.4720	 4.8680
 0.4730	 4.8690
 0.4740	 4.8650
 0.4750	 4.8660
 0.4760	 4.8660
 0.4770	 4.8660
 0.4780	 4.8700
 0.4790	 4.8750
 0.4800	 4.8790
 0.4810	 4.8780
 0.4820	 4.8750
 0.4830	 4.8760
 0.4840	 4.8810
 0.4850	 4.8860
 0.4860	 4.8910
 0.4870	 4.8950
 0.4880	 4.8980
 0.4890	 4.9170
 0.4900	 4.9330
 0.4910	 4.9430
 0.4920	 4.9500
 0.4930	 4.9720
 0.4940	 4.9960
 0.4950	 5.0170
 0.4960	 5.0450
 0.4970	 5.0700
 0.4980	 5.0970
 0.4990	 5.1320
 0.5000	 5.1680
 0.5010	 5.2100
 0.5020	 5.2590
 0.5030	 5.3100
 0.5040	 5.3680
 0.5050	 5.4340
 0.5060	 5.5070
 0.5070	 5.5890
 0.5080	 5.6760
 0.5090	 5.7730
 0.5100	 5.8810
 0.5110	 6.0020
 0.5120	 6.1340
 0.5130	 6.2770
 0.5140	 6.4300
 0.5150	 6.6000
 0.5160	 6.7820
 0.5170	 6.9720
 0.5180	 7.1730
 0.5190	 7.3840
 0.5200	 7.6040
 0.5210	 7.8300
 0.5220	 8.0610
 0.5230	 8.2920
 0.5240	 8.5160
 0.5250	 8.7360
 0.5260	 8.9530
 0.5270	 9.1630
 0.5280	 9.3620
 0.5290	 9.5450
 0.5300	 9.7150
 0.5310	 9.8770
 0.5320	10.0270
 0.5330	10.1600
 0.5340	10.2810
 0.5350	10.3930
 0.5360	10.4940
 0.5370	10.5860
 0.5380	10.6680
 0.5390	10.7430
 0.5400	10.8140
 0.5410	10.8810
 0.5420	10.9450
 0.5430	11.0020
 0.5440	11.0520
 0.5450	11.0940
 0.5460	11.1290
 0.5470	11.1580
 0.5480	11.1840
 0.5490	11.2110
 0.5500	11.2340
 0.5510	11.2470
 0.5520	11.2490
 0.5530	11.2400
 0.5540	11.2190
 0.5550	11.1880
 0.5560	11.1460
 0.5570	11.0890
 0.5580	11.0200
 0.5590	10.9410
 0.5600	10.8510
 0.5610	10.7490
 0.5620	10.6410
 0.5630	10.5250
 0.5640	10.3950
 0.5650	10.2620
 0.5660	10.1240
 0.5670	 9.9780
 0.5680	 9.8310
 0.5690	 9.6830
 0.5700	 9.5340
 0.5710	 9.3890
 0.5720	 9.2520
 0.5730	 9.1190
 0.5740	 8.9930
 0.5750	 8.8800
 0.5760	 8.7770
 0.5770	 8.6760
 0.5780	 8.5750
 0.5790	 8.4840
 0.5800	 8.3960
 0.5810	 8.3120
 0.5820	 8.2320
 0.5830	 8.1580
 0.5840	 8.0890
 0.5850	 8.0250
 0.5860	 7.9620
 0.5870	 7.9020
 0.5880	 7.8440
 0.5890	 7.7890
 0.5900	 7.7450
 0.5910	 7.7110
 0.5920	 7.6840
 0.5930	 7.6550
 0.5940	 7.6260
 0.5950	 7.5990
 0.5960	 7.5730
 0.5970	 7.5470
 0.5980	 7.5220
 0.5990	 7.4960
 0.6000	 7.4680
 0.6010	 7.4370
 0.6020	 7.4020
 0.6030	 7.3620
 0.6040	 7.3170
 0.6050	 7.2700
 0.6060	 7.2190
 0.6070	 7.1600
 0.6080	 7.0960
 0.6090	 7.0310
 0.6100	 6.9650
 0.6110	 6.8980
 0.6120	 6.8320
 0.6130	 6.7680
 0.6140	 6.7050
 0.6150	 6.6430
 0.6160	 6.5860
 0.6170	 6.5300
 0.6180	 6.4730
 0.6190	 6.4280
 0.6200	 6.3860
 0.6210	 6.3460
 0.6220	 6.3110
 0.6230	 6.2820
 0.6240	 6.2580
 0.6250	 6.2380
 0.6260	 6.2200
 0.6270	 6.2050
 0.6280	 6.1920
 0.6290	 6.1810
 0.6300	 6.1670
 0.6310	 6.1550
 0.6320	 6.1440
 0.6330	 6.1280
 0.6340	 6.1070
 0.6350	 6.0790
 0.6360	 6.0440
 0.6370	 6.0050
 0.6380	 5.9590
 0.6390	 5.9090
 0.6400	 5.8550
 0.6410	 5.8010
 0.6420	 5.7450
 0.6430	 5.6880
 0.6440	 5.6310
 0.6450	 5.5750
 0.6460	 5.5190
 0.6470	 5.4660
 0.6480	 5.4190
 0.6490	 5.3770
 0.6500	 5.3400
 0.6510	 5.3090
 0.6520	 5.2840
 0.6530	 5.2620
 0.6540	 5.2380
 0.6550	 5.2100
 0.6560	 5.1820
 0.6570	 5.1510
 0.6580	 5.1160
 0.6590	 5.0810
 0.6600	 5.0450
 0.6610	 5.0070
 0.6620	 4.9710
 0.6630	 4.9370
 0.6640	 4.9070
 0.6650	 4.8840
 0.6660	 4.8620
 0.6670	 4.8440
 0.6680	 4.8300
 0.6690	 4.8220
 0.6700	 4.8170
 0.6710	 4.8160
 0.6720	 4.8200
 0.6730	 4.8260
 0.6740	 4.8350
 0.6750	 4.8470
 0.6760	 4.8620
 0.6770	 4.8780
 0.6780	 4.8990
 0.6790	 4.9250
 0.6800	 4.9530
 0.6810	 4.9850
 0.6820	 5.0210
 0.6830	 5.0650
 0.6840	 5.1160
 0.6850	 5.1760
 0.6860	 5.2480
 0.6870	 5.3360
 0.6880	 5.4450
 0.6890	 5.5820
 0.6900	 5.7540
 0.6910	 5.9660
 0.6920	 6.2240
 0.6930	 6.5360
 0.6940	 6.9070
 0.6950	 7.3390
 0.6960	 7.8320
 0.6970	 8.3830
 0.6980	 8.9920
 0.6990	 9.6520
 0.7000	10.3530
 0.7010	11.0870
 0.7020	11.8430
 0.7030	12.6130
 0.7040	13.3920
 0.7050	14.1730
 0.7060	14.9490
 0.7070	15.7190
 0.7080	16.4810
 0.7090	17.2330
 0.7100	17.9760
 0.7110	18.7120
 0.7120	19.4410
 0.7130	20.1580
 0.7140	20.8660
 0.7150	21.5660
 0.7160	22.2570
 0.7170	22.9390
 0.7180	23.6080
 0.7190	24.2680
 0.7200	24.9170
 0.7210	25.5550
 0.7220	26.1780
 0.7230	26.7860
 0.7240	27.3790
 0.7250	27.9550
 0.7260	28.5130
 0.7270	29.0530
 0.7280	29.5730
 0.7290	30.0750
 0.7300	30.5560
 0.7310	31.0160
 0.7320	31.4570
 0.7330	31.8790
 0.7340	32.2810
 0.7350	32.6640
 0.7360	33.0240
 0.7370	33.3650
 0.7380	33.6880
 0.7390	33.9940
 0.7400	34.2820
 0.7410	34.5520
 0.7420	34.8060
 0.7430	35.0400
 0.7440	35.2590
 0.7450	35.4630
 0.7460	35.6530
 0.7470	35.8280
 0.7480	35.9890
 0.7490	36.1380
 0.7500	36.2730
 0.7510	36.3970
 0.7520	36.5120
 0.7530	36.6200
 0.7540	36.7180
 0.7550	36.8060
 0.7560	36.8840
 0.7570	36.9550
 0.7580	37.0200
 0.7590	37.0800
 0.7600	37.1370
 0.7610	37.1890
 0.7620	37.2350
 0.7630	37.2760
 0.7640	37.3140
 0.7650	37.3480
 0.7660	37.3780
 0.7670	37.4040
 0.7680	37.4290
 0.7690	37.4510
 0.7700	37.4720
 0.7710	37.4910
 0.7720	37.5060
 0.7730	37.5170
 0.7740	37.5290
 0.7750	37.5450
 0.7760	37.5550
 0.7770	37.5650
 0.7780	37.5750
 0.7790	37.5840
 0.7800	37.5900
 0.7810	37.5960
 0.7820	37.6000
 0.7830	37.6040
 0.7840	37.6080
 0.7850	37.6110
 0.7860	37.6140
 0.7870	37.6130
 0.7880	37.6140
 0.7890	37.6150
 0.7900	37.6090
 0.7910	37.6070
 0.7920	37.6070
 0.7930	37.6040
 0.7940	37.5970
 0.7950	37.5900
 0.7960	37.5850
 0.7970	37.5820
 0.7980	37.5750
 0.7990	37.5650
 0.8000	37.5550
 0.8010	37.5470
 0.8020	37.5370
 0.8030	37.5250
 0.8040	37.5120
 0.8050	37.4990
 0.8060	37.4890
 0.8070	37.4760
 0.8080	37.4620
 0.8090	37.4470
 0.8100	37.4350
 0.8110	37.4230
 0.8120	37.4090
 0.8130	37.3910
 0.8140	37.3750
 0.8150	37.3600
 0.8160	37.3440
 0.8170	37.3310
 0.8180	37.3150
 0.8190	37.2980
 0.8200	37.2850
 0.8210	37.2680
 0.8220	37.2500
 0.8230	37.2310
 0.8240	37.2140
 0.8250	37.1990
 0.8260	37.1820
 0.8270	37.1650
 0.8280	37.1560
 0.8290	37.1430
 0.8300	37.1250
 0.8310	37.1090
 0.8320	37.0950
 0.8330	37.0820
 0.8340	37.0670
 0.8350	37.0520
 0.8360	37.0410
 0.8370	37.0290
 0.8380	37.0160
 0.8390	37.0050
 0.8400	36.9940
 0.8410	36.9840
 0.8420	36.9760
 0.8430	36.9690
 0.8440	36.9610
 0.8450	36.9530
 0.8460	36.9460
 0.8470	36.9370
 0.8480	36.9290
 0.8490	36.9230
 0.8500	36.9190
 0.8510	36.9120
 0.8520	36.9070
 0.8530	36.9040
 0.8540	36.8990
 0.8550	36.8940
 0.8560	36.8900
 0.8570	36.8890
 0.8580	36.8910
 0.8590	36.8940
 0.8600	36.8940
 0.8610	36.8920
 0.8620	36.8940
 0.8630	36.8920
 0.8640	36.8910
 0.8650	36.8940
 0.8660	36.8930
 0.8670	36.8940
 0.8680	36.8990
 0.8690	36.9030
 0.8700	36.9040
 0.8710	36.9060
 0.8720	36.9110
 0.8730	36.9170
 0.8740	36.9210
 0.8750	36.9260
 0.8760	36.9310
 0.8770	36.9370
 0.8780	36.9470
 0.8790	36.9540
 0.8800	36.9570
 0.8810	36.9640
 0.8820	36.9740
 0.8830	36.9830
 0.8840	36.9910
 0.8850	36.9980
 0.8860	37.0030
 0.8870	37.0070
 0.8880	37.0140
 0.8890	37.0200
 0.8900	37.0300
 0.8910	37.0400
 0.8920	37.0460
 0.8930	37.0560
 0.8940	37.0640
 0.8950	37.0690
 0.8960	37.0770
 0.8970	37.0870
 0.8980	37.0950
 0.8990	37.1030
 0.9000	37.1130
 0.9010	37.1180
 0.9020	37.1210
 0.9030	37.1260
 0.9040	37.1390
 0.9050	37.1500
 0.9060	37.1560
 0.9070	37.1550
 0.9080	37.1570
 0.9090	37.1640
 0.9100	37.1720
 0.9110	37.1780
 0.9120	37.1760
 0.9130	37.1800
 0.9140	37.1880
 0.9150	37.1940
 0.9160	37.1890
 0.9170	37.1870
 0.9180	37.1880
 0.9190	37.1890
 0.9200	37.1960
 0.9210	37.1990
 0.9220	37.1990
 0.9230	37.1990
 0.9240	37.2030
 0.9250	37.2010
 0.9260	37.1910
 0.9270	37.1830
 0.9280	37.1790
 0.9290	37.1730
 0.9300	37.1670
 0.9310	37.1660
 0.9320	37.1560
 0.9330	37.1410
 0.9340	37.1290
 0.9350	37.1260
 0.9360	37.1160
 0.9370	37.1080
 0.9380	37.1050
 0.9390	37.0920
 0.9400	37.0750
 0.9410	37.0630
 0.9420	37.0550
 0.9430	37.0430
 0.9440	37.0320
 0.9450	37.0180
 0.9460	36.9990
 0.9470	36.9740
 0.9480	36.9580
 0.9490	36.9440
 0.9500	36.9260
 0.9510	36.9000
 0.9520	36.8820
 0.9530	36.8630
 0.9540	36.8340
 0.9550	36.8150
 0.9560	36.7950
 0.9570	36.7750
 0.9580	36.7580
 0.9590	36.7310
 0.9600	36.7110
 0.9610	36.6940
 0.9620	36.6740
 0.9630	36.6590
 0.9640	36.6450
 0.9650	36.6300
 0.9660	36.6130
 0.9670	36.6100
 0.9680	36.6010
 0.9690	36.5850
 0.9700	36.5690
 0.9710	36.5530
 0.9720	36.5520
 0.9730	36.5500
 0.9740	36.5330
 0.9750	36.5300
 0.9760	36.5180
 0.9770	36.5050
 0.9780	36.5050
 0.9790	36.5060
 0.9800	36.4960
 0.9810	36.4800
 0.9820	36.4690
 0.9830	36.4750
 0.9840	36.4760
 0.9850	36.4690
 0.9860	36.4640
 0.9870	36.4670
 0.9880	36.4600
 0.9890	36.4470
 0.9900	36.4410
 0.9910	36.4430
 0.9920	36.4450
 0.9930	36.4400
 0.9940	36.4280
 0.9950	36.4320
 0.9960	36.4320
 0.9970	36.4300
 0.9980	36.4330
 0.9990	36.4380
 1.0000	36.4290
 1.0010	36.3450
 1.0020	36.3450
 1.0030	36.3450
 1.0040	36.3440
 1.0050	36.3440
 1.0060	36.3430
 1.0070	36.3390
 1.0080	36.3380
 1.0090	36.3370
 1.0100	36.3350
 1.0110	36.3350
 1.0120	36.3350
 1.0130	36.3340
 1.0140	36.3320
 1.0150	36.3300
 1.0160	36.3250
 1.0170	36.3220
 1.0180	36.3200
 1.0190	36.3180
 1.0200	36.3180
 1.0210	36.3140
 1.0220	36.3110
 1.0230	36.3100
 1.0240	36.3120
 1.0250	36.3110
 1.0260	36.3100
 1.0270	36.3100
 1.0280	36.3110
 1.0290	36.3100
 1.0300	36.3100
 1.0310	36.3110
 1.0320	36.3090
 1.0330	36.3090
 1.0340	36.3110
 1.0350	36.3110
 1.0360	36.3120
 1.0370	36.3120
 1.0380	36.3110
 1.0390	36.3110
 1.0400	36.3100
 1.0410	36.3080
 1.0420	36.3060
 1.0430	36.3030
 1.0440	36.3010
 1.0450	36.2970
 1.0460	36.2950
 1.0470	36.2940
 1.0480	36.2940
 1.0490	36.2960
 1.0500	36.2960
 1.0510	36.2960
 1.0520	36.2950
 1.0530	36.2940
 1.0540	36.2900
 1.0550	36.2880
 1.0560	36.2830
 1.0570	36.2810
 1.0580	36.2800
 1.0590	36.2820
 1.0600	36.2890
 1.0610	36.2910
 1.0620	36.2920
 1.0630	36.2920
 1.0640	36.2880
 1.0650	36.2870
 1.0660	36.2860
 1.0670	36.2850
 1.0680	36.2840
 1.0690	36.2840
 1.0700	36.2820
 1.0710	36.2800
 1.0720	36.2790
 1.0730	36.2790
 1.0740	36.2790
 1.0750	36.2800
 1.0760	36.2790
 1.0770	36.2780
 1.0780	36.2770
 1.0790	36.2770
 1.0800	36.2760
 1.0810	36.2740
 1.0820	36.2730
 1.0830	36.2720
 1.0840	36.2720
 1.0850	36.2710
 1.0860	36.2730
 1.0870	36.2730
 1.0880	36.2720
 1.0890	36.2710
 1.0900	36.2700
 1.0910	36.2680
 1.0920	36.2650
 1.0930	36.2640
 1.0940	36.2650
 1.0950	36.2650
 1.0960	36.2650
 1.0970	36.2650
 1.0980	36.2640
 1.0990	36.2630
 1.1000	36.2630
 1.1010	36.2620
 1.1020	36.2600
 1.1030	36.2560
 1.1040	36.2520
 1.1050	36.2480
 1.1060	36.2450
 1.1070	36.2430
 1.1080	36.2400
 1.1090	36.2370
 1.1100	36.2340
 1.1110	36.2300
 1.1120	36.2270
 1.1130	36.2250
 1.1140	36.2210
 1.1150	36.2160
 1.1160	36.2110
 1.1170	36.2060
 1.1180	36.2000
 1.1190	36.1940
 1.1200	36.1890
 1.1210	36.1830
 1.1220	36.1760
 1.1230	36.1670
 1.1240	36.1560
 1.1250	36.1440
 1.1260	36.1290
 1.1270	36.1130
 1.1280	36.0950
 1.1290	36.0760
 1.1300	36.0550
 1.1310	36.0320
 1.1320	36.0090
 1.1330	35.9830
 1.1340	35.9560
 1.1350	35.9270
 1.1360	35.8950
 1.1370	35.8600
 1.1380	35.8220
 1.1390	35.7840
 1.1400	35.7460
 1.1410	35.7060
 1.1420	35.6660
 1.1430	35.6260
 1.1440	35.5860
 1.1450	35.5460
 1.1460	35.5070
 1.1470	35.4670
 1.1480	35.4280
 1.1490	35.3880
 1.1500	35.3510
 1.1510	35.3180
 1.1520	35.2840
 1.1530	35.2510
 1.1540	35.2220
 1.1550	35.1950
 1.1560	35.1690
 1.1570	35.1480
 1.1580	35.1280
 1.1590	35.1100
 1.1600	35.0930
 1.1610	35.0790
 1.1620	35.0660
 1.1630	35.0530
 1.1640	35.0410
 1.1650	35.0300
 1.1660	35.0190
 1.1670	35.0100
 1.1680	35.0040
 1.1690	34.9970
 1.1700	34.9910
 1.1710	34.9840
 1.1720	34.9780
 1.1730	34.9710
 1.1740	34.9660
 1.1750	34.9600
 1.1760	34.9520
 1.1770	34.9440
 1.1780	34.9350
 1.1790	34.9270
 1.1800	34.9190
 1.1810	34.9110
 1.1820	34.9020
 1.1830	34.8920
 1.1840	34.8830
 1.1850	34.8740
 1.1860	34.8650
 1.1870	34.8570
 1.1880	34.8500
 1.1890	34.8430
 1.1900	34.8370
 1.1910	34.8320
 1.1920	34.8270
 1.1930	34.8220
 1.1940	34.8170
 1.1950	34.8120
 1.1960	34.8070
 1.1970	34.8020
 1.1980	34.7970
 1.1990	34.7930
 1.2000	34.7900
 1.2010	34.7880
 1.2020	34.7880
 1.2030	34.7880
 1.2040	34.7890
 1.2050	34.7890
 1.2060	34.7880
 1.2070	34.7860
 1.2080	34.7860
 1.2090	34.7850
 1.2100	34.7850
 1.2110	34.7860
 1.2120	34.7850
 1.2130	34.7860
 1.2140	34.7880
 1.2150	34.7900
 1.2160	34.7920
 1.2170	34.7960
 1.2180	34.7980
 1.2190	34.8020
 1.2200	34.8060
 1.2210	34.8090
 1.2220	34.8140
 1.2230	34.8160
 1.2240	34.8190
 1.2250	34.8220
 1.2260	34.8240
 1.2270	34.8260
 1.2280	34.8300
 1.2290	34.8330
 1.2300	34.8360
 1.2310	34.8400
 1.2320	34.8430
 1.2330	34.8470
 1.2340	34.8490
 1.2350	34.8520
 1.2360	34.8540
 1.2370	34.8540
 1.2380	34.8540
 1.2390	34.8550
 1.2400	34.8560
 1.2410	34.8570
 1.2420	34.8600
 1.2430	34.8620
 1.2440	34.8620
 1.2450	34.8640
 1.2460	34.8630
 1.2470	34.8630
 1.2480	34.8640
 1.2490	34.8640
 1.2500	34.8650
 1.2510	34.8660
 1.2520	34.8650
 1.2530	34.8630
 1.2540	34.8610
 1.2550	34.8600
 1.2560	34.8580
 1.2570	34.8570
 1.2580	34.8550
 1.2590	34.8520
 1.2600	34.8480
 1.2610	34.8450
 1.2620	34.8400
 1.2630	34.8360
 1.2640	34.8320
 1.2650	34.8270
 1.2660	34.8210
 1.2670	34.8160
 1.2680	34.8100
 1.2690	34.8030
 1.2700	34.7970
 1.2710	34.7890
 1.2720	34.7820
 1.2730	34.7770
 1.2740	34.7700
 1.2750	34.7640
 1.2760	34.7570
 1.2770	34.7480
 1.2780	34.7390
 1.2790	34.7280
 1.2800	34.7170
 1.2810	34.7070
 1.2820	34.6960
 1.2830	34.6840
 1.2840	34.6730
 1.2850	34.6610
 1.2860	34.6500
 1.2870	34.6380
 1.2880	34.6270
 1.2890	34.6140
 1.2900	34.6010
 1.2910	34.5870
 1.2920	34.5720
 1.2930	34.5560
 1.2940	34.5410
 1.2950	34.5260
 1.2960	34.5090
 1.2970	34.4940
 1.2980	34.4780
 1.2990	34.4590
 1.3000	34.4410
 1.3010	34.4210
 1.3020	34.4000
 1.3030	34.3810
 1.3040	34.3610
 1.3050	34.3400
 1.3060	34.3170
 1.3070	34.2930
 1.3080	34.2700
 1.3090	34.2450
 1.3100	34.2200
 1.3110	34.1950
 1.3120	34.1680
 1.3130	34.1400
 1.3140	34.1110
 1.3150	34.0810
 1.3160	34.0510
 1.3170	34.0200
 1.3180	33.9880
 1.3190	33.9560
 1.3200	33.9210
 1.3210	33.8850
 1.3220	33.8500
 1.3230	33.8140
 1.3240	33.7770
 1.3250	33.7390
 1.3260	33.6990
 1.3270	33.6560
 1.3280	33.6120
 1.3290	33.5700
 1.3300	33.5280
 1.3310	33.4840
 1.3320	33.4400
 1.3330	33.3950
 1.3340	33.3490
 1.3350	33.3020
 1.3360	33.2560
 1.3370	33.2070
 1.3380	33.1590
 1.3390	33.1110
 1.3400	33.0620
 1.3410	33.0120
 1.3420	32.9630
 1.3430	32.9120
 1.3440	32.8640
 1.3450	32.8150
 1.3460	32.7660
 1.3470	32.7180
 1.3480	32.6690
 1.3490	32.6210
 1.3500	32.5740
 1.3510	32.5260
 1.3520	32.4770
 1.3530	32.4290
 1.3540	32.3790
 1.3550	32.3290
 1.3560	32.2790
 1.3570	32.2280
 1.3580	32.1780
 1.3590	32.1260
 1.3600	32.0720
 1.3610	32.0180
 1.3620	31.9600
 1.3630	31.9020
 1.3640	31.8420
 1.3650	31.7800
 1.3660	31.7170
 1.3670	31.6490
 1.3680	31.5770
 1.3690	31.5010
 1.3700	31.4200
 1.3710	31.3330
 1.3720	31.2400
 1.3730	31.1380
 1.3740	31.0290
 1.3750	30.9120
 1.3760	30.7840
 1.3770	30.6450
 1.3780	30.4920
 1.3790	30.3280
 1.3800	30.1520
 1.3810	29.9620
 1.3820	29.7590
 1.3830	29.5440
 1.3840	29.3160
 1.3850	29.0760
 1.3860	28.8230
 1.3870	28.5570
 1.3880	28.2820
 1.3890	27.9960
 1.3900	27.6990
 1.3910	27.3970
 1.3920	27.0860
 1.3930	26.7650
 1.3940	26.4400
 1.3950	26.1060
 1.3960	25.7710
 1.3970	25.4380
 1.3980	25.1060
 1.3990	24.7800
 1.4000	24.4590
 1.4010	24.1400
 1.4020	23.8290
 1.4030	23.5230
 1.4040	23.2270
 1.4050	22.9450
 1.4060	22.6720
 1.4070	22.4130
 1.4080	22.1650
 1.4090	21.9280
 1.4100	21.7030
 1.4110	21.4900
 1.4120	21.2910
 1.4130	21.1040
 1.4140	20.9290
 1.4150	20.7680
 1.4160	20.6170
 1.4170	20.4770
 1.4180	20.3480
 1.4190	20.2280
 1.4200	20.1180
 1.4210	20.0170
 1.4220	19.9250
 1.4230	19.8410
 1.4240	19.7650
 1.4250	19.6950
 1.4260	19.6320
 1.4270	19.5750
 1.4280	19.5240
 1.4290	19.4790
 1.4300	19.4380
 1.4310	19.4030
 1.4320	19.3740
 1.4330	19.3480
 1.4340	19.3280
 1.4350	19.3110
 1.4360	19.2980
 1.4370	19.2890
 1.4380	19.2820
 1.4390	19.2790
 1.4400	19.2780
 1.4410	19.2790
 1.4420	19.2830
 1.4430	19.2890
 1.4440	19.2960
 1.4450	19.3040
 1.4460	19.3150
 1.4470	19.3260
 1.4480	19.3400
 1.4490	19.3540
 1.4500	19.3690
 1.4510	19.3840
 1.4520	19.4000
 1.4530	19.4190
 1.4540	19.4380
 1.4550	19.4600
 1.4560	19.4820
 1.4570	19.5060
 1.4580	19.5330
 1.4590	19.5630
 1.4600	19.5950
 1.4610	19.6300
 1.4620	19.6680
 1.4630	19.7100
 1.4640	19.7550
 1.4650	19.8040
 1.4660	19.8570
 1.4670	19.9140
 1.4680	19.9740
 1.4690	20.0390
 1.4700	20.1060
 1.4710	20.1770
 1.4720	20.2500
 1.4730	20.3260
 1.4740	20.4040
 1.4750	20.4840
 1.4760	20.5670
 1.4770	20.6510
