Name: Quercus douglasii 1
Type: vegetation
Class: Tree
Genus: Quercus
Species: douglasii
Sample No.: VH074
Owner: UCSB
Wavelength Range: VSWIR
Origin: 34.7153; -120.0598; WGS84
Collection Date: 4/21/2013
Description: Samples were collected as part of the HyspIRI Airborne Campaign. 48 individual plants were sampled in three times in 2013 - spring  summer  and fall. The name of the sample includes a 1  2  or 3 which references a different individual of the species. Samples were taken to JPL and processed within 48 hours of collection. The same leaves were processed in the Nicolet and then measured using the ASD.
Measurement: Bidirectional reflectance
First Column: X
Second Column: Y
X Units: Wavelength (micrometers)
Y Units: Reflectance (percentage)
First X Value: 0.35
Last X Value: 2.5
Number of X Values: 2151
Additional Information: vegetation.tree.quercus.douglasii.vswir.vh074.ucsb.asd.ancillary.txt

 0.3500	 4.4480
 0.3510	 4.9400
 0.3520	 4.9480
 0.3530	 4.7370
 0.3540	 4.7000
 0.3550	 4.5680
 0.3560	 4.5910
 0.3570	 4.6890
 0.3580	 4.6440
 0.3590	 4.6340
 0.3600	 4.6640
 0.3610	 4.7010
 0.3620	 4.6940
 0.3630	 4.5970
 0.3640	 4.5360
 0.3650	 4.5910
 0.3660	 4.5020
 0.3670	 4.4980
 0.3680	 4.5760
 0.3690	 4.5720
 0.3700	 4.5520
 0.3710	 4.5130
 0.3720	 4.4760
 0.3730	 4.5320
 0.3740	 4.5830
 0.3750	 4.6310
 0.3760	 4.6910
 0.3770	 4.6920
 0.3780	 4.6370
 0.3790	 4.5590
 0.3800	 4.5160
 0.3810	 4.5470
 0.3820	 4.5950
 0.3830	 4.6150
 0.3840	 4.6430
 0.3850	 4.6420
 0.3860	 4.6320
 0.3870	 4.6510
 0.3880	 4.6970
 0.3890	 4.7170
 0.3900	 4.7040
 0.3910	 4.7030
 0.3920	 4.7210
 0.3930	 4.7410
 0.3940	 4.7440
 0.3950	 4.7160
 0.3960	 4.7460
 0.3970	 4.8040
 0.3980	 4.8210
 0.3990	 4.8660
 0.4000	 4.9170
 0.4010	 4.9590
 0.4020	 4.9960
 0.4030	 5.0310
 0.4040	 5.0620
 0.4050	 5.0920
 0.4060	 5.1540
 0.4070	 5.2090
 0.4080	 5.2410
 0.4090	 5.2580
 0.4100	 5.3000
 0.4110	 5.3650
 0.4120	 5.4340
 0.4130	 5.4680
 0.4140	 5.5160
 0.4150	 5.5750
 0.4160	 5.6330
 0.4170	 5.7110
 0.4180	 5.7720
 0.4190	 5.8200
 0.4200	 5.8910
 0.4210	 5.9370
 0.4220	 5.9970
 0.4230	 6.0870
 0.4240	 6.1400
 0.4250	 6.1780
 0.4260	 6.2260
 0.4270	 6.2960
 0.4280	 6.3620
 0.4290	 6.4130
 0.4300	 6.4520
 0.4310	 6.4860
 0.4320	 6.5370
 0.4330	 6.5990
 0.4340	 6.6560
 0.4350	 6.6940
 0.4360	 6.7130
 0.4370	 6.7300
 0.4380	 6.7680
 0.4390	 6.7920
 0.4400	 6.8130
 0.4410	 6.8400
 0.4420	 6.8590
 0.4430	 6.8790
 0.4440	 6.9010
 0.4450	 6.9250
 0.4460	 6.9500
 0.4470	 6.9680
 0.4480	 6.9810
 0.4490	 6.9950
 0.4500	 7.0070
 0.4510	 7.0200
 0.4520	 7.0390
 0.4530	 7.0460
 0.4540	 7.0480
 0.4550	 7.0530
 0.4560	 7.0690
 0.4570	 7.0850
 0.4580	 7.0880
 0.4590	 7.0830
 0.4600	 7.0960
 0.4610	 7.1090
 0.4620	 7.1170
 0.4630	 7.1230
 0.4640	 7.1200
 0.4650	 7.1160
 0.4660	 7.1150
 0.4670	 7.1190
 0.4680	 7.1140
 0.4690	 7.1120
 0.4700	 7.1210
 0.4710	 7.1180
 0.4720	 7.1220
 0.4730	 7.1310
 0.4740	 7.1300
 0.4750	 7.1280
 0.4760	 7.1270
 0.4770	 7.1260
 0.4780	 7.1160
 0.4790	 7.1140
 0.4800	 7.1180
 0.4810	 7.1190
 0.4820	 7.1120
 0.4830	 7.1150
 0.4840	 7.1280
 0.4850	 7.1370
 0.4860	 7.1380
 0.4870	 7.1420
 0.4880	 7.1520
 0.4890	 7.1520
 0.4900	 7.1550
 0.4910	 7.1650
 0.4920	 7.1810
 0.4930	 7.1900
 0.4940	 7.1940
 0.4950	 7.2010
 0.4960	 7.2180
 0.4970	 7.2380
 0.4980	 7.2570
 0.4990	 7.2740
 0.5000	 7.2990
 0.5010	 7.3270
 0.5020	 7.3570
 0.5030	 7.3880
 0.5040	 7.4300
 0.5050	 7.4800
 0.5060	 7.5340
 0.5070	 7.5910
 0.5080	 7.6580
 0.5090	 7.7360
 0.5100	 7.8230
 0.5110	 7.9170
 0.5120	 8.0180
 0.5130	 8.1310
 0.5140	 8.2670
 0.5150	 8.4070
 0.5160	 8.5560
 0.5170	 8.7230
 0.5180	 8.8960
 0.5190	 9.0840
 0.5200	 9.2830
 0.5210	 9.4860
 0.5220	 9.6920
 0.5230	 9.9000
 0.5240	10.1070
 0.5250	10.3150
 0.5260	10.5170
 0.5270	10.7090
 0.5280	10.8850
 0.5290	11.0590
 0.5300	11.2190
 0.5310	11.3630
 0.5320	11.5020
 0.5330	11.6290
 0.5340	11.7430
 0.5350	11.8460
 0.5360	11.9470
 0.5370	12.0350
 0.5380	12.1130
 0.5390	12.1920
 0.5400	12.2660
 0.5410	12.3390
 0.5420	12.4130
 0.5430	12.4810
 0.5440	12.5460
 0.5450	12.6060
 0.5460	12.6520
 0.5470	12.6840
 0.5480	12.7140
 0.5490	12.7450
 0.5500	12.7740
 0.5510	12.7940
 0.5520	12.8060
 0.5530	12.8080
 0.5540	12.7890
 0.5550	12.7550
 0.5560	12.7070
 0.5570	12.6460
 0.5580	12.5720
 0.5590	12.4810
 0.5600	12.3750
 0.5610	12.2700
 0.5620	12.1630
 0.5630	12.0490
 0.5640	11.9230
 0.5650	11.7860
 0.5660	11.6510
 0.5670	11.5200
 0.5680	11.3840
 0.5690	11.2410
 0.5700	11.0940
 0.5710	10.9490
 0.5720	10.8100
 0.5730	10.6790
 0.5740	10.5590
 0.5750	10.4540
 0.5760	10.3450
 0.5770	10.2390
 0.5780	10.1420
 0.5790	10.0520
 0.5800	 9.9630
 0.5810	 9.8790
 0.5820	 9.8030
 0.5830	 9.7270
 0.5840	 9.6550
 0.5850	 9.5900
 0.5860	 9.5300
 0.5870	 9.4750
 0.5880	 9.4230
 0.5890	 9.3720
 0.5900	 9.3320
 0.5910	 9.2980
 0.5920	 9.2680
 0.5930	 9.2420
 0.5940	 9.2180
 0.5950	 9.1980
 0.5960	 9.1810
 0.5970	 9.1650
 0.5980	 9.1440
 0.5990	 9.1160
 0.6000	 9.0820
 0.6010	 9.0460
 0.6020	 9.0100
 0.6030	 8.9710
 0.6040	 8.9240
 0.6050	 8.8750
 0.6060	 8.8250
 0.6070	 8.7720
 0.6080	 8.7090
 0.6090	 8.6510
 0.6100	 8.5990
 0.6110	 8.5430
 0.6120	 8.4780
 0.6130	 8.4050
 0.6140	 8.3320
 0.6150	 8.2670
 0.6160	 8.2090
 0.6170	 8.1540
 0.6180	 8.1000
 0.6190	 8.0600
 0.6200	 8.0220
 0.6210	 7.9850
 0.6220	 7.9500
 0.6230	 7.9240
 0.6240	 7.9000
 0.6250	 7.8760
 0.6260	 7.8600
 0.6270	 7.8470
 0.6280	 7.8350
 0.6290	 7.8220
 0.6300	 7.8160
 0.6310	 7.8110
 0.6320	 7.8020
 0.6330	 7.7890
 0.6340	 7.7750
 0.6350	 7.7560
 0.6360	 7.7320
 0.6370	 7.7010
 0.6380	 7.6680
 0.6390	 7.6310
 0.6400	 7.5890
 0.6410	 7.5470
 0.6420	 7.5010
 0.6430	 7.4520
 0.6440	 7.4090
 0.6450	 7.3640
 0.6460	 7.3140
 0.6470	 7.2640
 0.6480	 7.2270
 0.6490	 7.1930
 0.6500	 7.1600
 0.6510	 7.1260
 0.6520	 7.0990
 0.6530	 7.0720
 0.6540	 7.0420
 0.6550	 7.0160
 0.6560	 6.9860
 0.6570	 6.9510
 0.6580	 6.9150
 0.6590	 6.8820
 0.6600	 6.8480
 0.6610	 6.8130
 0.6620	 6.7830
 0.6630	 6.7510
 0.6640	 6.7230
 0.6650	 6.7030
 0.6660	 6.6880
 0.6670	 6.6740
 0.6680	 6.6590
 0.6690	 6.6490
 0.6700	 6.6460
 0.6710	 6.6450
 0.6720	 6.6450
 0.6730	 6.6490
 0.6740	 6.6540
 0.6750	 6.6590
 0.6760	 6.6650
 0.6770	 6.6750
 0.6780	 6.6880
 0.6790	 6.7040
 0.6800	 6.7230
 0.6810	 6.7430
 0.6820	 6.7670
 0.6830	 6.7940
 0.6840	 6.8270
 0.6850	 6.8660
 0.6860	 6.9130
 0.6870	 6.9720
 0.6880	 7.0470
 0.6890	 7.1460
 0.6900	 7.2740
 0.6910	 7.4390
 0.6920	 7.6540
 0.6930	 7.9250
 0.6940	 8.2580
 0.6950	 8.6570
 0.6960	 9.1200
 0.6970	 9.6500
 0.6980	10.2480
 0.6990	10.9060
 0.7000	11.6210
 0.7010	12.3840
 0.7020	13.1840
 0.7030	14.0110
 0.7040	14.8610
 0.7050	15.7320
 0.7060	16.6130
 0.7070	17.4970
 0.7080	18.3870
 0.7090	19.2860
 0.7100	20.1850
 0.7110	21.0840
 0.7120	21.9820
 0.7130	22.8780
 0.7140	23.7730
 0.7150	24.6640
 0.7160	25.5480
 0.7170	26.4280
 0.7180	27.2990
 0.7190	28.1590
 0.7200	29.0070
 0.7210	29.8430
 0.7220	30.6630
 0.7230	31.4650
 0.7240	32.2480
 0.7250	33.0070
 0.7260	33.7380
 0.7270	34.4420
 0.7280	35.1210
 0.7290	35.7730
 0.7300	36.3990
 0.7310	36.9980
 0.7320	37.5630
 0.7330	38.1010
 0.7340	38.6140
 0.7350	39.1010
 0.7360	39.5580
 0.7370	39.9860
 0.7380	40.3870
 0.7390	40.7810
 0.7400	41.1410
 0.7410	41.4690
 0.7420	41.7810
 0.7430	42.0780
 0.7440	42.3550
 0.7450	42.6060
 0.7460	42.8340
 0.7470	43.0540
 0.7480	43.2610
 0.7490	43.4460
 0.7500	43.6170
 0.7510	43.7700
 0.7520	43.9120
 0.7530	44.0510
 0.7540	44.1680
 0.7550	44.2780
 0.7560	44.3830
 0.7570	44.4720
 0.7580	44.5580
 0.7590	44.6390
 0.7600	44.7140
 0.7610	44.7850
 0.7620	44.8420
 0.7630	44.8880
 0.7640	44.9310
 0.7650	44.9830
 0.7660	45.0340
 0.7670	45.0770
 0.7680	45.1110
 0.7690	45.1370
 0.7700	45.1660
 0.7710	45.1990
 0.7720	45.2290
 0.7730	45.2550
 0.7740	45.2780
 0.7750	45.3000
 0.7760	45.3220
 0.7770	45.3460
 0.7780	45.3670
 0.7790	45.3820
 0.7800	45.4030
 0.7810	45.4230
 0.7820	45.4390
 0.7830	45.4540
 0.7840	45.4670
 0.7850	45.4820
 0.7860	45.5000
 0.7870	45.5130
 0.7880	45.5180
 0.7890	45.5270
 0.7900	45.5510
 0.7910	45.5620
 0.7920	45.5660
 0.7930	45.5720
 0.7940	45.5850
 0.7950	45.5930
 0.7960	45.6010
 0.7970	45.6100
 0.7980	45.6140
 0.7990	45.6180
 0.8000	45.6220
 0.8010	45.6220
 0.8020	45.6300
 0.8030	45.6310
 0.8040	45.6280
 0.8050	45.6300
 0.8060	45.6370
 0.8070	45.6330
 0.8080	45.6240
 0.8090	45.6310
 0.8100	45.6320
 0.8110	45.6320
 0.8120	45.6330
 0.8130	45.6300
 0.8140	45.6270
 0.8150	45.6220
 0.8160	45.6150
 0.8170	45.6110
 0.8180	45.6120
 0.8190	45.6130
 0.8200	45.6070
 0.8210	45.6000
 0.8220	45.5970
 0.8230	45.5970
 0.8240	45.5890
 0.8250	45.5790
 0.8260	45.5740
 0.8270	45.5730
 0.8280	45.5660
 0.8290	45.5630
 0.8300	45.5600
 0.8310	45.5550
 0.8320	45.5490
 0.8330	45.5400
 0.8340	45.5330
 0.8350	45.5370
 0.8360	45.5420
 0.8370	45.5420
 0.8380	45.5350
 0.8390	45.5260
 0.8400	45.5270
 0.8410	45.5300
 0.8420	45.5320
 0.8430	45.5380
 0.8440	45.5430
 0.8450	45.5450
 0.8460	45.5460
 0.8470	45.5430
 0.8480	45.5430
 0.8490	45.5500
 0.8500	45.5640
 0.8510	45.5700
 0.8520	45.5700
 0.8530	45.5700
 0.8540	45.5810
 0.8550	45.5820
 0.8560	45.5830
 0.8570	45.5880
 0.8580	45.5980
 0.8590	45.6020
 0.8600	45.6080
 0.8610	45.6160
 0.8620	45.6200
 0.8630	45.6250
 0.8640	45.6300
 0.8650	45.6330
 0.8660	45.6460
 0.8670	45.6590
 0.8680	45.6670
 0.8690	45.6710
 0.8700	45.6850
 0.8710	45.6900
 0.8720	45.6930
 0.8730	45.7070
 0.8740	45.7120
 0.8750	45.7130
 0.8760	45.7150
 0.8770	45.7180
 0.8780	45.7360
 0.8790	45.7480
 0.8800	45.7510
 0.8810	45.7650
 0.8820	45.7700
 0.8830	45.7740
 0.8840	45.7830
 0.8850	45.7920
 0.8860	45.8030
 0.8870	45.8120
 0.8880	45.8140
 0.8890	45.8240
 0.8900	45.8300
 0.8910	45.8290
 0.8920	45.8250
 0.8930	45.8300
 0.8940	45.8440
 0.8950	45.8610
 0.8960	45.8740
 0.8970	45.8800
 0.8980	45.8830
 0.8990	45.8860
 0.9000	45.8850
 0.9010	45.8850
 0.9020	45.8960
 0.9030	45.9150
 0.9040	45.9210
 0.9050	45.9280
 0.9060	45.9320
 0.9070	45.9340
 0.9080	45.9340
 0.9090	45.9370
 0.9100	45.9370
 0.9110	45.9320
 0.9120	45.9600
 0.9130	45.9650
 0.9140	45.9530
 0.9150	45.9480
 0.9160	45.9630
 0.9170	45.9760
 0.9180	45.9800
 0.9190	45.9780
 0.9200	45.9680
 0.9210	45.9680
 0.9220	45.9710
 0.9230	45.9600
 0.9240	45.9540
 0.9250	45.9480
 0.9260	45.9400
 0.9270	45.9330
 0.9280	45.9260
 0.9290	45.9150
 0.9300	45.9020
 0.9310	45.9000
 0.9320	45.8850
 0.9330	45.8600
 0.9340	45.8370
 0.9350	45.8310
 0.9360	45.8100
 0.9370	45.7810
 0.9380	45.7550
 0.9390	45.7350
 0.9400	45.7120
 0.9410	45.6940
 0.9420	45.6800
 0.9430	45.6550
 0.9440	45.6210
 0.9450	45.5810
 0.9460	45.5390
 0.9470	45.5000
 0.9480	45.4620
 0.9490	45.4250
 0.9500	45.3850
 0.9510	45.3310
 0.9520	45.2850
 0.9530	45.2390
 0.9540	45.1830
 0.9550	45.1210
 0.9560	45.0590
 0.9570	45.0000
 0.9580	44.9470
 0.9590	44.9100
 0.9600	44.8640
 0.9610	44.8150
 0.9620	44.7790
 0.9630	44.7750
 0.9640	44.7530
 0.9650	44.7200
 0.9660	44.7020
 0.9670	44.6730
 0.9680	44.6600
 0.9690	44.6470
 0.9700	44.6170
 0.9710	44.6160
 0.9720	44.6080
 0.9730	44.5930
 0.9740	44.5830
 0.9750	44.5610
 0.9760	44.5530
 0.9770	44.5680
 0.9780	44.5980
 0.9790	44.5910
 0.9800	44.5830
 0.9810	44.5800
 0.9820	44.5700
 0.9830	44.5730
 0.9840	44.5950
 0.9850	44.6140
 0.9860	44.6040
 0.9870	44.6030
 0.9880	44.6220
 0.9890	44.6370
 0.9900	44.6230
 0.9910	44.6490
 0.9920	44.7190
 0.9930	44.7890
 0.9940	44.8590
 0.9950	44.9290
 0.9960	44.9990
 0.9970	45.0690
 0.9980	45.1390
 0.9990	45.2090
 1.0000	45.2790
 1.0010	45.3490
 1.0020	45.4190
 1.0030	45.4900
 1.0040	45.5600
 1.0050	45.6300
 1.0060	45.7000
 1.0070	45.7700
 1.0080	45.8400
 1.0090	45.9100
 1.0100	45.9100
 1.0110	45.9320
 1.0120	45.9510
 1.0130	45.9700
 1.0140	45.9850
 1.0150	45.9970
 1.0160	46.0130
 1.0170	46.0270
 1.0180	46.0400
 1.0190	46.0570
 1.0200	46.0720
 1.0210	46.0870
 1.0220	46.1050
 1.0230	46.1210
 1.0240	46.1370
 1.0250	46.1540
 1.0260	46.1690
 1.0270	46.1860
 1.0280	46.2050
 1.0290	46.2210
 1.0300	46.2370
 1.0310	46.2490
 1.0320	46.2580
 1.0330	46.2670
 1.0340	46.2800
 1.0350	46.2990
 1.0360	46.3190
 1.0370	46.3370
 1.0380	46.3500
 1.0390	46.3590
 1.0400	46.3690
 1.0410	46.3760
 1.0420	46.3870
 1.0430	46.3980
 1.0440	46.4090
 1.0450	46.4210
 1.0460	46.4320
 1.0470	46.4410
 1.0480	46.4510
 1.0490	46.4620
 1.0500	46.4710
 1.0510	46.4790
 1.0520	46.4880
 1.0530	46.4940
 1.0540	46.4970
 1.0550	46.5020
 1.0560	46.5070
 1.0570	46.5130
 1.0580	46.5220
 1.0590	46.5270
 1.0600	46.5300
 1.0610	46.5330
 1.0620	46.5350
 1.0630	46.5360
 1.0640	46.5380
 1.0650	46.5390
 1.0660	46.5360
 1.0670	46.5360
 1.0680	46.5370
 1.0690	46.5390
 1.0700	46.5400
 1.0710	46.5420
 1.0720	46.5430
 1.0730	46.5410
 1.0740	46.5390
 1.0750	46.5380
 1.0760	46.5350
 1.0770	46.5330
 1.0780	46.5280
 1.0790	46.5250
 1.0800	46.5190
 1.0810	46.5080
 1.0820	46.5010
 1.0830	46.4930
 1.0840	46.4880
 1.0850	46.4890
 1.0860	46.4870
 1.0870	46.4810
 1.0880	46.4720
 1.0890	46.4640
 1.0900	46.4500
 1.0910	46.4410
 1.0920	46.4360
 1.0930	46.4270
 1.0940	46.4160
 1.0950	46.4060
 1.0960	46.3960
 1.0970	46.3860
 1.0980	46.3780
 1.0990	46.3690
 1.1000	46.3610
 1.1010	46.3520
 1.1020	46.3430
 1.1030	46.3310
 1.1040	46.3200
 1.1050	46.3080
 1.1060	46.2960
 1.1070	46.2860
 1.1080	46.2730
 1.1090	46.2570
 1.1100	46.2450
 1.1110	46.2320
 1.1120	46.2180
 1.1130	46.2080
 1.1140	46.1920
 1.1150	46.1710
 1.1160	46.1510
 1.1170	46.1300
 1.1180	46.1070
 1.1190	46.0810
 1.1200	46.0580
 1.1210	46.0350
 1.1220	46.0050
 1.1230	45.9740
 1.1240	45.9420
 1.1250	45.9040
 1.1260	45.8620
 1.1270	45.8130
 1.1280	45.7590
 1.1290	45.7000
 1.1300	45.6370
 1.1310	45.5650
 1.1320	45.4880
 1.1330	45.4060
 1.1340	45.3150
 1.1350	45.2200
 1.1360	45.1210
 1.1370	45.0160
 1.1380	44.9030
 1.1390	44.7860
 1.1400	44.6640
 1.1410	44.5400
 1.1420	44.4130
 1.1430	44.2840
 1.1440	44.1540
 1.1450	44.0190
 1.1460	43.8900
 1.1470	43.7600
 1.1480	43.6370
 1.1490	43.5180
 1.1500	43.4050
 1.1510	43.2950
 1.1520	43.1960
 1.1530	43.1030
 1.1540	43.0180
 1.1550	42.9430
 1.1560	42.8750
 1.1570	42.8120
 1.1580	42.7560
 1.1590	42.7090
 1.1600	42.6660
 1.1610	42.6290
 1.1620	42.5970
 1.1630	42.5690
 1.1640	42.5460
 1.1650	42.5260
 1.1660	42.5120
 1.1670	42.4970
 1.1680	42.4840
 1.1690	42.4710
 1.1700	42.4580
 1.1710	42.4460
 1.1720	42.4380
 1.1730	42.4280
 1.1740	42.4200
 1.1750	42.4120
 1.1760	42.4030
 1.1770	42.3930
 1.1780	42.3830
 1.1790	42.3730
 1.1800	42.3630
 1.1810	42.3540
 1.1820	42.3420
 1.1830	42.3290
 1.1840	42.3160
 1.1850	42.3050
 1.1860	42.2920
 1.1870	42.2790
 1.1880	42.2680
 1.1890	42.2580
 1.1900	42.2490
 1.1910	42.2410
 1.1920	42.2360
 1.1930	42.2310
 1.1940	42.2280
 1.1950	42.2280
 1.1960	42.2290
 1.1970	42.2310
 1.1980	42.2330
 1.1990	42.2350
 1.2000	42.2400
 1.2010	42.2440
 1.2020	42.2470
 1.2030	42.2540
 1.2040	42.2600
 1.2050	42.2670
 1.2060	42.2790
 1.2070	42.2900
 1.2080	42.3010
 1.2090	42.3160
 1.2100	42.3290
 1.2110	42.3430
 1.2120	42.3590
 1.2130	42.3760
 1.2140	42.3940
 1.2150	42.4120
 1.2160	42.4310
 1.2170	42.4500
 1.2180	42.4670
 1.2190	42.4850
 1.2200	42.5040
 1.2210	42.5270
 1.2220	42.5480
 1.2230	42.5700
 1.2240	42.5920
 1.2250	42.6130
 1.2260	42.6330
 1.2270	42.6520
 1.2280	42.6720
 1.2290	42.6910
 1.2300	42.7110
 1.2310	42.7320
 1.2320	42.7510
 1.2330	42.7680
 1.2340	42.7850
 1.2350	42.7990
 1.2360	42.8140
 1.2370	42.8300
 1.2380	42.8450
 1.2390	42.8610
 1.2400	42.8750
 1.2410	42.8880
 1.2420	42.9010
 1.2430	42.9140
 1.2440	42.9270
 1.2450	42.9410
 1.2460	42.9560
 1.2470	42.9660
 1.2480	42.9750
 1.2490	42.9840
 1.2500	42.9920
 1.2510	43.0010
 1.2520	43.0100
 1.2530	43.0160
 1.2540	43.0230
 1.2550	43.0300
 1.2560	43.0370
 1.2570	43.0430
 1.2580	43.0500
 1.2590	43.0530
 1.2600	43.0530
 1.2610	43.0530
 1.2620	43.0520
 1.2630	43.0490
 1.2640	43.0460
 1.2650	43.0430
 1.2660	43.0390
 1.2670	43.0340
 1.2680	43.0300
 1.2690	43.0260
 1.2700	43.0210
 1.2710	43.0130
 1.2720	43.0050
 1.2730	42.9940
 1.2740	42.9840
 1.2750	42.9760
 1.2760	42.9650
 1.2770	42.9530
 1.2780	42.9400
 1.2790	42.9240
 1.2800	42.9070
 1.2810	42.8910
 1.2820	42.8700
 1.2830	42.8490
 1.2840	42.8270
 1.2850	42.8040
 1.2860	42.7800
 1.2870	42.7550
 1.2880	42.7300
 1.2890	42.7000
 1.2900	42.6690
 1.2910	42.6370
 1.2920	42.6020
 1.2930	42.5650
 1.2940	42.5290
 1.2950	42.4890
 1.2960	42.4460
 1.2970	42.4030
 1.2980	42.3570
 1.2990	42.3070
 1.3000	42.2550
 1.3010	42.1990
 1.3020	42.1410
 1.3030	42.0820
 1.3040	42.0230
 1.3050	41.9610
 1.3060	41.8950
 1.3070	41.8250
 1.3080	41.7520
 1.3090	41.6790
 1.3100	41.6040
 1.3110	41.5250
 1.3120	41.4460
 1.3130	41.3630
 1.3140	41.2770
 1.3150	41.1900
 1.3160	41.1000
 1.3170	41.0060
 1.3180	40.9100
 1.3190	40.8110
 1.3200	40.7070
 1.3210	40.6020
 1.3220	40.4930
 1.3230	40.3810
 1.3240	40.2670
 1.3250	40.1510
 1.3260	40.0340
 1.3270	39.9150
 1.3280	39.7930
 1.3290	39.6690
 1.3300	39.5420
 1.3310	39.4140
 1.3320	39.2840
 1.3330	39.1540
 1.3340	39.0250
 1.3350	38.8930
 1.3360	38.7610
 1.3370	38.6290
 1.3380	38.4960
 1.3390	38.3620
 1.3400	38.2290
 1.3410	38.0990
 1.3420	37.9690
 1.3430	37.8400
 1.3440	37.7120
 1.3450	37.5850
 1.3460	37.4560
 1.3470	37.3300
 1.3480	37.2060
 1.3490	37.0820
 1.3500	36.9600
 1.3510	36.8380
 1.3520	36.7150
 1.3530	36.5950
 1.3540	36.4750
 1.3550	36.3520
 1.3560	36.2300
 1.3570	36.1060
 1.3580	35.9830
 1.3590	35.8570
 1.3600	35.7270
 1.3610	35.5920
 1.3620	35.4510
 1.3630	35.3060
 1.3640	35.1560
 1.3650	34.9990
 1.3660	34.8340
 1.3670	34.6590
 1.3680	34.4730
 1.3690	34.2760
 1.3700	34.0650
 1.3710	33.8410
 1.3720	33.6020
 1.3730	33.3470
 1.3740	33.0780
 1.3750	32.7880
 1.3760	32.4770
 1.3770	32.1460
 1.3780	31.7880
 1.3790	31.4100
 1.3800	31.0100
 1.3810	30.5840
 1.3820	30.1410
 1.3830	29.6790
 1.3840	29.1980
 1.3850	28.6970
 1.3860	28.1840
 1.3870	27.6480
 1.3880	27.1090
 1.3890	26.5580
 1.3900	25.9980
 1.3910	25.4380
 1.3920	24.8750
 1.3930	24.3100
 1.3940	23.7500
 1.3950	23.1890
 1.3960	22.6370
 1.3970	22.0980
 1.3980	21.5690
 1.3990	21.0620
 1.4000	20.5710
 1.4010	20.0950
 1.4020	19.6410
 1.4030	19.2030
 1.4040	18.7870
 1.4050	18.3930
 1.4060	18.0190
 1.4070	17.6710
 1.4080	17.3430
 1.4090	17.0350
 1.4100	16.7490
 1.4110	16.4810
 1.4120	16.2320
 1.4130	16.0030
 1.4140	15.7900
 1.4150	15.5960
 1.4160	15.4180
 1.4170	15.2540
 1.4180	15.1050
 1.4190	14.9680
 1.4200	14.8420
 1.4210	14.7280
 1.4220	14.6240
 1.4230	14.5310
 1.4240	14.4460
 1.4250	14.3680
 1.4260	14.2990
 1.4270	14.2360
 1.4280	14.1810
 1.4290	14.1310
 1.4300	14.0890
 1.4310	14.0520
 1.4320	14.0220
 1.4330	13.9940
 1.4340	13.9710
 1.4350	13.9520
 1.4360	13.9360
 1.4370	13.9230
 1.4380	13.9150
 1.4390	13.9100
 1.4400	13.9060
 1.4410	13.9060
 1.4420	13.9070
 1.4430	13.9090
 1.4440	13.9160
 1.4450	13.9220
 1.4460	13.9310
 1.4470	13.9420
 1.4480	13.9530
 1.4490	13.9650
 1.4500	13.9790
 1.4510	13.9940
 1.4520	14.0110
 1.4530	14.0290
 1.4540	14.0480
 1.4550	14.0690
 1.4560	14.0930
 1.4570	14.1200
 1.4580	14.1490
 1.4590	14.1810
 1.4600	14.2170
 1.4610	14.2560
 1.4620	14.2990
 1.4630	14.3480
 1.4640	14.3990
 1.4650	14.4550
 1.4660	14.5160
 1.4670	14.5820
 1.4680	14.6530
 1.4690	14.7280
 1.4700	14.8080
