Name: Quercus lobata 1
Type: vegetation
Class: Tree
Genus: Quercus
Species: lobata
Sample No.: VH085
Owner: UCSB
Wavelength Range: TIR
Origin: 34.7139; -120.0598; WGS84
Collection Date: 4/21/2013
Description: Samples were collected as part of the HyspIRI Airborne Campaign. 48 individual plants were sampled in three times in 2013 - spring  summer  and fall. The name of the sample includes a 1  2  or 3 which references a different individual of the species. Samples were taken to JPL and processed within 48 hours of collection. The same leaves were processed in the Nicolet and then measured using the ASD.
Measurement: Hemispherical reflectance
First Column: X
Second Column: Y
X Units: Wavelength (micrometers)
Y Units: Reflectance (percentage)
First X Value: 2.501
Last X Value: 15.387
Number of X Values: 1737
Additional Information: vegetation.tree.quercus.lobata.tir.vh085.ucsb.nicolet.ancillary.txt

 2.5010	 7.9710
 2.5030	 7.9730
 2.5040	 8.0830
 2.5050	 8.0360
 2.5060	 8.0080
 2.5070	 8.0580
 2.5090	 8.1290
 2.5100	 8.0980
 2.5110	 8.1060
 2.5120	 8.0660
 2.5140	 8.1270
 2.5150	 8.0080
 2.5160	 7.9410
 2.5170	 7.9230
 2.5180	 8.0340
 2.5200	 7.9470
 2.5210	 7.9250
 2.5220	 7.8660
 2.5230	 7.9110
 2.5250	 7.9010
 2.5260	 7.9140
 2.5270	 7.9740
 2.5280	 8.0920
 2.5290	 8.0670
 2.5310	 8.0080
 2.5320	 7.9060
 2.5330	 7.8500
 2.5340	 7.8080
 2.5360	 7.8770
 2.5370	 7.8260
 2.5380	 7.8530
 2.5390	 7.8750
 2.5410	 8.0490
 2.5420	 8.0560
 2.5430	 7.9640
 2.5440	 7.9160
 2.5460	 7.9790
 2.5470	 7.8600
 2.5480	 7.8250
 2.5490	 7.7820
 2.5510	 7.8400
 2.5520	 7.8300
 2.5530	 7.9020
 2.5540	 7.9200
 2.5560	 7.9510
 2.5570	 7.9500
 2.5580	 8.0480
 2.5590	 8.0430
 2.5610	 7.9600
 2.5620	 7.8840
 2.5630	 7.9230
 2.5640	 7.9410
 2.5660	 7.9580
 2.5670	 7.8220
 2.5680	 7.8720
 2.5700	 7.9260
 2.5710	 7.9580
 2.5720	 7.8800
 2.5730	 7.8900
 2.5750	 7.8340
 2.5760	 7.7980
 2.5770	 7.8590
 2.5790	 7.9080
 2.5800	 7.9040
 2.5810	 7.9990
 2.5820	 7.9840
 2.5840	 8.0520
 2.5850	 7.9690
 2.5860	 7.9370
 2.5880	 8.0010
 2.5890	 7.9860
 2.5900	 7.8390
 2.5910	 7.8460
 2.5930	 7.8040
 2.5940	 7.8600
 2.5950	 7.7970
 2.5970	 7.7710
 2.5980	 7.8110
 2.5990	 7.8470
 2.6000	 7.7230
 2.6020	 7.7350
 2.6030	 7.7260
 2.6040	 7.8850
 2.6060	 7.8790
 2.6070	 7.7400
 2.6080	 7.6670
 2.6100	 7.7900
 2.6110	 7.8310
 2.6120	 7.8460
 2.6140	 7.7540
 2.6150	 7.6830
 2.6160	 7.5880
 2.6180	 7.6220
 2.6190	 7.5230
 2.6200	 7.5500
 2.6220	 7.5960
 2.6230	 7.6430
 2.6240	 7.5330
 2.6260	 7.5170
 2.6270	 7.5660
 2.6280	 7.5460
 2.6300	 7.4410
 2.6310	 7.5080
 2.6320	 7.3790
 2.6340	 7.2720
 2.6350	 7.3700
 2.6360	 7.4540
 2.6380	 7.2970
 2.6390	 7.2910
 2.6400	 7.2640
 2.6420	 7.2840
 2.6430	 7.2170
 2.6440	 7.1510
 2.6460	 7.1250
 2.6470	 7.2430
 2.6480	 7.2560
 2.6500	 7.2780
 2.6510	 7.2190
 2.6520	 7.1780
 2.6540	 7.0900
 2.6550	 7.0170
 2.6560	 6.9840
 2.6580	 7.0490
 2.6590	 7.0480
 2.6610	 7.0950
 2.6620	 7.1260
 2.6630	 7.2310
 2.6650	 7.1070
 2.6660	 6.9860
 2.6670	 6.9020
 2.6690	 6.9050
 2.6700	 6.9950
 2.6720	 7.0800
 2.6730	 7.0220
 2.6740	 7.0410
 2.6760	 6.9800
 2.6770	 6.9490
 2.6780	 6.9080
 2.6800	 6.9530
 2.6810	 6.8540
 2.6830	 6.8850
 2.6840	 6.9480
 2.6850	 6.9470
 2.6870	 6.8640
 2.6880	 6.8480
 2.6900	 6.7540
 2.6910	 6.7070
 2.6920	 6.5930
 2.6940	 6.6680
 2.6950	 6.5950
 2.6970	 6.5540
 2.6980	 6.5320
 2.6990	 6.5250
 2.7010	 6.5120
 2.7020	 6.4910
 2.7040	 6.4780
 2.7050	 6.5210
 2.7060	 6.4890
 2.7080	 6.4720
 2.7090	 6.3680
 2.7110	 6.4600
 2.7120	 6.3690
 2.7130	 6.3480
 2.7150	 6.3290
 2.7160	 6.2740
 2.7180	 6.1090
 2.7190	 6.0920
 2.7210	 6.0770
 2.7220	 6.0450
 2.7230	 5.8960
 2.7250	 5.7770
 2.7260	 5.7280
 2.7280	 5.7990
 2.7290	 5.7360
 2.7310	 5.7470
 2.7320	 5.7040
 2.7330	 5.5770
 2.7350	 5.4420
 2.7360	 5.4940
 2.7380	 5.3710
 2.7390	 5.2460
 2.7410	 5.1540
 2.7420	 5.2470
 2.7440	 5.1420
 2.7450	 5.2140
 2.7470	 5.1550
 2.7480	 5.1570
 2.7490	 5.1710
 2.7510	 5.1420
 2.7520	 4.9030
 2.7540	 4.9340
 2.7550	 4.8810
 2.7570	 4.8470
 2.7580	 4.7470
 2.7600	 4.7790
 2.7610	 4.7310
 2.7630	 4.7680
 2.7640	 4.7460
 2.7660	 4.7320
 2.7670	 4.6860
 2.7680	 4.7350
 2.7700	 4.7020
 2.7710	 4.7010
 2.7730	 4.5900
 2.7740	 4.6020
 2.7760	 4.5500
 2.7770	 4.5860
 2.7790	 4.5020
 2.7800	 4.4770
 2.7820	 4.4880
 2.7830	 4.4140
 2.7850	 4.3360
 2.7860	 4.4340
 2.7880	 4.4200
 2.7890	 4.4340
 2.7910	 4.3950
 2.7920	 4.4130
 2.7940	 4.3180
 2.7950	 4.3980
 2.7970	 4.4130
 2.7980	 4.3730
 2.8000	 4.2260
 2.8010	 4.1580
 2.8030	 4.1100
 2.8040	 4.1210
 2.8060	 4.1730
 2.8070	 4.2630
 2.8090	 4.1840
 2.8110	 4.1290
 2.8120	 4.1130
 2.8140	 4.1910
 2.8150	 4.2640
 2.8170	 4.3800
 2.8180	 4.3080
 2.8200	 4.2050
 2.8210	 4.1510
 2.8230	 4.1800
 2.8240	 4.1800
 2.8260	 4.2260
 2.8270	 4.1320
 2.8290	 4.1270
 2.8300	 4.0550
 2.8320	 4.0200
 2.8340	 3.9900
 2.8350	 4.0360
 2.8370	 4.0310
 2.8380	 4.1170
 2.8400	 4.1010
 2.8410	 4.1310
 2.8430	 4.0600
 2.8440	 4.0690
 2.8460	 4.0940
 2.8480	 4.1110
 2.8490	 3.9910
 2.8510	 3.9920
 2.8520	 4.0250
 2.8540	 4.1190
 2.8550	 4.1180
 2.8570	 4.1850
 2.8590	 4.0410
 2.8600	 3.9100
 2.8620	 3.9970
 2.8630	 4.1560
 2.8650	 4.0930
 2.8660	 4.0770
 2.8680	 3.9720
 2.8700	 3.9870
 2.8710	 3.9340
 2.8730	 3.8910
 2.8740	 3.8550
 2.8760	 3.9590
 2.8780	 3.9830
 2.8790	 4.0060
 2.8810	 3.9520
 2.8820	 3.9180
 2.8840	 3.8670
 2.8860	 4.0930
 2.8870	 4.2430
 2.8890	 4.2200
 2.8900	 3.9910
 2.8920	 3.9460
 2.8940	 3.9690
 2.8950	 3.9460
 2.8970	 3.8380
 2.8980	 3.8760
 2.9000	 3.8270
 2.9020	 3.9070
 2.9030	 3.9120
 2.9050	 3.8890
 2.9070	 3.7750
 2.9080	 3.9130
 2.9100	 4.0010
 2.9120	 4.0270
 2.9130	 3.9350
 2.9150	 3.9710
 2.9160	 3.9820
 2.9180	 3.8880
 2.9200	 3.7790
 2.9210	 3.8930
 2.9230	 3.8220
 2.9250	 3.8090
 2.9260	 3.7810
 2.9280	 3.8340
 2.9300	 3.8890
 2.9310	 4.0370
 2.9330	 3.9920
 2.9350	 3.9060
 2.9360	 3.8380
 2.9380	 3.7490
 2.9400	 3.6960
 2.9410	 3.8090
 2.9430	 3.8320
 2.9450	 3.8660
 2.9460	 3.8790
 2.9480	 3.9740
 2.9500	 3.9490
 2.9510	 3.8500
 2.9530	 3.7980
 2.9550	 3.9530
 2.9560	 3.9500
 2.9580	 3.7900
 2.9600	 3.4730
 2.9610	 3.3370
 2.9630	 3.3760
 2.9650	 3.8020
 2.9660	 3.6820
 2.9680	 3.8750
 2.9700	 3.6940
 2.9720	 3.2710
 2.9730	 3.8300
 2.9750	 4.1110
 2.9770	 4.2980
 2.9780	 4.4730
 2.9800	 4.2570
 2.9820	 4.0330
 2.9840	 3.9320
 2.9850	 4.0600
 2.9870	 3.9720
 2.9890	 3.9380
 2.9900	 3.7430
 2.9920	 3.7550
 2.9940	 3.8630
 2.9960	 3.7870
 2.9970	 3.4880
 2.9990	 3.7900
 3.0010	 3.7620
 3.0030	 3.8010
 3.0040	 4.0110
 3.0060	 4.1590
 3.0080	 3.9370
 3.0100	 3.7940
 3.0110	 4.0160
 3.0130	 4.1220
 3.0150	 3.7990
 3.0170	 3.8240
 3.0180	 3.9140
 3.0200	 3.9030
 3.0220	 3.7700
 3.0240	 3.8710
 3.0250	 3.8750
 3.0270	 3.8570
 3.0290	 3.8410
 3.0310	 4.1590
 3.0320	 4.3440
 3.0340	 4.3570
 3.0360	 4.2060
 3.0380	 4.0930
 3.0400	 3.8940
 3.0410	 3.9430
 3.0430	 4.3290
 3.0450	 4.2000
 3.0470	 4.3100
 3.0480	 3.7750
 3.0500	 3.1890
 3.0520	 3.5990
 3.0540	 3.4350
 3.0560	 3.7760
 3.0570	 3.6720
 3.0590	 3.1670
 3.0610	 3.2190
 3.0630	 3.6260
 3.0650	 3.8530
 3.0660	 3.9500
 3.0680	 4.0430
 3.0700	 3.9620
 3.0720	 3.8890
 3.0740	 3.9960
 3.0760	 3.9200
 3.0770	 3.9100
 3.0790	 3.9760
 3.0810	 3.9370
 3.0830	 3.8530
 3.0850	 3.9440
 3.0870	 4.0490
 3.0880	 4.0850
 3.0900	 3.9540
 3.0920	 3.9780
 3.0940	 3.9250
 3.0960	 3.9370
 3.0980	 4.0260
 3.0990	 4.1400
 3.1010	 4.1430
 3.1030	 4.1440
 3.1050	 3.9380
 3.1070	 3.8300
 3.1090	 3.8350
 3.1110	 3.9810
 3.1120	 3.9970
 3.1140	 4.1010
 3.1160	 4.1940
 3.1180	 4.2360
 3.1200	 4.1280
 3.1220	 4.1160
 3.1240	 4.0720
 3.1260	 4.0900
 3.1270	 4.0830
 3.1290	 4.0340
 3.1310	 3.9460
 3.1330	 4.0820
 3.1350	 4.1630
 3.1370	 4.1150
 3.1390	 4.0910
 3.1410	 4.0320
 3.1430	 4.0520
 3.1450	 4.5400
 3.1460	 4.5540
 3.1480	 4.1890
 3.1500	 4.1180
 3.1520	 4.2410
 3.1540	 4.2370
 3.1560	 4.2220
 3.1580	 4.0760
 3.1600	 3.9510
 3.1620	 4.0230
 3.1640	 4.3470
 3.1660	 4.5020
 3.1680	 4.5270
 3.1700	 4.1740
 3.1710	 4.0630
 3.1730	 4.3860
 3.1750	 4.6490
 3.1770	 4.3960
 3.1790	 4.3220
 3.1810	 4.3580
 3.1830	 4.5320
 3.1850	 4.7270
 3.1870	 4.3110
 3.1890	 4.0780
 3.1910	 4.2020
 3.1930	 4.3120
 3.1950	 4.3480
 3.1970	 4.2610
 3.1990	 4.3730
 3.2010	 4.3950
 3.2030	 4.3730
 3.2050	 4.3610
 3.2070	 4.4300
 3.2090	 4.4110
 3.2110	 4.4940
 3.2130	 4.4980
 3.2150	 4.5110
 3.2170	 4.4430
 3.2190	 4.4380
 3.2210	 4.4820
 3.2230	 4.6190
 3.2250	 4.6180
 3.2270	 4.6070
 3.2290	 4.5790
 3.2310	 4.5180
 3.2330	 4.4170
 3.2350	 4.5360
 3.2370	 4.6050
 3.2390	 4.6460
 3.2410	 4.6390
 3.2430	 4.6890
 3.2450	 4.6790
 3.2470	 4.7430
 3.2490	 4.6410
 3.2510	 4.6930
 3.2530	 4.8120
 3.2550	 4.7450
 3.2570	 4.5600
 3.2590	 4.5450
 3.2610	 4.5530
 3.2630	 4.6730
 3.2650	 4.6630
 3.2670	 4.8130
 3.2690	 4.9310
 3.2720	 4.8640
 3.2740	 4.7470
 3.2760	 4.7740
 3.2780	 4.7980
 3.2800	 4.8660
 3.2820	 4.8000
 3.2840	 4.7660
 3.2860	 4.8060
 3.2880	 4.9000
 3.2900	 4.8540
 3.2920	 4.8970
 3.2940	 4.9470
 3.2960	 4.9540
 3.2990	 4.8710
 3.3010	 4.9090
 3.3030	 4.8890
 3.3050	 4.8470
 3.3070	 4.8730
 3.3090	 4.9040
 3.3110	 4.8340
 3.3130	 4.8530
 3.3150	 4.9100
 3.3180	 4.9690
 3.3200	 4.9600
 3.3220	 4.9630
 3.3240	 4.9140
 3.3260	 4.9450
 3.3280	 4.9620
 3.3300	 4.9820
 3.3330	 4.9880
 3.3350	 5.0200
 3.3370	 4.7970
 3.3390	 4.7400
 3.3410	 4.8930
 3.3430	 4.9180
 3.3450	 4.8010
 3.3480	 4.7970
 3.3500	 4.7780
 3.3520	 4.8090
 3.3540	 4.8690
 3.3560	 4.9570
 3.3580	 4.8920
 3.3610	 4.8490
 3.3630	 4.7330
 3.3650	 4.7150
 3.3670	 4.6770
 3.3690	 4.6690
 3.3720	 4.6110
 3.3740	 4.5930
 3.3760	 4.6190
 3.3780	 4.7640
 3.3800	 4.6930
 3.3830	 4.5760
 3.3850	 4.4780
 3.3870	 4.3760
 3.3890	 4.3370
 3.3910	 4.5050
 3.3940	 4.5430
 3.3960	 4.5650
 3.3980	 4.5070
 3.4000	 4.5420
 3.4020	 4.5670
 3.4050	 4.5620
 3.4070	 4.5670
 3.4090	 4.7160
 3.4110	 4.8630
 3.4140	 4.9790
 3.4160	 4.9910
 3.4180	 5.1710
 3.4200	 5.3750
 3.4230	 5.5480
 3.4250	 5.7470
 3.4270	 5.9390
 3.4290	 5.9020
 3.4320	 5.8260
 3.4340	 5.6720
 3.4360	 5.5160
 3.4390	 5.4160
 3.4410	 5.3830
 3.4430	 5.3440
 3.4450	 5.4000
 3.4480	 5.4240
 3.4500	 5.4080
 3.4520	 5.3310
 3.4550	 5.3230
 3.4570	 5.3890
 3.4590	 5.5270
 3.4620	 5.5280
 3.4640	 5.4990
 3.4660	 5.4940
 3.4680	 5.5010
 3.4710	 5.4120
 3.4730	 5.4480
 3.4750	 5.4680
 3.4780	 5.4120
 3.4800	 5.2370
 3.4820	 5.2180
 3.4850	 5.1900
 3.4870	 5.2140
 3.4890	 5.1750
 3.4920	 5.1260
 3.4940	 5.0970
 3.4970	 5.1740
 3.4990	 5.2730
 3.5010	 5.4070
 3.5040	 5.5040
 3.5060	 5.6990
 3.5080	 5.9430
 3.5110	 6.2030
 3.5130	 6.2040
 3.5160	 6.1040
 3.5180	 6.0690
 3.5200	 6.1380
 3.5230	 6.1110
 3.5250	 6.0900
 3.5270	 6.1380
 3.5300	 6.1940
 3.5320	 6.1140
 3.5350	 6.0860
 3.5370	 6.1310
 3.5400	 6.1340
 3.5420	 6.0740
 3.5440	 6.0370
 3.5470	 6.0260
 3.5490	 6.0000
 3.5520	 6.0200
 3.5540	 6.1310
 3.5570	 6.1400
 3.5590	 6.1530
 3.5610	 6.1610
 3.5640	 6.1790
 3.5660	 6.1430
 3.5690	 6.1520
 3.5710	 6.1530
 3.5740	 6.2010
 3.5760	 6.2330
 3.5790	 6.2830
 3.5810	 6.2580
 3.5840	 6.2840
 3.5860	 6.1980
 3.5890	 6.2280
 3.5910	 6.1930
 3.5930	 6.2430
 3.5960	 6.3200
 3.5980	 6.3540
 3.6010	 6.2640
 3.6030	 6.3080
 3.6060	 6.2780
 3.6080	 6.2460
 3.6110	 6.2660
 3.6140	 6.2580
 3.6160	 6.2180
 3.6190	 6.2240
 3.6210	 6.1740
 3.6240	 6.2000
 3.6260	 6.2180
 3.6290	 6.2480
 3.6310	 6.2460
 3.6340	 6.2200
 3.6360	 6.1710
 3.6390	 6.2500
 3.6410	 6.2720
 3.6440	 6.2960
 3.6470	 6.2930
 3.6490	 6.2750
 3.6520	 6.2560
 3.6540	 6.2930
 3.6570	 6.2680
 3.6590	 6.2680
 3.6620	 6.3550
 3.6650	 6.3570
 3.6670	 6.2630
 3.6700	 6.2480
 3.6720	 6.2270
 3.6750	 6.3050
 3.6780	 6.3580
 3.6800	 6.3540
 3.6830	 6.3110
 3.6850	 6.4010
 3.6880	 6.3980
 3.6910	 6.3500
 3.6930	 6.2990
 3.6960	 6.2900
 3.6990	 6.2830
 3.7010	 6.3240
 3.7040	 6.3360
 3.7060	 6.3810
 3.7090	 6.3700
 3.7120	 6.3620
 3.7140	 6.3680
 3.7170	 6.4030
 3.7200	 6.3800
 3.7220	 6.3730
 3.7250	 6.3780
 3.7280	 6.3660
 3.7300	 6.3750
 3.7330	 6.4350
 3.7360	 6.4080
 3.7390	 6.3890
 3.7410	 6.4080
 3.7440	 6.4940
 3.7470	 6.5160
 3.7490	 6.5120
 3.7520	 6.4780
 3.7550	 6.4820
 3.7580	 6.4650
 3.7600	 6.5010
 3.7630	 6.4590
 3.7660	 6.4920
 3.7680	 6.4800
 3.7710	 6.4550
 3.7740	 6.4160
 3.7770	 6.4740
 3.7790	 6.4540
 3.7820	 6.4550
 3.7850	 6.5600
 3.7880	 6.6000
 3.7900	 6.4820
 3.7930	 6.4850
 3.7960	 6.5260
 3.7990	 6.5470
 3.8020	 6.4960
 3.8040	 6.5630
 3.8070	 6.6180
 3.8100	 6.6130
 3.8130	 6.5590
 3.8160	 6.5480
 3.8180	 6.5300
 3.8210	 6.5370
 3.8240	 6.5480
 3.8270	 6.5220
 3.8300	 6.4140
 3.8330	 6.4350
 3.8350	 6.5360
 3.8380	 6.6350
 3.8410	 6.6230
 3.8440	 6.5900
 3.8470	 6.5920
 3.8500	 6.6220
 3.8520	 6.5930
 3.8550	 6.6260
 3.8580	 6.6430
 3.8610	 6.6180
 3.8640	 6.5370
 3.8670	 6.5640
 3.8700	 6.5790
 3.8730	 6.6310
 3.8750	 6.6220
 3.8780	 6.6390
 3.8810	 6.6180
 3.8840	 6.6500
 3.8870	 6.6500
 3.8900	 6.6830
 3.8930	 6.7440
 3.8960	 6.7460
 3.8990	 6.6480
 3.9020	 6.6570
 3.9050	 6.6580
 3.9080	 6.6660
 3.9110	 6.7000
 3.9140	 6.7110
 3.9160	 6.6740
 3.9190	 6.6600
 3.9220	 6.6500
 3.9250	 6.7310
 3.9280	 6.7280
 3.9310	 6.6430
 3.9340	 6.6070
 3.9370	 6.6740
 3.9400	 6.6530
 3.9430	 6.6850
 3.9460	 6.7050
 3.9490	 6.7440
 3.9520	 6.7300
 3.9550	 6.6830
 3.9580	 6.6880
 3.9610	 6.7150
 3.9640	 6.7260
 3.9670	 6.7780
 3.9700	 6.7360
 3.9730	 6.7110
 3.9770	 6.7270
 3.9800	 6.7320
 3.9830	 6.7040
 3.9860	 6.7130
 3.9890	 6.7010
 3.9920	 6.7040
 3.9950	 6.7150
 3.9980	 6.6910
 4.0010	 6.6640
 4.0040	 6.7400
 4.0070	 6.7590
 4.0100	 6.7130
 4.0130	 6.6630
 4.0170	 6.6930
 4.0200	 6.6690
 4.0230	 6.6990
 4.0260	 6.7160
 4.0290	 6.7340
 4.0320	 6.7350
 4.0350	 6.7350
 4.0380	 6.6680
 4.0420	 6.6760
 4.0450	 6.6830
 4.0480	 6.6680
 4.0510	 6.6750
 4.0540	 6.7380
 4.0570	 6.6640
 4.0610	 6.6070
 4.0640	 6.6600
 4.0670	 6.7250
 4.0700	 6.6940
 4.0730	 6.7020
 4.0770	 6.7600
 4.0800	 6.8130
 4.0830	 6.7570
 4.0860	 6.7230
 4.0890	 6.7050
 4.0930	 6.7470
 4.0960	 6.7660
 4.0990	 6.7600
 4.1020	 6.7130
 4.1060	 6.7420
 4.1090	 6.7290
 4.1120	 6.7250
 4.1150	 6.7360
 4.1190	 6.7410
 4.1220	 6.7200
 4.1250	 6.7210
 4.1280	 6.7550
 4.1320	 6.7510
 4.1350	 6.7100
 4.1380	 6.7400
 4.1420	 6.7500
 4.1450	 6.7790
 4.1480	 6.7890
 4.1520	 6.8230
 4.1550	 6.8430
 4.1580	 6.8310
 4.1620	 6.7610
 4.1650	 6.7090
 4.1680	 6.7170
 4.1720	 6.7520
 4.1750	 6.7540
 4.1780	 6.7690
 4.1820	 6.7800
 4.1850	 6.7830
 4.1890	 6.7690
 4.1920	 6.7950
 4.1950	 6.7520
 4.1990	 6.7260
 4.2020	 6.7390
 4.2060	 6.8140
 4.2090	 6.7870
 4.2120	 6.7570
 4.2160	 6.7490
 4.2190	 6.8000
 4.2230	 6.6980
 4.2260	 6.6470
 4.2300	 6.6550
 4.2330	 6.7020
 4.2360	 6.6480
 4.2400	 6.7790
 4.2430	 6.7980
 4.2470	 6.7010
 4.2500	 6.5240
 4.2540	 6.6170
 4.2570	 6.7220
 4.2610	 6.7540
 4.2640	 6.7120
 4.2680	 6.7510
 4.2710	 6.6440
 4.2750	 6.5400
 4.2780	 6.5500
 4.2820	 6.5950
 4.2850	 6.7090
 4.2890	 6.8000
 4.2930	 6.6800
 4.2960	 6.5330
 4.3000	 6.5120
 4.3030	 6.5020
 4.3070	 6.6190
 4.3100	 6.7080
 4.3140	 6.6710
 4.3180	 6.6300
 4.3210	 6.6440
 4.3250	 6.6470
 4.3280	 6.6300
 4.3320	 6.6580
 4.3360	 6.6240
 4.3390	 6.5760
 4.3430	 6.5580
 4.3470	 6.6220
 4.3500	 6.6110
 4.3540	 6.6060
 4.3570	 6.6550
 4.3610	 6.7010
 4.3650	 6.6610
 4.3680	 6.6640
 4.3720	 6.6400
 4.3760	 6.5400
 4.3800	 6.4910
 4.3830	 6.5450
 4.3870	 6.6080
 4.3910	 6.5620
 4.3940	 6.5170
 4.3980	 6.5250
 4.4020	 6.5360
 4.4060	 6.5780
 4.4090	 6.5680
 4.4130	 6.5450
 4.4170	 6.5320
 4.4210	 6.5180
 4.4240	 6.5160
 4.4280	 6.5720
 4.4320	 6.5640
 4.4360	 6.5130
 4.4400	 6.5010
 4.4430	 6.5000
 4.4470	 6.4940
 4.4510	 6.5450
 4.4550	 6.5600
 4.4590	 6.5220
 4.4620	 6.5140
 4.4660	 6.5530
 4.4700	 6.5310
 4.4740	 6.5090
 4.4780	 6.5230
 4.4820	 6.5360
 4.4860	 6.5110
 4.4900	 6.4730
 4.4930	 6.4780
 4.4970	 6.4820
 4.5010	 6.4880
 4.5050	 6.4840
 4.5090	 6.4450
 4.5130	 6.3730
 4.5170	 6.3060
 4.5210	 6.3590
 4.5250	 6.4110
 4.5290	 6.4670
 4.5330	 6.4540
 4.5370	 6.4090
 4.5410	 6.4610
 4.5450	 6.4920
 4.5490	 6.4410
 4.5530	 6.4220
 4.5570	 6.4100
 4.5610	 6.3450
 4.5650	 6.2850
 4.5690	 6.3260
 4.5730	 6.3610
 4.5770	 6.3250
 4.5810	 6.2800
 4.5850	 6.2560
 4.5890	 6.2660
 4.5930	 6.3310
 4.5970	 6.3730
 4.6010	 6.3270
 4.6050	 6.2840
 4.6090	 6.3450
 4.6130	 6.3410
 4.6170	 6.2620
 4.6220	 6.2390
 4.6260	 6.2590
 4.6300	 6.3130
 4.6340	 6.3430
 4.6380	 6.3450
 4.6420	 6.2630
 4.6460	 6.2520
 4.6510	 6.2800
 4.6550	 6.2450
 4.6590	 6.2630
 4.6630	 6.3290
 4.6670	 6.2360
 4.6720	 6.1670
 4.6760	 6.1940
 4.6800	 6.1680
 4.6840	 6.2130
 4.6880	 6.3070
 4.6930	 6.2560
 4.6970	 6.2070
 4.7010	 6.1940
 4.7050	 6.1980
 4.7100	 6.1870
 4.7140	 6.1970
 4.7180	 6.2430
 4.7230	 6.2790
 4.7270	 6.2310
 4.7310	 6.2080
 4.7360	 6.2330
 4.7400	 6.2450
 4.7440	 6.2090
 4.7490	 6.1810
 4.7530	 6.1360
 4.7570	 6.1410
 4.7620	 6.1940
 4.7660	 6.2040
 4.7700	 6.1810
 4.7750	 6.1660
 4.7790	 6.2420
 4.7840	 6.2720
 4.7880	 6.2150
 4.7920	 6.2310
 4.7970	 6.2560
 4.8010	 6.2110
 4.8060	 6.1650
 4.8100	 6.2230
 4.8150	 6.2530
 4.8190	 6.2200
 4.8240	 6.2060
 4.8280	 6.2420
 4.8330	 6.2150
 4.8370	 6.2050
 4.8420	 6.2440
 4.8460	 6.2480
 4.8510	 6.2600
 4.8550	 6.2550
 4.8600	 6.2380
 4.8640	 6.2610
 4.8690	 6.2530
 4.8730	 6.2110
 4.8780	 6.2130
 4.8830	 6.2240
 4.8870	 6.2380
 4.8920	 6.2880
 4.8960	 6.2690
 4.9010	 6.1970
 4.9060	 6.1750
 4.9100	 6.2310
 4.9150	 6.2350
 4.9200	 6.2510
 4.9240	 6.2900
 4.9290	 6.2900
 4.9340	 6.2590
 4.9380	 6.2120
 4.9430	 6.2190
 4.9480	 6.2230
 4.9530	 6.2350
 4.9570	 6.2500
 4.9620	 6.2680
 4.9670	 6.3100
 4.9720	 6.3060
 4.9760	 6.3080
 4.9810	 6.3100
 4.9860	 6.3520
 4.9910	 6.3110
 4.9960	 6.2950
 5.0000	 6.3070
 5.0050	 6.3240
 5.0100	 6.3100
 5.0150	 6.3230
 5.0200	 6.3130
 5.0250	 6.2870
 5.0290	 6.2870
 5.0340	 6.3170
 5.0390	 6.3030
 5.0440	 6.3160
 5.0490	 6.2940
 5.0540	 6.3310
 5.0590	 6.2880
 5.0640	 6.2500
 5.0690	 6.2080
 5.0740	 6.2360
 5.0790	 6.2910
 5.0840	 6.3050
 5.0890	 6.3080
 5.0940	 6.3230
 5.0990	 6.2990
 5.1040	 6.2670
 5.1090	 6.2690
 5.1140	 6.2760
 5.1190	 6.2560
 5.1240	 6.2260
 5.1290	 6.2370
 5.1340	 6.2920
 5.1390	 6.3020
 5.1440	 6.3410
 5.1490	 6.3390
 5.1540	 6.2860
 5.1600	 6.2420
 5.1650	 6.2590
 5.1700	 6.2700
 5.1750	 6.2710
 5.1800	 6.2900
 5.1850	 6.2600
 5.1910	 6.2360
 5.1960	 6.3110
 5.2010	 6.2710
 5.2060	 6.1910
 5.2110	 6.1650
 5.2170	 6.2000
 5.2220	 6.2060
 5.2270	 6.2610
 5.2320	 6.2870
 5.2380	 6.2210
 5.2430	 6.1430
 5.2480	 6.1960
 5.2540	 6.2150
 5.2590	 6.2200
 5.2640	 6.2110
 5.2700	 6.2160
 5.2750	 6.1760
 5.2800	 6.1730
 5.2860	 6.1530
 5.2910	 6.1580
 5.2970	 6.1790
 5.3020	 6.1540
 5.3070	 6.1000
 5.3130	 6.1030
 5.3180	 6.0880
 5.3240	 6.1500
 5.3290	 6.1510
 5.3350	 6.0920
 5.3400	 6.0390
 5.3460	 6.0610
 5.3510	 6.0590
 5.3570	 6.1010
 5.3620	 6.1080
 5.3680	 6.0930
 5.3730	 6.0440
 5.3790	 5.9860
 5.3850	 5.9730
 5.3900	 6.0210
 5.3960	 6.0180
 5.4010	 6.0100
 5.4070	 5.9830
 5.4130	 5.9370
 5.4180	 5.9180
 5.4240	 5.9220
 5.4300	 5.8620
 5.4350	 5.9250
 5.4410	 5.9650
