Name: Adenostoma fasciculatum 3
Type: vegetation
Class: Shrub
Genus: Adenostoma
Species: fasciculatum
Sample No.: VH221
Owner: UCSB
Wavelength Range: VSWIR
Origin: 34.5084; -119.7686; WGS84
Collection Date: 10/13/2013
Description: Samples were collected as part of the HyspIRI Airborne Campaign. 48 individual plants were sampled in three times in 2013 - spring  summer  and fall. The name of the sample includes a 1  2  or 3 which references a different individual of the species. Samples were taken to JPL and processed within 48 hours of collection. The same leaves were processed in the Nicolet and then measured using the ASD.
Measurement: Bidirectional reflectance
First Column: X
Second Column: Y
X Units: Wavelength (micrometers)
Y Units: Reflectance (percentage)
First X Value: 0.35
Last X Value: 2.5
Number of X Values: 2151
Additional Information: vegetation.shrub.adenostoma.fasciculatum.vswir.vh221.ucsb.asd.ancillary.txt

 0.3500	 2.6420
 0.3510	 2.5260
 0.3520	 2.3350
 0.3530	 2.2300
 0.3540	 2.2920
 0.3550	 2.3190
 0.3560	 2.2790
 0.3570	 2.2580
 0.3580	 2.3720
 0.3590	 2.4280
 0.3600	 2.4020
 0.3610	 2.3290
 0.3620	 2.3010
 0.3630	 2.3210
 0.3640	 2.3710
 0.3650	 2.3990
 0.3660	 2.2510
 0.3670	 2.2110
 0.3680	 2.2740
 0.3690	 2.2480
 0.3700	 2.2630
 0.3710	 2.2610
 0.3720	 2.2350
 0.3730	 2.3200
 0.3740	 2.3850
 0.3750	 2.3600
 0.3760	 2.2400
 0.3770	 2.2290
 0.3780	 2.2930
 0.3790	 2.3580
 0.3800	 2.3400
 0.3810	 2.3110
 0.3820	 2.2910
 0.3830	 2.2770
 0.3840	 2.2320
 0.3850	 2.2100
 0.3860	 2.2490
 0.3870	 2.3510
 0.3880	 2.3890
 0.3890	 2.3620
 0.3900	 2.3130
 0.3910	 2.3210
 0.3920	 2.2650
 0.3930	 2.2510
 0.3940	 2.3350
 0.3950	 2.3330
 0.3960	 2.3560
 0.3970	 2.3610
 0.3980	 2.2710
 0.3990	 2.3000
 0.4000	 2.3690
 0.4010	 2.4000
 0.4020	 2.3570
 0.4030	 2.3540
 0.4040	 2.3790
 0.4050	 2.3980
 0.4060	 2.4410
 0.4070	 2.4140
 0.4080	 2.3760
 0.4090	 2.4660
 0.4100	 2.4970
 0.4110	 2.5040
 0.4120	 2.5150
 0.4130	 2.4880
 0.4140	 2.4560
 0.4150	 2.4600
 0.4160	 2.5160
 0.4170	 2.5420
 0.4180	 2.5390
 0.4190	 2.5340
 0.4200	 2.5690
 0.4210	 2.5970
 0.4220	 2.5950
 0.4230	 2.5710
 0.4240	 2.6050
 0.4250	 2.6350
 0.4260	 2.6470
 0.4270	 2.6520
 0.4280	 2.6690
 0.4290	 2.6790
 0.4300	 2.6820
 0.4310	 2.7040
 0.4320	 2.7150
 0.4330	 2.7340
 0.4340	 2.7740
 0.4350	 2.7620
 0.4360	 2.7690
 0.4370	 2.7940
 0.4380	 2.7870
 0.4390	 2.7640
 0.4400	 2.7570
 0.4410	 2.7780
 0.4420	 2.7980
 0.4430	 2.8090
 0.4440	 2.8120
 0.4450	 2.8180
 0.4460	 2.8430
 0.4470	 2.8590
 0.4480	 2.8550
 0.4490	 2.8460
 0.4500	 2.8500
 0.4510	 2.8670
 0.4520	 2.8870
 0.4530	 2.8960
 0.4540	 2.9180
 0.4550	 2.9440
 0.4560	 2.9490
 0.4570	 2.9510
 0.4580	 2.9450
 0.4590	 2.9340
 0.4600	 2.9410
 0.4610	 2.9660
 0.4620	 2.9790
 0.4630	 2.9560
 0.4640	 2.9730
 0.4650	 2.9910
 0.4660	 2.9920
 0.4670	 2.9830
 0.4680	 2.9860
 0.4690	 2.9900
 0.4700	 2.9900
 0.4710	 3.0150
 0.4720	 3.0370
 0.4730	 3.0450
 0.4740	 3.0380
 0.4750	 3.0330
 0.4760	 3.0350
 0.4770	 3.0440
 0.4780	 3.0620
 0.4790	 3.0650
 0.4800	 3.0600
 0.4810	 3.0610
 0.4820	 3.0800
 0.4830	 3.0960
 0.4840	 3.1020
 0.4850	 3.1070
 0.4860	 3.1050
 0.4870	 3.1110
 0.4880	 3.1300
 0.4890	 3.1250
 0.4900	 3.1450
 0.4910	 3.1710
 0.4920	 3.1640
 0.4930	 3.1790
 0.4940	 3.2020
 0.4950	 3.2240
 0.4960	 3.2500
 0.4970	 3.2720
 0.4980	 3.2950
 0.4990	 3.3230
 0.5000	 3.3400
 0.5010	 3.3600
 0.5020	 3.3910
 0.5030	 3.4320
 0.5040	 3.4720
 0.5050	 3.5130
 0.5060	 3.5600
 0.5070	 3.6180
 0.5080	 3.6700
 0.5090	 3.7220
 0.5100	 3.7830
 0.5110	 3.8420
 0.5120	 3.9150
 0.5130	 4.0010
 0.5140	 4.0680
 0.5150	 4.1550
 0.5160	 4.2520
 0.5170	 4.3390
 0.5180	 4.4240
 0.5190	 4.5230
 0.5200	 4.6330
 0.5210	 4.7320
 0.5220	 4.8310
 0.5230	 4.9410
 0.5240	 5.0600
 0.5250	 5.1490
 0.5260	 5.2360
 0.5270	 5.3280
 0.5280	 5.4240
 0.5290	 5.5130
 0.5300	 5.5940
 0.5310	 5.6690
 0.5320	 5.7400
 0.5330	 5.8050
 0.5340	 5.8650
 0.5350	 5.9220
 0.5360	 5.9760
 0.5370	 6.0270
 0.5380	 6.0750
 0.5390	 6.1170
 0.5400	 6.1590
 0.5410	 6.2090
 0.5420	 6.2630
 0.5430	 6.2990
 0.5440	 6.3390
 0.5450	 6.3800
 0.5460	 6.4130
 0.5470	 6.4450
 0.5480	 6.4700
 0.5490	 6.4930
 0.5500	 6.5220
 0.5510	 6.5450
 0.5520	 6.5660
 0.5530	 6.5890
 0.5540	 6.6010
 0.5550	 6.6090
 0.5560	 6.6140
 0.5570	 6.6080
 0.5580	 6.6040
 0.5590	 6.5970
 0.5600	 6.5840
 0.5610	 6.5690
 0.5620	 6.5500
 0.5630	 6.5260
 0.5640	 6.4930
 0.5650	 6.4620
 0.5660	 6.4270
 0.5670	 6.3860
 0.5680	 6.3400
 0.5690	 6.2990
 0.5700	 6.2570
 0.5710	 6.2060
 0.5720	 6.1620
 0.5730	 6.1250
 0.5740	 6.0930
 0.5750	 6.0650
 0.5760	 6.0330
 0.5770	 6.0070
 0.5780	 5.9910
 0.5790	 5.9670
 0.5800	 5.9490
 0.5810	 5.9350
 0.5820	 5.9180
 0.5830	 5.9060
 0.5840	 5.9000
 0.5850	 5.9010
 0.5860	 5.9090
 0.5870	 5.9170
 0.5880	 5.9220
 0.5890	 5.9210
 0.5900	 5.9100
 0.5910	 5.9050
 0.5920	 5.9100
 0.5930	 5.9220
 0.5940	 5.9360
 0.5950	 5.9510
 0.5960	 5.9670
 0.5970	 5.9840
 0.5980	 6.0070
 0.5990	 6.0280
 0.6000	 6.0380
 0.6010	 6.0530
 0.6020	 6.0690
 0.6030	 6.0860
 0.6040	 6.1040
 0.6050	 6.1180
 0.6060	 6.1310
 0.6070	 6.1420
 0.6080	 6.1470
 0.6090	 6.1510
 0.6100	 6.1610
 0.6110	 6.1810
 0.6120	 6.1810
 0.6130	 6.1810
 0.6140	 6.1880
 0.6150	 6.1890
 0.6160	 6.1910
 0.6170	 6.1980
 0.6180	 6.2130
 0.6190	 6.2300
 0.6200	 6.2440
 0.6210	 6.2590
 0.6220	 6.2850
 0.6230	 6.3080
 0.6240	 6.3330
 0.6250	 6.3620
 0.6260	 6.3890
 0.6270	 6.4190
 0.6280	 6.4530
 0.6290	 6.4890
 0.6300	 6.5190
 0.6310	 6.5480
 0.6320	 6.5780
 0.6330	 6.6040
 0.6340	 6.6280
 0.6350	 6.6450
 0.6360	 6.6530
 0.6370	 6.6610
 0.6380	 6.6660
 0.6390	 6.6610
 0.6400	 6.6450
 0.6410	 6.6370
 0.6420	 6.6270
 0.6430	 6.6100
 0.6440	 6.5900
 0.6450	 6.5740
 0.6460	 6.5590
 0.6470	 6.5430
 0.6480	 6.5320
 0.6490	 6.5270
 0.6500	 6.5260
 0.6510	 6.5270
 0.6520	 6.5340
 0.6530	 6.5460
 0.6540	 6.5610
 0.6550	 6.5690
 0.6560	 6.5720
 0.6570	 6.5730
 0.6580	 6.5750
 0.6590	 6.5670
 0.6600	 6.5530
 0.6610	 6.5380
 0.6620	 6.5280
 0.6630	 6.5120
 0.6640	 6.4970
 0.6650	 6.4880
 0.6660	 6.4770
 0.6670	 6.4740
 0.6680	 6.4770
 0.6690	 6.4790
 0.6700	 6.4880
 0.6710	 6.5030
 0.6720	 6.5200
 0.6730	 6.5400
 0.6740	 6.5680
 0.6750	 6.6000
 0.6760	 6.6290
 0.6770	 6.6640
 0.6780	 6.7100
 0.6790	 6.7650
 0.6800	 6.8210
 0.6810	 6.8860
 0.6820	 6.9630
 0.6830	 7.0530
 0.6840	 7.1540
 0.6850	 7.2820
 0.6860	 7.4280
 0.6870	 7.5860
 0.6880	 7.7770
 0.6890	 7.9930
 0.6900	 8.2330
 0.6910	 8.5010
 0.6920	 8.7980
 0.6930	 9.1250
 0.6940	 9.4850
 0.6950	 9.8790
 0.6960	10.3040
 0.6970	10.7500
 0.6980	11.2080
 0.6990	11.6980
 0.7000	12.2080
 0.7010	12.7270
 0.7020	13.2470
 0.7030	13.7860
 0.7040	14.3270
 0.7050	14.8600
 0.7060	15.4000
 0.7070	15.9460
 0.7080	16.4950
 0.7090	17.0430
 0.7100	17.5970
 0.7110	18.1530
 0.7120	18.7110
 0.7130	19.2780
 0.7140	19.8400
 0.7150	20.4030
 0.7160	20.9700
 0.7170	21.5390
 0.7180	22.1040
 0.7190	22.6640
 0.7200	23.2180
 0.7210	23.7740
 0.7220	24.3180
 0.7230	24.8500
 0.7240	25.3920
 0.7250	25.9170
 0.7260	26.4170
 0.7270	26.8940
 0.7280	27.3710
 0.7290	27.8310
 0.7300	28.2700
 0.7310	28.6930
 0.7320	29.0930
 0.7330	29.4810
 0.7340	29.8580
 0.7350	30.2170
 0.7360	30.5500
 0.7370	30.8690
 0.7380	31.1770
 0.7390	31.4570
 0.7400	31.7380
 0.7410	32.0090
 0.7420	32.2510
 0.7430	32.4850
 0.7440	32.7070
 0.7450	32.9150
 0.7460	33.1150
 0.7470	33.3040
 0.7480	33.4730
 0.7490	33.6250
 0.7500	33.7900
 0.7510	33.9420
 0.7520	34.0780
 0.7530	34.2060
 0.7540	34.3480
 0.7550	34.4750
 0.7560	34.5840
 0.7570	34.6940
 0.7580	34.8040
 0.7590	34.9130
 0.7600	35.0150
 0.7610	35.0960
 0.7620	35.1880
 0.7630	35.2870
 0.7640	35.3820
 0.7650	35.4640
 0.7660	35.5440
 0.7670	35.6200
 0.7680	35.6870
 0.7690	35.7720
 0.7700	35.8580
 0.7710	35.9330
 0.7720	35.9990
 0.7730	36.0720
 0.7740	36.1450
 0.7750	36.2100
 0.7760	36.2820
 0.7770	36.3410
 0.7780	36.4010
 0.7790	36.4820
 0.7800	36.5640
 0.7810	36.6330
 0.7820	36.6930
 0.7830	36.7640
 0.7840	36.8320
 0.7850	36.8960
 0.7860	36.9610
 0.7870	37.0280
 0.7880	37.0950
 0.7890	37.1580
 0.7900	37.2160
 0.7910	37.2680
 0.7920	37.3290
 0.7930	37.3990
 0.7940	37.4670
 0.7950	37.5290
 0.7960	37.5870
 0.7970	37.6420
 0.7980	37.6870
 0.7990	37.7460
 0.8000	37.8130
 0.8010	37.8760
 0.8020	37.9260
 0.8030	37.9830
 0.8040	38.0460
 0.8050	38.1050
 0.8060	38.1580
 0.8070	38.1970
 0.8080	38.2360
 0.8090	38.3050
 0.8100	38.3660
 0.8110	38.4180
 0.8120	38.4630
 0.8130	38.5140
 0.8140	38.5600
 0.8150	38.5990
 0.8160	38.6370
 0.8170	38.6900
 0.8180	38.7520
 0.8190	38.8120
 0.8200	38.8580
 0.8210	38.8930
 0.8220	38.9330
 0.8230	38.9800
 0.8240	39.0250
 0.8250	39.0720
 0.8260	39.1150
 0.8270	39.1540
 0.8280	39.2000
 0.8290	39.2390
 0.8300	39.2740
 0.8310	39.3100
 0.8320	39.3480
 0.8330	39.3810
 0.8340	39.4160
 0.8350	39.4640
 0.8360	39.5010
 0.8370	39.5420
 0.8380	39.5890
 0.8390	39.6280
 0.8400	39.6740
 0.8410	39.7080
 0.8420	39.7290
 0.8430	39.7620
 0.8440	39.8040
 0.8450	39.8510
 0.8460	39.8980
 0.8470	39.9300
 0.8480	39.9700
 0.8490	40.0100
 0.8500	40.0390
 0.8510	40.0930
 0.8520	40.1410
 0.8530	40.1710
 0.8540	40.1900
 0.8550	40.2270
 0.8560	40.2790
 0.8570	40.3240
 0.8580	40.3260
 0.8590	40.3420
 0.8600	40.3870
 0.8610	40.4450
 0.8620	40.4680
 0.8630	40.4870
 0.8640	40.5140
 0.8650	40.5500
 0.8660	40.5900
 0.8670	40.6240
 0.8680	40.6550
 0.8690	40.6850
 0.8700	40.6940
 0.8710	40.7200
 0.8720	40.7600
 0.8730	40.7890
 0.8740	40.8270
 0.8750	40.8590
 0.8760	40.8800
 0.8770	40.8990
 0.8780	40.9340
 0.8790	40.9650
 0.8800	40.9810
 0.8810	41.0010
 0.8820	41.0210
 0.8830	41.0410
 0.8840	41.0600
 0.8850	41.0790
 0.8860	41.1020
 0.8870	41.1250
 0.8880	41.1420
 0.8890	41.1630
 0.8900	41.1970
 0.8910	41.2290
 0.8920	41.2390
 0.8930	41.2430
 0.8940	41.2520
 0.8950	41.2650
 0.8960	41.2760
 0.8970	41.2990
 0.8980	41.3210
 0.8990	41.3370
 0.9000	41.3540
 0.9010	41.3590
 0.9020	41.3630
 0.9030	41.3770
 0.9040	41.4000
 0.9050	41.4160
 0.9060	41.4240
 0.9070	41.4290
 0.9080	41.4410
 0.9090	41.4560
 0.9100	41.4750
 0.9110	41.4920
 0.9120	41.4840
 0.9130	41.4940
 0.9140	41.5220
 0.9150	41.5450
 0.9160	41.5260
 0.9170	41.5150
 0.9180	41.5390
 0.9190	41.5930
 0.9200	41.5910
 0.9210	41.5830
 0.9220	41.5780
 0.9230	41.5660
 0.9240	41.5680
 0.9250	41.5790
 0.9260	41.5910
 0.9270	41.5910
 0.9280	41.5580
 0.9290	41.5350
 0.9300	41.5290
 0.9310	41.5100
 0.9320	41.5030
 0.9330	41.5000
 0.9340	41.4960
 0.9350	41.4940
 0.9360	41.4740
 0.9370	41.4390
 0.9380	41.3990
 0.9390	41.3700
 0.9400	41.3510
 0.9410	41.3390
 0.9420	41.3160
 0.9430	41.2450
 0.9440	41.2210
 0.9450	41.2040
 0.9460	41.1550
 0.9470	41.1180
 0.9480	41.0650
 0.9490	40.9980
 0.9500	40.9270
 0.9510	40.8490
 0.9520	40.7720
 0.9530	40.7010
 0.9540	40.6280
 0.9550	40.5070
 0.9560	40.4170
 0.9570	40.3610
 0.9580	40.3110
 0.9590	40.2480
 0.9600	40.1770
 0.9610	40.1080
 0.9620	40.0490
 0.9630	40.0060
 0.9640	39.9470
 0.9650	39.9000
 0.9660	39.8970
 0.9670	39.8580
 0.9680	39.8280
 0.9690	39.8090
 0.9700	39.7840
 0.9710	39.7490
 0.9720	39.7310
 0.9730	39.7170
 0.9740	39.6870
 0.9750	39.7040
 0.9760	39.6930
 0.9770	39.6700
 0.9780	39.6820
 0.9790	39.6970
 0.9800	39.7140
 0.9810	39.7140
 0.9820	39.6890
 0.9830	39.7220
 0.9840	39.7450
 0.9850	39.7590
 0.9860	39.7960
 0.9870	39.8490
 0.9880	39.8600
 0.9890	39.8530
 0.9900	39.8790
 0.9910	39.9230
 0.9920	39.9950
 0.9930	40.0670
 0.9940	40.1390
 0.9950	40.2110
 0.9960	40.2830
 0.9970	40.3550
 0.9980	40.4270
 0.9990	40.4990
 1.0000	40.5710
 1.0010	40.6430
 1.0020	40.7150
 1.0030	40.7870
 1.0040	40.8590
 1.0050	40.9310
 1.0060	41.0030
 1.0070	41.0750
 1.0080	41.1470
 1.0090	41.2190
 1.0100	41.2190
 1.0110	41.2700
 1.0120	41.3170
 1.0130	41.3700
 1.0140	41.4170
 1.0150	41.4560
 1.0160	41.4950
 1.0170	41.5380
 1.0180	41.5840
 1.0190	41.6410
 1.0200	41.7000
 1.0210	41.7540
 1.0220	41.8030
 1.0230	41.8540
 1.0240	41.9030
 1.0250	41.9460
 1.0260	41.9880
 1.0270	42.0300
 1.0280	42.0660
 1.0290	42.1050
 1.0300	42.1470
 1.0310	42.1910
 1.0320	42.2330
 1.0330	42.2780
 1.0340	42.3270
 1.0350	42.3780
 1.0360	42.4200
 1.0370	42.4540
 1.0380	42.4900
 1.0390	42.5210
 1.0400	42.5520
 1.0410	42.5840
 1.0420	42.6180
 1.0430	42.6520
 1.0440	42.6840
 1.0450	42.7220
 1.0460	42.7510
 1.0470	42.7680
 1.0480	42.7930
 1.0490	42.8200
 1.0500	42.8440
 1.0510	42.8650
 1.0520	42.8980
 1.0530	42.9270
 1.0540	42.9560
 1.0550	42.9810
 1.0560	43.0060
 1.0570	43.0310
 1.0580	43.0470
 1.0590	43.0710
 1.0600	43.1050
 1.0610	43.1260
 1.0620	43.1420
 1.0630	43.1580
 1.0640	43.1630
 1.0650	43.1790
 1.0660	43.2080
 1.0670	43.2280
 1.0680	43.2460
 1.0690	43.2680
 1.0700	43.2820
 1.0710	43.2860
 1.0720	43.2960
 1.0730	43.3050
 1.0740	43.3150
 1.0750	43.3250
 1.0760	43.3350
 1.0770	43.3450
 1.0780	43.3530
 1.0790	43.3600
 1.0800	43.3660
 1.0810	43.3700
 1.0820	43.3760
 1.0830	43.3820
 1.0840	43.3880
 1.0850	43.3960
 1.0860	43.3990
 1.0870	43.4030
 1.0880	43.4070
 1.0890	43.4070
 1.0900	43.4050
 1.0910	43.4040
 1.0920	43.4080
 1.0930	43.4000
 1.0940	43.3850
 1.0950	43.3730
 1.0960	43.3520
 1.0970	43.3350
 1.0980	43.3260
 1.0990	43.3090
 1.1000	43.2820
 1.1010	43.2620
 1.1020	43.2410
 1.1030	43.2210
 1.1040	43.2130
 1.1050	43.2000
 1.1060	43.1870
 1.1070	43.1790
 1.1080	43.1580
 1.1090	43.1300
 1.1100	43.1030
 1.1110	43.0680
 1.1120	43.0360
 1.1130	43.0080
 1.1140	42.9740
 1.1150	42.9450
 1.1160	42.9030
 1.1170	42.8560
 1.1180	42.8020
 1.1190	42.7380
 1.1200	42.6710
 1.1210	42.6040
 1.1220	42.5310
 1.1230	42.4560
 1.1240	42.3760
 1.1250	42.2880
 1.1260	42.1960
 1.1270	42.0950
 1.1280	41.9870
 1.1290	41.8700
 1.1300	41.7490
 1.1310	41.6170
 1.1320	41.4750
 1.1330	41.3280
 1.1340	41.1720
 1.1350	41.0060
 1.1360	40.8350
 1.1370	40.6540
 1.1380	40.4610
 1.1390	40.2640
 1.1400	40.0610
 1.1410	39.8570
 1.1420	39.6520
 1.1430	39.4420
 1.1440	39.2340
 1.1450	39.0220
 1.1460	38.8140
 1.1470	38.6050
 1.1480	38.4050
 1.1490	38.2070
 1.1500	38.0190
 1.1510	37.8340
 1.1520	37.6620
 1.1530	37.5000
 1.1540	37.3460
 1.1550	37.2010
 1.1560	37.0690
 1.1570	36.9380
 1.1580	36.8200
 1.1590	36.7150
 1.1600	36.6120
 1.1610	36.5220
 1.1620	36.4440
 1.1630	36.3680
 1.1640	36.3030
 1.1650	36.2430
 1.1660	36.1890
 1.1670	36.1390
 1.1680	36.0970
 1.1690	36.0540
 1.1700	36.0180
 1.1710	35.9810
 1.1720	35.9430
 1.1730	35.9090
 1.1740	35.8780
 1.1750	35.8480
 1.1760	35.8210
 1.1770	35.7920
 1.1780	35.7600
 1.1790	35.7280
 1.1800	35.6930
 1.1810	35.6570
 1.1820	35.6240
 1.1830	35.5890
 1.1840	35.5550
 1.1850	35.5230
 1.1860	35.4920
 1.1870	35.4640
 1.1880	35.4370
 1.1890	35.4110
 1.1900	35.3890
 1.1910	35.3710
 1.1920	35.3510
 1.1930	35.3350
 1.1940	35.3200
 1.1950	35.3040
 1.1960	35.2890
 1.1970	35.2800
 1.1980	35.2720
 1.1990	35.2720
 1.2000	35.2740
 1.2010	35.2820
 1.2020	35.2890
 1.2030	35.2930
 1.2040	35.3050
 1.2050	35.3190
 1.2060	35.3370
 1.2070	35.3590
 1.2080	35.3840
 1.2090	35.4130
 1.2100	35.4440
 1.2110	35.4770
 1.2120	35.5120
 1.2130	35.5510
 1.2140	35.5950
 1.2150	35.6390
 1.2160	35.6870
 1.2170	35.7370
 1.2180	35.7880
 1.2190	35.8360
 1.2200	35.8890
 1.2210	35.9450
 1.2220	36.0000
 1.2230	36.0500
 1.2240	36.1000
 1.2250	36.1540
 1.2260	36.2060
 1.2270	36.2600
 1.2280	36.3160
 1.2290	36.3650
 1.2300	36.4140
 1.2310	36.4660
 1.2320	36.5140
 1.2330	36.5610
 1.2340	36.6100
 1.2350	36.6610
 1.2360	36.7090
 1.2370	36.7560
 1.2380	36.8020
 1.2390	36.8440
 1.2400	36.8770
 1.2410	36.9120
 1.2420	36.9510
 1.2430	36.9880
 1.2440	37.0260
 1.2450	37.0610
 1.2460	37.0930
 1.2470	37.1210
 1.2480	37.1470
 1.2490	37.1800
 1.2500	37.2110
 1.2510	37.2390
 1.2520	37.2720
 1.2530	37.2960
 1.2540	37.3120
 1.2550	37.3300
 1.2560	37.3480
 1.2570	37.3640
 1.2580	37.3840
 1.2590	37.4040
 1.2600	37.4270
 1.2610	37.4450
 1.2620	37.4600
 1.2630	37.4770
 1.2640	37.4860
 1.2650	37.4990
 1.2660	37.5130
 1.2670	37.5160
 1.2680	37.5180
 1.2690	37.5170
 1.2700	37.5120
 1.2710	37.5160
 1.2720	37.5160
 1.2730	37.5110
 1.2740	37.5020
 1.2750	37.4890
 1.2760	37.4790
 1.2770	37.4720
 1.2780	37.4620
 1.2790	37.4490
 1.2800	37.4350
 1.2810	37.4210
 1.2820	37.4000
 1.2830	37.3810
 1.2840	37.3620
 1.2850	37.3340
 1.2860	37.3150
 1.2870	37.2890
 1.2880	37.2600
 1.2890	37.2250
 1.2900	37.1930
 1.2910	37.1510
 1.2920	37.1110
 1.2930	37.0740
 1.2940	37.0310
 1.2950	36.9920
 1.2960	36.9520
 1.2970	36.9100
 1.2980	36.8640
 1.2990	36.8090
 1.3000	36.7480
 1.3010	36.6780
 1.3020	36.6070
 1.3030	36.5380
 1.3040	36.4650
 1.3050	36.3900
 1.3060	36.3090
 1.3070	36.2200
 1.3080	36.1250
 1.3090	36.0280
 1.3100	35.9280
 1.3110	35.8250
 1.3120	35.7180
 1.3130	35.6070
 1.3140	35.4920
 1.3150	35.3720
 1.3160	35.2480
 1.3170	35.1220
 1.3180	34.9930
 1.3190	34.8580
 1.3200	34.7150
 1.3210	34.5650
 1.3220	34.4100
 1.3230	34.2540
 1.3240	34.0970
 1.3250	33.9420
 1.3260	33.7830
 1.3270	33.6160
 1.3280	33.4500
 1.3290	33.2770
 1.3300	33.1020
 1.3310	32.9310
 1.3320	32.7530
 1.3330	32.5760
 1.3340	32.3990
 1.3350	32.2200
 1.3360	32.0400
 1.3370	31.8580
 1.3380	31.6760
 1.3390	31.4940
 1.3400	31.3130
 1.3410	31.1390
 1.3420	30.9680
 1.3430	30.7970
 1.3440	30.6290
 1.3450	30.4640
 1.3460	30.3010
 1.3470	30.1440
 1.3480	29.9910
 1.3490	29.8390
 1.3500	29.6890
 1.3510	29.5390
 1.3520	29.3900
 1.3530	29.2470
 1.3540	29.1080
 1.3550	28.9680
 1.3560	28.8310
 1.3570	28.6970
 1.3580	28.5590
 1.3590	28.4200
 1.3600	28.2810
 1.3610	28.1350
 1.3620	27.9870
 1.3630	27.8400
 1.3640	27.6850
 1.3650	27.5260
 1.3660	27.3640
 1.3670	27.1960
 1.3680	27.0160
 1.3690	26.8310
 1.3700	26.6350
 1.3710	26.4270
 1.3720	26.2150
 1.3730	25.9900
 1.3740	25.7510
 1.3750	25.5020
 1.3760	25.2350
 1.3770	24.9490
 1.3780	24.6490
 1.3790	24.3360
 1.3800	24.0080
 1.3810	23.6670
 1.3820	23.3120
 1.3830	22.9440
 1.3840	22.5620
 1.3850	22.1650
 1.3860	21.7630
 1.3870	21.3480
 1.3880	20.9340
 1.3890	20.5150
 1.3900	20.0920
 1.3910	19.6710
 1.3920	19.2520
 1.3930	18.8330
 1.3940	18.4170
 1.3950	18.0020
 1.3960	17.5970
 1.3970	17.2050
 1.3980	16.8230
 1.3990	16.4580
 1.4000	16.1060
 1.4010	15.7620
 1.4020	15.4340
 1.4030	15.1210
 1.4040	14.8200
 1.4050	14.5340
 1.4060	14.2610
 1.4070	14.0040
 1.4080	13.7610
 1.4090	13.5300
 1.4100	13.3130
 1.4110	13.1070
 1.4120	12.9140
 1.4130	12.7320
 1.4140	12.5630
 1.4150	12.4100
 1.4160	12.2650
 1.4170	12.1300
 1.4180	12.0060
 1.4190	11.8880
 1.4200	11.7790
 1.4210	11.6790
 1.4220	11.5850
 1.4230	11.4980
 1.4240	11.4190
 1.4250	11.3450
 1.4260	11.2770
 1.4270	11.2130
 1.4280	11.1540
 1.4290	11.0990
 1.4300	11.0500
 1.4310	11.0040
 1.4320	10.9620
 1.4330	10.9230
 1.4340	10.8870
 1.4350	10.8550
 1.4360	10.8280
 1.4370	10.8030
 1.4380	10.7820
 1.4390	10.7650
 1.4400	10.7480
 1.4410	10.7330
 1.4420	10.7190
 1.4430	10.7070
 1.4440	10.6980
 1.4450	10.6910
 1.4460	10.6880
 1.4470	10.6860
 1.4480	10.6840
 1.4490	10.6850
 1.4500	10.6870
 1.4510	10.6870
 1.4520	10.6910
 1.4530	10.6960
 1.4540	10.7000
 1.4550	10.7050
 1.4560	10.7120
 1.4570	10.7180
 1.4580	10.7270
 1.4590	10.7400
 1.4600	10.7540
 1.4610	10.7710
 1.4620	10.7890
 1.4630	10.8090
 1.4640	10.8320
 1.4650	10.8560
 1.4660	10.8830
 1.4670	10.9120
 1.4680	10.9430
 1.4690	10.9780
