Name: Arctostaphylos glandulosa 3
Type: vegetation
Class: Shrub
Genus: Arctostaphylos
Species: glandulosa
Sample No.: VH253
Owner: UCSB
Wavelength Range: VSWIR
Origin: 37.0443; -119.3026; WGS84
Collection Date: 11/2/2013
Description: Samples were collected as part of the HyspIRI Airborne Campaign. 48 individual plants were sampled in three times in 2013 - spring  summer  and fall. The name of the sample includes a 1  2  or 3 which references a different individual of the species. Samples were taken to JPL and processed within 48 hours of collection. The same leaves were processed in the Nicolet and then measured using the ASD.
Measurement: Bidirectional reflectance
First Column: X
Second Column: Y
X Units: Wavelength (micrometers)
Y Units: Reflectance (percentage)
First X Value: 0.35
Last X Value: 2.5
Number of X Values: 2151
Additional Information: vegetation.shrub.arctostaphylos.glandulosa.vswir.vh253.ucsb.asd.ancillary.txt

 0.3500	 4.2150
 0.3510	 4.4430
 0.3520	 4.3100
 0.3530	 4.0760
 0.3540	 4.0340
 0.3550	 4.0190
 0.3560	 4.0830
 0.3570	 4.1530
 0.3580	 4.1190
 0.3590	 4.0940
 0.3600	 4.0750
 0.3610	 4.0560
 0.3620	 4.0540
 0.3630	 4.0550
 0.3640	 4.0730
 0.3650	 4.1170
 0.3660	 4.1430
 0.3670	 4.1520
 0.3680	 4.1520
 0.3690	 4.1520
 0.3700	 4.1400
 0.3710	 4.0870
 0.3720	 4.0210
 0.3730	 4.0720
 0.3740	 4.1090
 0.3750	 4.1220
 0.3760	 4.1370
 0.3770	 4.1490
 0.3780	 4.1280
 0.3790	 4.1070
 0.3800	 4.1650
 0.3810	 4.1520
 0.3820	 4.1140
 0.3830	 4.1030
 0.3840	 4.1140
 0.3850	 4.1230
 0.3860	 4.1260
 0.3870	 4.1280
 0.3880	 4.1000
 0.3890	 4.1160
 0.3900	 4.1690
 0.3910	 4.1760
 0.3920	 4.1590
 0.3930	 4.1460
 0.3940	 4.1470
 0.3950	 4.1150
 0.3960	 4.1480
 0.3970	 4.2020
 0.3980	 4.1870
 0.3990	 4.2120
 0.4000	 4.2400
 0.4010	 4.2520
 0.4020	 4.2720
 0.4030	 4.2840
 0.4040	 4.3090
 0.4050	 4.3610
 0.4060	 4.4050
 0.4070	 4.4280
 0.4080	 4.4400
 0.4090	 4.4700
 0.4100	 4.5090
 0.4110	 4.5520
 0.4120	 4.5930
 0.4130	 4.6180
 0.4140	 4.6500
 0.4150	 4.7020
 0.4160	 4.7770
 0.4170	 4.8310
 0.4180	 4.8660
 0.4190	 4.9010
 0.4200	 4.9650
 0.4210	 5.0050
 0.4220	 5.0450
 0.4230	 5.1020
 0.4240	 5.1440
 0.4250	 5.2010
 0.4260	 5.2670
 0.4270	 5.3220
 0.4280	 5.3820
 0.4290	 5.4320
 0.4300	 5.4740
 0.4310	 5.5370
 0.4320	 5.6010
 0.4330	 5.6620
 0.4340	 5.7170
 0.4350	 5.7540
 0.4360	 5.8110
 0.4370	 5.8870
 0.4380	 5.9440
 0.4390	 6.0080
 0.4400	 6.0750
 0.4410	 6.1380
 0.4420	 6.1900
 0.4430	 6.2530
 0.4440	 6.3200
 0.4450	 6.3760
 0.4460	 6.4380
 0.4470	 6.5020
 0.4480	 6.5630
 0.4490	 6.6250
 0.4500	 6.6850
 0.4510	 6.7540
 0.4520	 6.8350
 0.4530	 6.9020
 0.4540	 6.9630
 0.4550	 7.0220
 0.4560	 7.0860
 0.4570	 7.1630
 0.4580	 7.2310
 0.4590	 7.2850
 0.4600	 7.3460
 0.4610	 7.4050
 0.4620	 7.4640
 0.4630	 7.5300
 0.4640	 7.5970
 0.4650	 7.6550
 0.4660	 7.7050
 0.4670	 7.7650
 0.4680	 7.8130
 0.4690	 7.8600
 0.4700	 7.9140
 0.4710	 7.9550
 0.4720	 7.9880
 0.4730	 8.0170
 0.4740	 8.0490
 0.4750	 8.0800
 0.4760	 8.1160
 0.4770	 8.1530
 0.4780	 8.1670
 0.4790	 8.1730
 0.4800	 8.1940
 0.4810	 8.2410
 0.4820	 8.2770
 0.4830	 8.3110
 0.4840	 8.3500
 0.4850	 8.3920
 0.4860	 8.4250
 0.4870	 8.4690
 0.4880	 8.5340
 0.4890	 8.5910
 0.4900	 8.6500
 0.4910	 8.7160
 0.4920	 8.7870
 0.4930	 8.8610
 0.4940	 8.9430
 0.4950	 9.0370
 0.4960	 9.1380
 0.4970	 9.2380
 0.4980	 9.3400
 0.4990	 9.4520
 0.5000	 9.5720
 0.5010	 9.7050
 0.5020	 9.8470
 0.5030	 9.9890
 0.5040	10.1400
 0.5050	10.2990
 0.5060	10.4680
 0.5070	10.6550
 0.5080	10.8460
 0.5090	11.0370
 0.5100	11.2320
 0.5110	11.4470
 0.5120	11.6730
 0.5130	11.9040
 0.5140	12.1390
 0.5150	12.3770
 0.5160	12.6230
 0.5170	12.8830
 0.5180	13.1530
 0.5190	13.4340
 0.5200	13.7210
 0.5210	14.0070
 0.5220	14.3140
 0.5230	14.6240
 0.5240	14.9260
 0.5250	15.2370
 0.5260	15.5480
 0.5270	15.8600
 0.5280	16.1750
 0.5290	16.4820
 0.5300	16.7850
 0.5310	17.0890
 0.5320	17.3970
 0.5330	17.6920
 0.5340	17.9760
 0.5350	18.2530
 0.5360	18.5170
 0.5370	18.7740
 0.5380	19.0250
 0.5390	19.2700
 0.5400	19.5040
 0.5410	19.7260
 0.5420	19.9390
 0.5430	20.1530
 0.5440	20.3600
 0.5450	20.5630
 0.5460	20.7670
 0.5470	20.9670
 0.5480	21.1650
 0.5490	21.3540
 0.5500	21.5200
 0.5510	21.6760
 0.5520	21.8180
 0.5530	21.9440
 0.5540	22.0610
 0.5550	22.1550
 0.5560	22.2270
 0.5570	22.2850
 0.5580	22.3250
 0.5590	22.3520
 0.5600	22.3700
 0.5610	22.3760
 0.5620	22.3730
 0.5630	22.3650
 0.5640	22.3510
 0.5650	22.3110
 0.5660	22.2570
 0.5670	22.1970
 0.5680	22.1370
 0.5690	22.0610
 0.5700	21.9630
 0.5710	21.8500
 0.5720	21.7540
 0.5730	21.6790
 0.5740	21.6150
 0.5750	21.5410
 0.5760	21.4520
 0.5770	21.3620
 0.5780	21.2830
 0.5790	21.2230
 0.5800	21.1710
 0.5810	21.1270
 0.5820	21.0920
 0.5830	21.0580
 0.5840	21.0280
 0.5850	20.9980
 0.5860	20.9530
 0.5870	20.9230
 0.5880	20.9250
 0.5890	20.9560
 0.5900	20.9640
 0.5910	20.9570
 0.5920	20.9500
 0.5930	20.9630
 0.5940	20.9920
 0.5950	21.0220
 0.5960	21.0440
 0.5970	21.0600
 0.5980	21.0660
 0.5990	21.0660
 0.6000	21.0690
 0.6010	21.0820
 0.6020	21.0850
 0.6030	21.0710
 0.6040	21.0470
 0.6050	21.0160
 0.6060	20.9770
 0.6070	20.9300
 0.6080	20.8780
 0.6090	20.8080
 0.6100	20.7180
 0.6110	20.6190
 0.6120	20.5380
 0.6130	20.4710
 0.6140	20.4070
 0.6150	20.3280
 0.6160	20.2530
 0.6170	20.1830
 0.6180	20.1180
 0.6190	20.0620
 0.6200	20.0130
 0.6210	19.9750
 0.6220	19.9510
 0.6230	19.9350
 0.6240	19.9330
 0.6250	19.9450
 0.6260	19.9600
 0.6270	19.9810
 0.6280	20.0090
 0.6290	20.0450
 0.6300	20.0780
 0.6310	20.1100
 0.6320	20.1430
 0.6330	20.1700
 0.6340	20.1790
 0.6350	20.1710
 0.6360	20.1490
 0.6370	20.1080
 0.6380	20.0520
 0.6390	19.9790
 0.6400	19.8810
 0.6410	19.7670
 0.6420	19.6440
 0.6430	19.5120
 0.6440	19.3630
 0.6450	19.2140
 0.6460	19.0630
 0.6470	18.9100
 0.6480	18.7730
 0.6490	18.6540
 0.6500	18.5520
 0.6510	18.4610
 0.6520	18.3870
 0.6530	18.3140
 0.6540	18.2300
 0.6550	18.1380
 0.6560	18.0290
 0.6570	17.8980
 0.6580	17.7390
 0.6590	17.5560
 0.6600	17.3550
 0.6610	17.1390
 0.6620	16.9060
 0.6630	16.6710
 0.6640	16.4400
 0.6650	16.2170
 0.6660	16.0210
 0.6670	15.8320
 0.6680	15.6540
 0.6690	15.4980
 0.6700	15.3680
 0.6710	15.2620
 0.6720	15.1730
 0.6730	15.0960
 0.6740	15.0420
 0.6750	15.0030
 0.6760	14.9710
 0.6770	14.9540
 0.6780	14.9540
 0.6790	14.9750
 0.6800	15.0210
 0.6810	15.0950
 0.6820	15.2140
 0.6830	15.3890
 0.6840	15.6170
 0.6850	15.9140
 0.6860	16.2840
 0.6870	16.7280
 0.6880	17.2600
 0.6890	17.8860
 0.6900	18.6090
 0.6910	19.4280
 0.6920	20.3410
 0.6930	21.3450
 0.6940	22.4390
 0.6950	23.6080
 0.6960	24.8510
 0.6970	26.1590
 0.6980	27.5230
 0.6990	28.9380
 0.7000	30.3820
 0.7010	31.8460
 0.7020	33.3280
 0.7030	34.8050
 0.7040	36.2770
 0.7050	37.7390
 0.7060	39.1770
 0.7070	40.5870
 0.7080	41.9690
 0.7090	43.3320
 0.7100	44.6650
 0.7110	45.9630
 0.7120	47.2290
 0.7130	48.4700
 0.7140	49.6720
 0.7150	50.8360
 0.7160	51.9630
 0.7170	53.0620
 0.7180	54.1250
 0.7190	55.1500
 0.7200	56.1420
 0.7210	57.1040
 0.7220	58.0280
 0.7230	58.9080
 0.7240	59.7440
 0.7250	60.5490
 0.7260	61.3110
 0.7270	62.0250
 0.7280	62.7110
 0.7290	63.3610
 0.7300	63.9720
 0.7310	64.5420
 0.7320	65.0810
 0.7330	65.5820
 0.7340	66.0450
 0.7350	66.4880
 0.7360	66.8950
 0.7370	67.2820
 0.7380	67.6580
 0.7390	67.9940
 0.7400	68.3130
 0.7410	68.6150
 0.7420	68.8910
 0.7430	69.1480
 0.7440	69.3900
 0.7450	69.6170
 0.7460	69.8190
 0.7470	70.0020
 0.7480	70.1750
 0.7490	70.3440
 0.7500	70.5030
 0.7510	70.6380
 0.7520	70.7570
 0.7530	70.8750
 0.7540	70.9820
 0.7550	71.0780
 0.7560	71.1680
 0.7570	71.2670
 0.7580	71.3450
 0.7590	71.4130
 0.7600	71.4780
 0.7610	71.5390
 0.7620	71.6030
 0.7630	71.6600
 0.7640	71.7010
 0.7650	71.7560
 0.7660	71.8080
 0.7670	71.8500
 0.7680	71.8850
 0.7690	71.9170
 0.7700	71.9490
 0.7710	71.9810
 0.7720	72.0150
 0.7730	72.0460
 0.7740	72.0790
 0.7750	72.1150
 0.7760	72.1400
 0.7770	72.1560
 0.7780	72.1760
 0.7790	72.2130
 0.7800	72.2440
 0.7810	72.2720
 0.7820	72.2990
 0.7830	72.3250
 0.7840	72.3460
 0.7850	72.3680
 0.7860	72.3980
 0.7870	72.4280
 0.7880	72.4500
 0.7890	72.4680
 0.7900	72.4940
 0.7910	72.5320
 0.7920	72.5710
 0.7930	72.6000
 0.7940	72.6190
 0.7950	72.6430
 0.7960	72.6770
 0.7970	72.7140
 0.7980	72.7450
 0.7990	72.7650
 0.8000	72.7890
 0.8010	72.8280
 0.8020	72.8590
 0.8030	72.8940
 0.8040	72.9270
 0.8050	72.9540
 0.8060	72.9950
 0.8070	73.0290
 0.8080	73.0570
 0.8090	73.0950
 0.8100	73.1180
 0.8110	73.1440
 0.8120	73.1810
 0.8130	73.2180
 0.8140	73.2570
 0.8150	73.2900
 0.8160	73.3130
 0.8170	73.3470
 0.8180	73.3820
 0.8190	73.4160
 0.8200	73.4490
 0.8210	73.4740
 0.8220	73.4990
 0.8230	73.5250
 0.8240	73.5520
 0.8250	73.5810
 0.8260	73.6010
 0.8270	73.6080
 0.8280	73.6140
 0.8290	73.6350
 0.8300	73.6540
 0.8310	73.6550
 0.8320	73.6510
 0.8330	73.6630
 0.8340	73.6840
 0.8350	73.6950
 0.8360	73.7200
 0.8370	73.7350
 0.8380	73.7400
 0.8390	73.7560
 0.8400	73.7810
 0.8410	73.8060
 0.8420	73.8250
 0.8430	73.8340
 0.8440	73.8460
 0.8450	73.8580
 0.8460	73.8690
 0.8470	73.8860
 0.8480	73.9140
 0.8490	73.9350
 0.8500	73.9320
 0.8510	73.9380
 0.8520	73.9540
 0.8530	73.9700
 0.8540	73.9700
 0.8550	73.9690
 0.8560	73.9670
 0.8570	73.9680
 0.8580	73.9770
 0.8590	73.9900
 0.8600	73.9890
 0.8610	73.9770
 0.8620	73.9740
 0.8630	73.9800
 0.8640	73.9860
 0.8650	73.9850
 0.8660	73.9720
 0.8670	73.9550
 0.8680	73.9390
 0.8690	73.9250
 0.8700	73.9150
 0.8710	73.9040
 0.8720	73.8880
 0.8730	73.8690
 0.8740	73.8510
 0.8750	73.8430
 0.8760	73.8360
 0.8770	73.8090
 0.8780	73.7780
 0.8790	73.7500
 0.8800	73.7250
 0.8810	73.6960
 0.8820	73.6700
 0.8830	73.6400
 0.8840	73.6040
 0.8850	73.5800
 0.8860	73.5460
 0.8870	73.5030
 0.8880	73.4620
 0.8890	73.4270
 0.8900	73.3940
 0.8910	73.3580
 0.8920	73.3170
 0.8930	73.2890
 0.8940	73.2560
 0.8950	73.2130
 0.8960	73.1660
 0.8970	73.1320
 0.8980	73.0930
 0.8990	73.0480
 0.9000	73.0110
 0.9010	72.9680
 0.9020	72.9170
 0.9030	72.8660
 0.9040	72.8330
 0.9050	72.7920
 0.9060	72.7460
 0.9070	72.7010
 0.9080	72.6560
 0.9090	72.6090
 0.9100	72.5660
 0.9110	72.5260
 0.9120	72.4670
 0.9130	72.4100
 0.9140	72.3640
 0.9150	72.3290
 0.9160	72.2750
 0.9170	72.2290
 0.9180	72.1870
 0.9190	72.1360
 0.9200	72.0800
 0.9210	72.0180
 0.9220	71.9520
 0.9230	71.8860
 0.9240	71.8340
 0.9250	71.7680
 0.9260	71.6900
 0.9270	71.6210
 0.9280	71.5510
 0.9290	71.4840
 0.9300	71.4150
 0.9310	71.3340
 0.9320	71.2590
 0.9330	71.1710
 0.9340	71.0720
 0.9350	70.9930
 0.9360	70.9080
 0.9370	70.8150
 0.9380	70.7160
 0.9390	70.6090
 0.9400	70.5120
 0.9410	70.4040
 0.9420	70.2790
 0.9430	70.1620
 0.9440	70.0470
 0.9450	69.9190
 0.9460	69.7680
 0.9470	69.6050
 0.9480	69.4410
 0.9490	69.2700
 0.9500	69.0800
 0.9510	68.8830
 0.9520	68.6590
 0.9530	68.4290
 0.9540	68.2080
 0.9550	67.9720
 0.9560	67.7580
 0.9570	67.5670
 0.9580	67.3900
 0.9590	67.2150
 0.9600	67.0540
 0.9610	66.9120
 0.9620	66.7850
 0.9630	66.6500
 0.9640	66.5500
 0.9650	66.4680
 0.9660	66.3760
 0.9670	66.3080
 0.9680	66.2290
 0.9690	66.1590
 0.9700	66.1290
 0.9710	66.0830
 0.9720	66.0410
 0.9730	66.0060
 0.9740	65.9780
 0.9750	65.9680
 0.9760	65.9540
 0.9770	65.9260
 0.9780	65.8890
 0.9790	65.8830
 0.9800	65.8940
 0.9810	65.9060
 0.9820	65.9170
 0.9830	65.9710
 0.9840	66.0110
 0.9850	66.0300
 0.9860	66.0550
 0.9870	66.1070
 0.9880	66.1530
 0.9890	66.1910
 0.9900	66.2410
 0.9910	66.3190
 0.9920	66.3840
 0.9930	66.4410
 0.9940	66.5090
 0.9950	66.5680
 0.9960	66.6410
 0.9970	66.7210
 0.9980	66.7930
 0.9990	66.8710
 1.0000	66.9980
 1.0010	67.1110
 1.0020	67.2540
 1.0030	67.3440
 1.0040	67.4370
 1.0050	67.5210
 1.0060	67.6110
 1.0070	67.7090
 1.0080	67.8000
 1.0090	67.8880
 1.0100	67.9790
 1.0110	68.0640
 1.0120	68.1590
 1.0130	68.2640
 1.0140	68.3640
 1.0150	68.4680
 1.0160	68.5680
 1.0170	68.6590
 1.0180	68.7530
 1.0190	68.8530
 1.0200	68.9520
 1.0210	69.0460
 1.0220	69.1410
 1.0230	69.2330
 1.0240	69.3210
 1.0250	69.4080
 1.0260	69.4960
 1.0270	69.5840
 1.0280	69.6680
 1.0290	69.7520
 1.0300	69.8370
 1.0310	69.9200
 1.0320	70.0020
 1.0330	70.0820
 1.0340	70.1550
 1.0350	70.2240
 1.0360	70.2870
 1.0370	70.3520
 1.0380	70.4240
 1.0390	70.5080
 1.0400	70.5780
 1.0410	70.6520
 1.0420	70.7160
 1.0430	70.7660
 1.0440	70.8240
 1.0450	70.8840
 1.0460	70.9400
 1.0470	70.9990
 1.0480	71.0520
 1.0490	71.1000
 1.0500	71.1480
 1.0510	71.1960
 1.0520	71.2390
 1.0530	71.2880
 1.0540	71.3410
 1.0550	71.3860
 1.0560	71.4330
 1.0570	71.4730
 1.0580	71.5050
 1.0590	71.5370
 1.0600	71.5670
 1.0610	71.5940
 1.0620	71.6160
 1.0630	71.6410
 1.0640	71.6710
 1.0650	71.6920
 1.0660	71.7130
 1.0670	71.7280
 1.0680	71.7380
 1.0690	71.7370
 1.0700	71.7450
 1.0710	71.7550
 1.0720	71.7640
 1.0730	71.7790
 1.0740	71.7830
 1.0750	71.7810
 1.0760	71.7770
 1.0770	71.7630
 1.0780	71.7540
 1.0790	71.7450
 1.0800	71.7330
 1.0810	71.7260
 1.0820	71.7120
 1.0830	71.6900
 1.0840	71.6710
 1.0850	71.6540
 1.0860	71.6290
 1.0870	71.6000
 1.0880	71.5690
 1.0890	71.5330
 1.0900	71.4850
 1.0910	71.4460
 1.0920	71.4110
 1.0930	71.3690
 1.0940	71.3240
 1.0950	71.2780
 1.0960	71.2270
 1.0970	71.1760
 1.0980	71.1220
 1.0990	71.0700
 1.1000	71.0200
 1.1010	70.9640
 1.1020	70.9060
 1.1030	70.8450
 1.1040	70.7840
 1.1050	70.7190
 1.1060	70.6580
 1.1070	70.6060
 1.1080	70.5420
 1.1090	70.4750
 1.1100	70.4050
 1.1110	70.3290
 1.1120	70.2530
 1.1130	70.1780
 1.1140	70.0960
 1.1150	70.0110
 1.1160	69.9210
 1.1170	69.8320
 1.1180	69.7300
 1.1190	69.6250
 1.1200	69.5110
 1.1210	69.3820
 1.1220	69.2410
 1.1230	69.0880
 1.1240	68.9260
 1.1250	68.7470
 1.1260	68.5580
 1.1270	68.3450
 1.1280	68.1180
 1.1290	67.8670
 1.1300	67.5980
 1.1310	67.3050
 1.1320	66.9900
 1.1330	66.6560
 1.1340	66.2980
 1.1350	65.9260
 1.1360	65.5370
 1.1370	65.1290
 1.1380	64.7090
 1.1390	64.2780
 1.1400	63.8310
 1.1410	63.3830
 1.1420	62.9400
 1.1430	62.4930
 1.1440	62.0550
 1.1450	61.6200
 1.1460	61.1970
 1.1470	60.7740
 1.1480	60.3750
 1.1490	59.9850
 1.1500	59.6240
 1.1510	59.2800
 1.1520	58.9580
 1.1530	58.6610
 1.1540	58.3790
 1.1550	58.1140
 1.1560	57.8700
 1.1570	57.6470
 1.1580	57.4450
 1.1590	57.2620
 1.1600	57.0950
 1.1610	56.9440
 1.1620	56.8060
 1.1630	56.6790
 1.1640	56.5660
 1.1650	56.4590
 1.1660	56.3630
 1.1670	56.2720
 1.1680	56.1910
 1.1690	56.1110
 1.1700	56.0380
 1.1710	55.9660
 1.1720	55.8970
 1.1730	55.8270
 1.1740	55.7570
 1.1750	55.6920
 1.1760	55.6210
 1.1770	55.5490
 1.1780	55.4790
 1.1790	55.4070
 1.1800	55.3340
 1.1810	55.2650
 1.1820	55.1910
 1.1830	55.1130
 1.1840	55.0400
 1.1850	54.9680
 1.1860	54.8920
 1.1870	54.8200
 1.1880	54.7510
 1.1890	54.6800
 1.1900	54.6140
 1.1910	54.5520
 1.1920	54.4930
 1.1930	54.4340
 1.1940	54.3840
 1.1950	54.3390
 1.1960	54.2980
 1.1970	54.2650
 1.1980	54.2340
 1.1990	54.2070
 1.2000	54.1890
 1.2010	54.1780
 1.2020	54.1730
 1.2030	54.1760
 1.2040	54.1860
 1.2050	54.2020
 1.2060	54.2260
 1.2070	54.2610
 1.2080	54.3030
 1.2090	54.3520
 1.2100	54.4080
 1.2110	54.4700
 1.2120	54.5360
 1.2130	54.6110
 1.2140	54.6960
 1.2150	54.7860
 1.2160	54.8830
 1.2170	54.9850
 1.2180	55.0890
 1.2190	55.1960
 1.2200	55.3050
 1.2210	55.4200
 1.2220	55.5400
 1.2230	55.6570
 1.2240	55.7740
 1.2250	55.8900
 1.2260	56.0020
 1.2270	56.1120
 1.2280	56.2210
 1.2290	56.3290
 1.2300	56.4330
 1.2310	56.5350
 1.2320	56.6330
 1.2330	56.7220
 1.2340	56.8110
 1.2350	56.8940
 1.2360	56.9790
 1.2370	57.0630
 1.2380	57.1480
 1.2390	57.2250
 1.2400	57.2980
 1.2410	57.3680
 1.2420	57.4350
 1.2430	57.5050
 1.2440	57.5720
 1.2450	57.6330
 1.2460	57.6920
 1.2470	57.7490
 1.2480	57.8040
 1.2490	57.8610
 1.2500	57.9160
 1.2510	57.9690
 1.2520	58.0200
 1.2530	58.0690
 1.2540	58.1140
 1.2550	58.1530
 1.2560	58.1910
 1.2570	58.2270
 1.2580	58.2580
 1.2590	58.2890
 1.2600	58.3190
 1.2610	58.3470
 1.2620	58.3740
 1.2630	58.3990
 1.2640	58.4170
 1.2650	58.4310
 1.2660	58.4410
 1.2670	58.4510
 1.2680	58.4590
 1.2690	58.4650
 1.2700	58.4660
 1.2710	58.4610
 1.2720	58.4530
 1.2730	58.4450
 1.2740	58.4350
 1.2750	58.4220
 1.2760	58.4050
 1.2770	58.3850
 1.2780	58.3600
 1.2790	58.3310
 1.2800	58.3000
 1.2810	58.2650
 1.2820	58.2270
 1.2830	58.1880
 1.2840	58.1440
 1.2850	58.0950
 1.2860	58.0460
 1.2870	57.9920
 1.2880	57.9340
 1.2890	57.8700
 1.2900	57.8010
 1.2910	57.7240
 1.2920	57.6430
 1.2930	57.5560
 1.2940	57.4670
 1.2950	57.3760
 1.2960	57.2750
 1.2970	57.1700
 1.2980	57.0610
 1.2990	56.9460
 1.3000	56.8250
 1.3010	56.7010
 1.3020	56.5700
 1.3030	56.4340
 1.3040	56.2900
 1.3050	56.1380
 1.3060	55.9810
 1.3070	55.8160
 1.3080	55.6460
 1.3090	55.4720
 1.3100	55.2930
 1.3110	55.1030
 1.3120	54.9080
 1.3130	54.7130
 1.3140	54.5090
 1.3150	54.3000
 1.3160	54.0830
 1.3170	53.8630
 1.3180	53.6310
 1.3190	53.3920
 1.3200	53.1500
 1.3210	52.9050
 1.3220	52.6520
 1.3230	52.3950
 1.3240	52.1320
 1.3250	51.8640
 1.3260	51.5930
 1.3270	51.3180
 1.3280	51.0420
 1.3290	50.7630
 1.3300	50.4870
 1.3310	50.2100
 1.3320	49.9290
 1.3330	49.6530
 1.3340	49.3740
 1.3350	49.0930
 1.3360	48.8170
 1.3370	48.5390
 1.3380	48.2630
 1.3390	47.9920
 1.3400	47.7180
 1.3410	47.4510
 1.3420	47.1900
 1.3430	46.9330
 1.3440	46.6840
 1.3450	46.4400
 1.3460	46.2000
 1.3470	45.9660
 1.3480	45.7380
 1.3490	45.5150
 1.3500	45.2980
 1.3510	45.0840
 1.3520	44.8740
 1.3530	44.6660
 1.3540	44.4590
 1.3550	44.2540
 1.3560	44.0480
 1.3570	43.8410
 1.3580	43.6330
 1.3590	43.4210
 1.3600	43.2020
 1.3610	42.9800
 1.3620	42.7500
 1.3630	42.5130
 1.3640	42.2670
 1.3650	42.0120
 1.3660	41.7470
 1.3670	41.4700
 1.3680	41.1790
 1.3690	40.8740
 1.3700	40.5520
 1.3710	40.2130
 1.3720	39.8590
 1.3730	39.4850
 1.3740	39.0940
 1.3750	38.6800
 1.3760	38.2420
 1.3770	37.7820
 1.3780	37.2940
 1.3790	36.7820
 1.3800	36.2460
 1.3810	35.6770
 1.3820	35.0920
 1.3830	34.4840
 1.3840	33.8590
 1.3850	33.2130
 1.3860	32.5590
 1.3870	31.8820
 1.3880	31.2090
 1.3890	30.5290
 1.3900	29.8450
 1.3910	29.1720
 1.3920	28.5010
 1.3930	27.8320
 1.3940	27.1740
 1.3950	26.5160
 1.3960	25.8730
 1.3970	25.2480
 1.3980	24.6410
 1.3990	24.0590
 1.4000	23.4950
 1.4010	22.9480
 1.4020	22.4240
 1.4030	21.9180
 1.4040	21.4360
 1.4050	20.9780
 1.4060	20.5420
 1.4070	20.1340
 1.4080	19.7460
 1.4090	19.3780
 1.4100	19.0360
 1.4110	18.7120
 1.4120	18.4080
 1.4130	18.1250
 1.4140	17.8580
 1.4150	17.6120
 1.4160	17.3830
 1.4170	17.1690
 1.4180	16.9700
 1.4190	16.7830
 1.4200	16.6090
 1.4210	16.4470
 1.4220	16.2960
 1.4230	16.1570
 1.4240	16.0290
 1.4250	15.9080
 1.4260	15.7980
 1.4270	15.6950
 1.4280	15.6000
 1.4290	15.5130
 1.4300	15.4340
 1.4310	15.3620
 1.4320	15.2990
 1.4330	15.2400
 1.4340	15.1870
 1.4350	15.1380
 1.4360	15.0940
 1.4370	15.0550
 1.4380	15.0200
 1.4390	14.9920
 1.4400	14.9670
 1.4410	14.9470
 1.4420	14.9300
 1.4430	14.9160
 1.4440	14.9040
 1.4450	14.8940
 1.4460	14.8890
 1.4470	14.8860
 1.4480	14.8850
 1.4490	14.8870
 1.4500	14.8920
 1.4510	14.8970
 1.4520	14.9060
 1.4530	14.9160
 1.4540	14.9260
 1.4550	14.9400
 1.4560	14.9560
 1.4570	14.9760
 1.4580	15.0000
 1.4590	15.0260
 1.4600	15.0550
 1.4610	15.0870
 1.4620	15.1250
 1.4630	15.1660
 1.4640	15.2120
 1.4650	15.2620
 1.4660	15.3140
 1.4670	15.3720
 1.4680	15.4360
