Name: Umbellularia californica 3
Type: vegetation
Class: Shrub
Genus: Umbellularia
Species: californica
Sample No.: VH029
Owner: UCSB
Wavelength Range: TIR
Origin: 34.5075; -119.763; WGS84
Collection Date: 4/1/2013
Description: Samples were collected as part of the HyspIRI Airborne Campaign. 48 individual plants were sampled in three times in 2013 - spring  summer  and fall. The name of the sample includes a 1  2  or 3 which references a different individual of the species. Samples were taken to JPL and processed within 48 hours of collection. The same leaves were processed in the Nicolet and then measured using the ASD.
Measurement: Hemispherical reflectance
First Column: X
Second Column: Y
X Units: Wavelength (micrometers)
Y Units: Reflectance (percentage)
First X Value: 2.501
Last X Value: 15.387
Number of X Values: 1737
Additional Information: vegetation.shrub.umbellularia.californica.tir.vh029.ucsb.nicolet.ancillary.txt

 2.5010	 6.7180
 2.5030	 6.7120
 2.5040	 6.6820
 2.5050	 6.5860
 2.5060	 6.5850
 2.5070	 6.5780
 2.5090	 6.5250
 2.5100	 6.5000
 2.5110	 6.6500
 2.5120	 6.6480
 2.5140	 6.6160
 2.5150	 6.6160
 2.5160	 6.5960
 2.5170	 6.6240
 2.5180	 6.6470
 2.5200	 6.5690
 2.5210	 6.6010
 2.5220	 6.6230
 2.5230	 6.6500
 2.5250	 6.6660
 2.5260	 6.6150
 2.5270	 6.5060
 2.5280	 6.5990
 2.5290	 6.6330
 2.5310	 6.5130
 2.5320	 6.5530
 2.5330	 6.6510
 2.5340	 6.5860
 2.5360	 6.6420
 2.5370	 6.6790
 2.5380	 6.5190
 2.5390	 6.4940
 2.5410	 6.6000
 2.5420	 6.6130
 2.5430	 6.6610
 2.5440	 6.6110
 2.5460	 6.6050
 2.5470	 6.6160
 2.5480	 6.6210
 2.5490	 6.5340
 2.5510	 6.5980
 2.5520	 6.5700
 2.5530	 6.5170
 2.5540	 6.6020
 2.5560	 6.7070
 2.5570	 6.7340
 2.5580	 6.6520
 2.5590	 6.5790
 2.5610	 6.6430
 2.5620	 6.7670
 2.5630	 6.8720
 2.5640	 6.8000
 2.5660	 6.7290
 2.5670	 6.7730
 2.5680	 6.7980
 2.5700	 6.8030
 2.5710	 6.7490
 2.5720	 6.7260
 2.5730	 6.7810
 2.5750	 6.7050
 2.5760	 6.6540
 2.5770	 6.6620
 2.5790	 6.8020
 2.5800	 6.8050
 2.5810	 6.7780
 2.5820	 6.7420
 2.5840	 6.7950
 2.5850	 6.7600
 2.5860	 6.6310
 2.5880	 6.6570
 2.5890	 6.7830
 2.5900	 6.7500
 2.5910	 6.6550
 2.5930	 6.5810
 2.5940	 6.6910
 2.5950	 6.6770
 2.5970	 6.6750
 2.5980	 6.6160
 2.5990	 6.5500
 2.6000	 6.4800
 2.6020	 6.4830
 2.6030	 6.5680
 2.6040	 6.7450
 2.6060	 6.6790
 2.6070	 6.5090
 2.6080	 6.3680
 2.6100	 6.2740
 2.6110	 6.2070
 2.6120	 6.2990
 2.6140	 6.3350
 2.6150	 6.4220
 2.6160	 6.3840
 2.6180	 6.3330
 2.6190	 6.2260
 2.6200	 6.1220
 2.6220	 6.0600
 2.6230	 6.1330
 2.6240	 6.1270
 2.6260	 6.1520
 2.6270	 6.1680
 2.6280	 6.0880
 2.6300	 6.0380
 2.6310	 5.9520
 2.6320	 5.8270
 2.6340	 5.8720
 2.6350	 5.8850
 2.6360	 5.9050
 2.6380	 5.7490
 2.6390	 5.6030
 2.6400	 5.6610
 2.6420	 5.7250
 2.6430	 5.7010
 2.6440	 5.6390
 2.6460	 5.5760
 2.6470	 5.6030
 2.6480	 5.5440
 2.6500	 5.5160
 2.6510	 5.5480
 2.6520	 5.5600
 2.6540	 5.4490
 2.6550	 5.3520
 2.6560	 5.3930
 2.6580	 5.4750
 2.6590	 5.3660
 2.6610	 5.2200
 2.6620	 5.2210
 2.6630	 5.2610
 2.6650	 5.2310
 2.6660	 5.2760
 2.6670	 5.2540
 2.6690	 5.1570
 2.6700	 5.0700
 2.6720	 5.0040
 2.6730	 4.9950
 2.6740	 5.0500
 2.6760	 5.0120
 2.6770	 5.0140
 2.6780	 4.9300
 2.6800	 4.8580
 2.6810	 4.7070
 2.6830	 4.6560
 2.6840	 4.6990
 2.6850	 4.6110
 2.6870	 4.5520
 2.6880	 4.7320
 2.6900	 4.7210
 2.6910	 4.6680
 2.6920	 4.5630
 2.6940	 4.5950
 2.6950	 4.6380
 2.6970	 4.5070
 2.6980	 4.4190
 2.6990	 4.5040
 2.7010	 4.4730
 2.7020	 4.4300
 2.7040	 4.3180
 2.7050	 4.3860
 2.7060	 4.3880
 2.7080	 4.3160
 2.7090	 4.2120
 2.7110	 4.2390
 2.7120	 4.2040
 2.7130	 4.2230
 2.7150	 4.2050
 2.7160	 4.1600
 2.7180	 4.1270
 2.7190	 4.1660
 2.7210	 4.2120
 2.7220	 4.2290
 2.7230	 4.0850
 2.7250	 4.0080
 2.7260	 4.0290
 2.7280	 4.0740
 2.7290	 4.0810
 2.7310	 4.0370
 2.7320	 3.9270
 2.7330	 3.9330
 2.7350	 4.0060
 2.7360	 4.0890
 2.7380	 4.0840
 2.7390	 4.1290
 2.7410	 4.1880
 2.7420	 4.1890
 2.7440	 4.1710
 2.7450	 4.1520
 2.7470	 3.9510
 2.7480	 3.8330
 2.7490	 3.7880
 2.7510	 3.9460
 2.7520	 4.1400
 2.7540	 4.1120
 2.7550	 4.0480
 2.7570	 4.1500
 2.7580	 4.1640
 2.7600	 4.0420
 2.7610	 3.9260
 2.7630	 4.0140
 2.7640	 4.0130
 2.7660	 3.9330
 2.7670	 3.9310
 2.7680	 4.0660
 2.7700	 4.0770
 2.7710	 4.0530
 2.7730	 3.9690
 2.7740	 3.9160
 2.7760	 3.9670
 2.7770	 3.9760
 2.7790	 3.9260
 2.7800	 3.9360
 2.7820	 3.8350
 2.7830	 3.8740
 2.7850	 4.0020
 2.7860	 3.9640
 2.7880	 3.8650
 2.7890	 3.9510
 2.7910	 3.9160
 2.7920	 3.9090
 2.7940	 3.8860
 2.7950	 3.9990
 2.7970	 3.9100
 2.7980	 3.9430
 2.8000	 4.0100
 2.8010	 3.9020
 2.8030	 3.8350
 2.8040	 3.9040
 2.8060	 3.8750
 2.8070	 3.9140
 2.8090	 3.9990
 2.8110	 4.0710
 2.8120	 3.9860
 2.8140	 3.9600
 2.8150	 3.8860
 2.8170	 3.8130
 2.8180	 3.8020
 2.8200	 3.9060
 2.8210	 3.9190
 2.8230	 3.8500
 2.8240	 3.7810
 2.8260	 3.8320
 2.8270	 3.8410
 2.8290	 3.9270
 2.8300	 3.8700
 2.8320	 3.8250
 2.8340	 3.8430
 2.8350	 3.8990
 2.8370	 3.7770
 2.8380	 3.8780
 2.8400	 3.9030
 2.8410	 3.8680
 2.8430	 3.8370
 2.8440	 3.8870
 2.8460	 3.8960
 2.8480	 3.8880
 2.8490	 3.8000
 2.8510	 3.9120
 2.8520	 3.8560
 2.8540	 3.7930
 2.8550	 3.8160
 2.8570	 3.8900
 2.8590	 3.8060
 2.8600	 3.8210
 2.8620	 3.8520
 2.8630	 3.8150
 2.8650	 3.7770
 2.8660	 3.7820
 2.8680	 3.8720
 2.8700	 3.9490
 2.8710	 3.9270
 2.8730	 3.9690
 2.8740	 3.8730
 2.8760	 3.8510
 2.8780	 3.8420
 2.8790	 3.9380
 2.8810	 3.8330
 2.8820	 3.7640
 2.8840	 3.7430
 2.8860	 3.7870
 2.8870	 3.8510
 2.8890	 3.9250
 2.8900	 3.9060
 2.8920	 3.8190
 2.8940	 3.8070
 2.8950	 3.9380
 2.8970	 3.9350
 2.8980	 3.9000
 2.9000	 3.8470
 2.9020	 3.8770
 2.9030	 3.8710
 2.9050	 3.9470
 2.9070	 3.9390
 2.9080	 3.9330
 2.9100	 3.9670
 2.9120	 3.8810
 2.9130	 3.9140
 2.9150	 4.0400
 2.9160	 3.9160
 2.9180	 3.8650
 2.9200	 3.8630
 2.9210	 3.9490
 2.9230	 3.9560
 2.9250	 3.9150
 2.9260	 3.9060
 2.9280	 3.9220
 2.9300	 3.9150
 2.9310	 3.9960
 2.9330	 3.9550
 2.9350	 3.9210
 2.9360	 3.8460
 2.9380	 3.8670
 2.9400	 3.8250
 2.9410	 3.8850
 2.9430	 3.9720
 2.9450	 3.9460
 2.9460	 3.8550
 2.9480	 3.8070
 2.9500	 3.7810
 2.9510	 3.9330
 2.9530	 3.9450
 2.9550	 3.8500
 2.9560	 3.9510
 2.9580	 4.0030
 2.9600	 3.9000
 2.9610	 3.6560
 2.9630	 3.6110
 2.9650	 4.0930
 2.9660	 4.3180
 2.9680	 3.7180
 2.9700	 3.4570
 2.9720	 4.3830
 2.9730	 4.2940
 2.9750	 3.5980
 2.9770	 3.4750
 2.9780	 3.8440
 2.9800	 4.4140
 2.9820	 4.8110
 2.9840	 4.5800
 2.9850	 4.2130
 2.9870	 4.1130
 2.9890	 3.9830
 2.9900	 4.1900
 2.9920	 4.2830
 2.9940	 4.0760
 2.9960	 4.4540
 2.9970	 4.6590
 2.9990	 4.7760
 3.0010	 4.6730
 3.0030	 4.2460
 3.0040	 3.9270
 3.0060	 3.9750
 3.0080	 4.0190
 3.0100	 4.0750
 3.0110	 3.9730
 3.0130	 3.8770
 3.0150	 3.4020
 3.0170	 3.2260
 3.0180	 3.8650
 3.0200	 3.8990
 3.0220	 3.6200
 3.0240	 3.9090
 3.0250	 4.4280
 3.0270	 4.2380
 3.0290	 3.9980
 3.0310	 4.0830
 3.0320	 4.7010
 3.0340	 5.0490
 3.0360	 4.3110
 3.0380	 4.3080
 3.0400	 4.3490
 3.0410	 4.0870
 3.0430	 4.1340
 3.0450	 4.2820
 3.0470	 3.8410
 3.0480	 3.3410
 3.0500	 3.3080
 3.0520	 3.8230
 3.0540	 3.8820
 3.0560	 3.9170
 3.0570	 3.9590
 3.0590	 3.8350
 3.0610	 3.8650
 3.0630	 3.6200
 3.0650	 3.7290
 3.0660	 4.0320
 3.0680	 3.9160
 3.0700	 3.9430
 3.0720	 4.0990
 3.0740	 4.0620
 3.0760	 3.8840
 3.0770	 4.0060
 3.0790	 3.9580
 3.0810	 3.8820
 3.0830	 3.9400
 3.0850	 3.9910
 3.0870	 3.9700
 3.0880	 3.8650
 3.0900	 3.8070
 3.0920	 3.9480
 3.0940	 3.8940
 3.0960	 3.9330
 3.0980	 3.9010
 3.0990	 4.0040
 3.1010	 4.2860
 3.1030	 4.2870
 3.1050	 4.0510
 3.1070	 3.9080
 3.1090	 3.7360
 3.1110	 3.6980
 3.1120	 3.8180
 3.1140	 4.0320
 3.1160	 4.0810
 3.1180	 4.0560
 3.1200	 4.0000
 3.1220	 4.0480
 3.1240	 4.1100
 3.1260	 4.0850
 3.1270	 4.1560
 3.1290	 4.2600
 3.1310	 4.3080
 3.1330	 4.1420
 3.1350	 3.9400
 3.1370	 4.2340
 3.1390	 4.1850
 3.1410	 3.8290
 3.1430	 3.6030
 3.1450	 3.8090
 3.1460	 4.0950
 3.1480	 4.1710
 3.1500	 3.9480
 3.1520	 3.7500
 3.1540	 3.8320
 3.1560	 3.9990
 3.1580	 3.9840
 3.1600	 4.0150
 3.1620	 3.7520
 3.1640	 3.4000
 3.1660	 3.5750
 3.1680	 3.7510
 3.1700	 4.0750
 3.1710	 4.2270
 3.1730	 3.8380
 3.1750	 3.9340
 3.1770	 3.9970
 3.1790	 4.1700
 3.1810	 4.3390
 3.1830	 4.0720
 3.1850	 3.9250
 3.1870	 4.0150
 3.1890	 3.9470
 3.1910	 3.8580
 3.1930	 3.7020
 3.1950	 3.6500
 3.1970	 3.7590
 3.1990	 3.7760
 3.2010	 3.7710
 3.2030	 3.8240
 3.2050	 3.7920
 3.2070	 3.7670
 3.2090	 3.7740
 3.2110	 3.8160
 3.2130	 3.7770
 3.2150	 3.8690
 3.2170	 3.8280
 3.2190	 3.7630
 3.2210	 3.7760
 3.2230	 3.8390
 3.2250	 3.8070
 3.2270	 3.8150
 3.2290	 3.9290
 3.2310	 3.9080
 3.2330	 3.7520
 3.2350	 3.7380
 3.2370	 3.7570
 3.2390	 3.8500
 3.2410	 3.8480
 3.2430	 3.8700
 3.2450	 3.7870
 3.2470	 3.6960
 3.2490	 3.6950
 3.2510	 3.7840
 3.2530	 3.8100
 3.2550	 3.8300
 3.2570	 3.9220
 3.2590	 3.9260
 3.2610	 3.8390
 3.2630	 3.8420
 3.2650	 3.8050
 3.2670	 3.8270
 3.2690	 3.8390
 3.2720	 3.8720
 3.2740	 3.8060
 3.2760	 3.7370
 3.2780	 3.7220
 3.2800	 3.7290
 3.2820	 3.7870
 3.2840	 3.8670
 3.2860	 3.7860
 3.2880	 3.7340
 3.2900	 3.7200
 3.2920	 3.7680
 3.2940	 3.7600
 3.2960	 3.8140
 3.2990	 3.7860
 3.3010	 3.6620
 3.3030	 3.5870
 3.3050	 3.7130
 3.3070	 3.7650
 3.3090	 3.7490
 3.3110	 3.6790
 3.3130	 3.6430
 3.3150	 3.7120
 3.3180	 3.7610
 3.3200	 3.6780
 3.3220	 3.6650
 3.3240	 3.6740
 3.3260	 3.6840
 3.3280	 3.6600
 3.3300	 3.6730
 3.3330	 3.6200
 3.3350	 3.5710
 3.3370	 3.5780
 3.3390	 3.6270
 3.3410	 3.5330
 3.3430	 3.4540
 3.3450	 3.3890
 3.3480	 3.4020
 3.3500	 3.4560
 3.3520	 3.5710
 3.3540	 3.5010
 3.3560	 3.3920
 3.3580	 3.2870
 3.3610	 3.3360
 3.3630	 3.3760
 3.3650	 3.3670
 3.3670	 3.2600
 3.3690	 3.2520
 3.3720	 3.2840
 3.3740	 3.2690
 3.3760	 3.2430
 3.3780	 3.3180
 3.3800	 3.3430
 3.3830	 3.4720
 3.3850	 3.5120
 3.3870	 3.4990
 3.3890	 3.3770
 3.3910	 3.2890
 3.3940	 3.2580
 3.3960	 3.2670
 3.3980	 3.2100
 3.4000	 3.2270
 3.4020	 3.2810
 3.4050	 3.3250
 3.4070	 3.3910
 3.4090	 3.6050
 3.4110	 3.7860
 3.4140	 3.9810
 3.4160	 4.2630
 3.4180	 4.7450
 3.4200	 5.3540
 3.4230	 6.3040
 3.4250	 7.5580
 3.4270	 8.7950
 3.4290	 9.5600
 3.4320	 9.3780
 3.4340	 8.5000
 3.4360	 7.6730
 3.4390	 6.9810
 3.4410	 6.4940
 3.4430	 6.2240
 3.4450	 6.0900
 3.4480	 5.9200
 3.4500	 5.7700
 3.4520	 5.6260
 3.4550	 5.5030
 3.4570	 5.3720
 3.4590	 5.3200
 3.4620	 5.3140
 3.4640	 5.3220
 3.4660	 5.2140
 3.4680	 5.1110
 3.4710	 5.0170
 3.4730	 4.9570
 3.4750	 4.9230
 3.4780	 4.8430
 3.4800	 4.5970
 3.4820	 4.4550
 3.4850	 4.4240
 3.4870	 4.4550
 3.4890	 4.3720
 3.4920	 4.3170
 3.4940	 4.2390
 3.4970	 4.2880
 3.4990	 4.2870
 3.5010	 4.3550
 3.5040	 4.6350
 3.5060	 5.4070
 3.5080	 6.9360
 3.5110	 8.5280
 3.5130	 8.8410
 3.5160	 8.1540
 3.5180	 7.3020
 3.5200	 6.6930
 3.5230	 6.2480
 3.5250	 5.9560
 3.5270	 5.7370
 3.5300	 5.7030
 3.5320	 5.6290
 3.5350	 5.4540
 3.5370	 5.2800
 3.5400	 5.3290
 3.5420	 5.2490
 3.5440	 5.2150
 3.5470	 5.2420
 3.5490	 5.2220
 3.5520	 5.1580
 3.5540	 5.1050
 3.5570	 5.0450
 3.5590	 5.0380
 3.5610	 5.0460
 3.5640	 4.9960
 3.5660	 4.8720
 3.5690	 4.8460
 3.5710	 4.9130
 3.5740	 5.0170
 3.5760	 5.0300
 3.5790	 4.9670
 3.5810	 4.9150
 3.5840	 5.0290
 3.5860	 4.9760
 3.5890	 4.8070
 3.5910	 4.8050
 3.5930	 4.8240
 3.5960	 4.7650
 3.5980	 4.8460
 3.6010	 4.7920
 3.6030	 4.7050
 3.6060	 4.7600
 3.6080	 4.7900
 3.6110	 4.8270
 3.6140	 4.8370
 3.6160	 4.7220
 3.6190	 4.6940
 3.6210	 4.7230
 3.6240	 4.7420
 3.6260	 4.7390
 3.6290	 4.7050
 3.6310	 4.7080
 3.6340	 4.7220
 3.6360	 4.7230
 3.6390	 4.6860
 3.6410	 4.7140
 3.6440	 4.7310
 3.6470	 4.6870
 3.6490	 4.7020
 3.6520	 4.6910
 3.6540	 4.6870
 3.6570	 4.6860
 3.6590	 4.7290
 3.6620	 4.6930
 3.6650	 4.6770
 3.6670	 4.6610
 3.6700	 4.6270
 3.6720	 4.6250
 3.6750	 4.6510
 3.6780	 4.6270
 3.6800	 4.6170
 3.6830	 4.5840
 3.6850	 4.6230
 3.6880	 4.7200
 3.6910	 4.7330
 3.6930	 4.6770
 3.6960	 4.6620
 3.6990	 4.6000
 3.7010	 4.5890
 3.7040	 4.6280
 3.7060	 4.6390
 3.7090	 4.6390
 3.7120	 4.6220
 3.7140	 4.6050
 3.7170	 4.6630
 3.7200	 4.6370
 3.7220	 4.6650
 3.7250	 4.6630
 3.7280	 4.6460
 3.7300	 4.6240
 3.7330	 4.6730
 3.7360	 4.7110
 3.7390	 4.7020
 3.7410	 4.6030
 3.7440	 4.6140
 3.7470	 4.6550
 3.7490	 4.6370
 3.7520	 4.6090
 3.7550	 4.6660
 3.7580	 4.6410
 3.7600	 4.6080
 3.7630	 4.5780
 3.7660	 4.5600
 3.7680	 4.6270
 3.7710	 4.6810
 3.7740	 4.6790
 3.7770	 4.6500
 3.7790	 4.6440
 3.7820	 4.7130
 3.7850	 4.6660
 3.7880	 4.6390
 3.7900	 4.6720
 3.7930	 4.7080
 3.7960	 4.6920
 3.7990	 4.7060
 3.8020	 4.6760
 3.8040	 4.6840
 3.8070	 4.7130
 3.8100	 4.7170
 3.8130	 4.6510
 3.8160	 4.6840
 3.8180	 4.7560
 3.8210	 4.7710
 3.8240	 4.7770
 3.8270	 4.6830
 3.8300	 4.6860
 3.8330	 4.7160
 3.8350	 4.6320
 3.8380	 4.6010
 3.8410	 4.6300
 3.8440	 4.6720
 3.8470	 4.7060
 3.8500	 4.7730
 3.8520	 4.7470
 3.8550	 4.6470
 3.8580	 4.5610
 3.8610	 4.6220
 3.8640	 4.6830
 3.8670	 4.6970
 3.8700	 4.6920
 3.8730	 4.7680
 3.8750	 4.7600
 3.8780	 4.7290
 3.8810	 4.7180
 3.8840	 4.7440
 3.8870	 4.7600
 3.8900	 4.7260
 3.8930	 4.7020
 3.8960	 4.7580
 3.8990	 4.7380
 3.9020	 4.7010
 3.9050	 4.7330
 3.9080	 4.7800
 3.9110	 4.7500
 3.9140	 4.7310
 3.9160	 4.7040
 3.9190	 4.7280
 3.9220	 4.7660
 3.9250	 4.7990
 3.9280	 4.7550
 3.9310	 4.7150
 3.9340	 4.7050
 3.9370	 4.7360
 3.9400	 4.7440
 3.9430	 4.7070
 3.9460	 4.6670
 3.9490	 4.6640
 3.9520	 4.6760
 3.9550	 4.7020
 3.9580	 4.7250
 3.9610	 4.7880
 3.9640	 4.7980
 3.9670	 4.8000
 3.9700	 4.7920
 3.9730	 4.7780
 3.9770	 4.7530
 3.9800	 4.7560
 3.9830	 4.7820
 3.9860	 4.7450
 3.9890	 4.7520
 3.9920	 4.7770
 3.9950	 4.7150
 3.9980	 4.7060
 4.0010	 4.7790
 4.0040	 4.7890
 4.0070	 4.7270
 4.0100	 4.7140
 4.0130	 4.7300
 4.0170	 4.7620
 4.0200	 4.7620
 4.0230	 4.7710
 4.0260	 4.7600
 4.0290	 4.7540
 4.0320	 4.7040
 4.0350	 4.6840
 4.0380	 4.6800
 4.0420	 4.6720
 4.0450	 4.6860
 4.0480	 4.7020
 4.0510	 4.7390
 4.0540	 4.7780
 4.0570	 4.6900
 4.0610	 4.6550
 4.0640	 4.6810
 4.0670	 4.6690
 4.0700	 4.6980
 4.0730	 4.7290
 4.0770	 4.7330
 4.0800	 4.7310
 4.0830	 4.7510
 4.0860	 4.6980
 4.0890	 4.6410
 4.0930	 4.6370
 4.0960	 4.6510
 4.0990	 4.6400
 4.1020	 4.6750
 4.1060	 4.7040
 4.1090	 4.6470
 4.1120	 4.6430
 4.1150	 4.6570
 4.1190	 4.7020
 4.1220	 4.6940
 4.1250	 4.7000
 4.1280	 4.7040
 4.1320	 4.7270
 4.1350	 4.7410
 4.1380	 4.6660
 4.1420	 4.6220
 4.1450	 4.6270
 4.1480	 4.6430
 4.1520	 4.6460
 4.1550	 4.6160
 4.1580	 4.6700
 4.1620	 4.7430
 4.1650	 4.6950
 4.1680	 4.5910
 4.1720	 4.5940
 4.1750	 4.6440
 4.1780	 4.6710
 4.1820	 4.7260
 4.1850	 4.7740
 4.1890	 4.7050
 4.1920	 4.6460
 4.1950	 4.6310
 4.1990	 4.6380
 4.2020	 4.6740
 4.2060	 4.6770
 4.2090	 4.7030
 4.2120	 4.7770
 4.2160	 4.7050
 4.2190	 4.7310
 4.2230	 4.8630
 4.2260	 4.9200
 4.2300	 5.0670
 4.2330	 4.9690
 4.2360	 4.8360
 4.2400	 4.8030
 4.2430	 4.7940
 4.2470	 4.6790
 4.2500	 4.5840
 4.2540	 4.6520
 4.2570	 4.6490
 4.2610	 4.6570
 4.2640	 4.7360
 4.2680	 4.8120
 4.2710	 4.4250
 4.2750	 4.1880
 4.2780	 4.4950
 4.2820	 4.6540
 4.2850	 4.7460
 4.2890	 4.7830
 4.2930	 4.9230
 4.2960	 4.9910
 4.3000	 4.7890
 4.3030	 4.5880
 4.3070	 4.5530
 4.3100	 4.6420
 4.3140	 4.6870
 4.3180	 4.6800
 4.3210	 4.7130
 4.3250	 4.6340
 4.3280	 4.5790
 4.3320	 4.5600
 4.3360	 4.5450
 4.3390	 4.5200
 4.3430	 4.4900
 4.3470	 4.4450
 4.3500	 4.4580
 4.3540	 4.5030
 4.3570	 4.5200
 4.3610	 4.5210
 4.3650	 4.4970
 4.3680	 4.4780
 4.3720	 4.5150
 4.3760	 4.4750
 4.3800	 4.4480
 4.3830	 4.4480
 4.3870	 4.4390
 4.3910	 4.4000
 4.3940	 4.4360
 4.3980	 4.4690
 4.4020	 4.4800
 4.4060	 4.4010
 4.4090	 4.3690
 4.4130	 4.3980
 4.4170	 4.4970
 4.4210	 4.5230
 4.4240	 4.4470
 4.4280	 4.3850
 4.4320	 4.4310
 4.4360	 4.4730
 4.4400	 4.4740
 4.4430	 4.4250
 4.4470	 4.3890
 4.4510	 4.3500
 4.4550	 4.3270
 4.4590	 4.3070
 4.4620	 4.3030
 4.4660	 4.3280
 4.4700	 4.3720
 4.4740	 4.3540
 4.4780	 4.3770
 4.4820	 4.4390
 4.4860	 4.4160
 4.4900	 4.3360
 4.4930	 4.2810
 4.4970	 4.3100
 4.5010	 4.3500
 4.5050	 4.3500
 4.5090	 4.3680
 4.5130	 4.3680
 4.5170	 4.3450
 4.5210	 4.2630
 4.5250	 4.2520
 4.5290	 4.2930
 4.5330	 4.3320
 4.5370	 4.2960
 4.5410	 4.2580
 4.5450	 4.2910
 4.5490	 4.3340
 4.5530	 4.3040
 4.5570	 4.2760
 4.5610	 4.2900
 4.5650	 4.2610
 4.5690	 4.2350
 4.5730	 4.2960
 4.5770	 4.3260
 4.5810	 4.3220
 4.5850	 4.2600
 4.5890	 4.2470
 4.5930	 4.2540
 4.5970	 4.3070
 4.6010	 4.2950
 4.6050	 4.2090
 4.6090	 4.2280
 4.6130	 4.2490
 4.6170	 4.2500
 4.6220	 4.2270
 4.6260	 4.2010
 4.6300	 4.2710
 4.6340	 4.2850
 4.6380	 4.2350
 4.6420	 4.2290
 4.6460	 4.2620
 4.6510	 4.2440
 4.6550	 4.3180
 4.6590	 4.3800
 4.6630	 4.3320
 4.6670	 4.2790
 4.6720	 4.3080
 4.6760	 4.2810
 4.6800	 4.2350
 4.6840	 4.2150
 4.6880	 4.2100
 4.6930	 4.1800
 4.6970	 4.2160
 4.7010	 4.2130
 4.7050	 4.1960
 4.7100	 4.1410
 4.7140	 4.1410
 4.7180	 4.1650
 4.7230	 4.2540
 4.7270	 4.2530
 4.7310	 4.2310
 4.7360	 4.1820
 4.7400	 4.1450
 4.7440	 4.1730
 4.7490	 4.1910
 4.7530	 4.2050
 4.7570	 4.2250
 4.7620	 4.2420
 4.7660	 4.2600
 4.7700	 4.2260
 4.7750	 4.2050
 4.7790	 4.1690
 4.7840	 4.1320
 4.7880	 4.1380
 4.7920	 4.1880
 4.7970	 4.2200
 4.8010	 4.2230
 4.8060	 4.2210
 4.8100	 4.2200
 4.8150	 4.1960
 4.8190	 4.2260
 4.8240	 4.2040
 4.8280	 4.2160
 4.8330	 4.2520
 4.8370	 4.3070
 4.8420	 4.2530
 4.8460	 4.2330
 4.8510	 4.2000
 4.8550	 4.2340
 4.8600	 4.2270
 4.8640	 4.1790
 4.8690	 4.1660
 4.8730	 4.2440
 4.8780	 4.2490
 4.8830	 4.2520
 4.8870	 4.2440
 4.8920	 4.2490
 4.8960	 4.1610
 4.9010	 4.1810
 4.9060	 4.2600
 4.9100	 4.2750
 4.9150	 4.2040
 4.9200	 4.1920
 4.9240	 4.2520
 4.9290	 4.3080
 4.9340	 4.2400
 4.9380	 4.1960
 4.9430	 4.1930
 4.9480	 4.2600
 4.9530	 4.2200
 4.9570	 4.2040
 4.9620	 4.1900
 4.9670	 4.2580
 4.9720	 4.3150
 4.9760	 4.2730
 4.9810	 4.1600
 4.9860	 4.1800
 4.9910	 4.2060
 4.9960	 4.2430
 5.0000	 4.2950
 5.0050	 4.3380
 5.0100	 4.2910
 5.0150	 4.2610
 5.0200	 4.2230
 5.0250	 4.1890
 5.0290	 4.1850
 5.0340	 4.2650
 5.0390	 4.2840
 5.0440	 4.2610
 5.0490	 4.2470
 5.0540	 4.2980
 5.0590	 4.3170
 5.0640	 4.2710
 5.0690	 4.2090
 5.0740	 4.2720
 5.0790	 4.2650
 5.0840	 4.2640
 5.0890	 4.2290
 5.0940	 4.2400
 5.0990	 4.2640
 5.1040	 4.2940
 5.1090	 4.2920
 5.1140	 4.2940
 5.1190	 4.2380
 5.1240	 4.2390
 5.1290	 4.2050
 5.1340	 4.2430
 5.1390	 4.2740
 5.1440	 4.3200
 5.1490	 4.2910
 5.1540	 4.3060
 5.1600	 4.2710
 5.1650	 4.2870
 5.1700	 4.3150
 5.1750	 4.3270
 5.1800	 4.2970
 5.1850	 4.3000
 5.1910	 4.3040
 5.1960	 4.3030
 5.2010	 4.2840
 5.2060	 4.2940
 5.2110	 4.2910
 5.2170	 4.2990
 5.2220	 4.2770
 5.2270	 4.2620
 5.2320	 4.2760
 5.2380	 4.2670
 5.2430	 4.2220
 5.2480	 4.2880
 5.2540	 4.2830
 5.2590	 4.2820
 5.2640	 4.2480
 5.2700	 4.2680
 5.2750	 4.2660
 5.2800	 4.2700
 5.2860	 4.1940
 5.2910	 4.2490
 5.2970	 4.2540
 5.3020	 4.2830
 5.3070	 4.2800
 5.3130	 4.2480
 5.3180	 4.2060
 5.3240	 4.2100
 5.3290	 4.2000
 5.3350	 4.2210
 5.3400	 4.1720
 5.3460	 4.2110
 5.3510	 4.2710
 5.3570	 4.2770
 5.3620	 4.1770
 5.3680	 4.2030
 5.3730	 4.2090
 5.3790	 4.2640
 5.3850	 4.2450
 5.3900	 4.1950
 5.3960	 4.1660
 5.4010	 4.2340
 5.4070	 4.1720
 5.4130	 4.1000
 5.4180	 4.0580
 5.4240	 4.0960
 5.4300	 4.0740
