Name: Ficus platypoda
Type: vegetation
Class: Tree
Genus: Ficus
Species: platypoda
Sample No.: JPL122
Owner: JPL
Wavelength Range: VSWIR
Origin: 34.12559; -118.11498;; WGS84
Collection Date: 9/7/2016
Description: Samples were collected at the Huntington Garden in San Marino California as part of a JPL Subcontract studying HyTES imagery. Samples were taken to JPL and processed within 48 hours of collection. The same leaves were processed in the Nicolet and then measured using the ASD.
Measurement: Bidirectional reflectance
First Column: X
Second Column: Y
X Units: Wavelength (micrometer)
Y Units: Reflectance (percentage)
First X Value: 0.35
Last X Value: 2.5
Number of X Values: 2151
Additional Information: vegetation.tree.ficus.platypoda.vswir.jpl122.jpl.asd.ancillary.txt

 0.3500	11.7990
 0.3510	11.8660
 0.3520	11.7760
 0.3530	11.6750
 0.3540	11.6890
 0.3550	11.6560
 0.3560	11.6230
 0.3570	11.5930
 0.3580	11.5530
 0.3590	11.5230
 0.3600	11.5090
 0.3610	11.4990
 0.3620	11.4630
 0.3630	11.4170
 0.3640	11.4020
 0.3650	11.4300
 0.3660	11.4030
 0.3670	11.3440
 0.3680	11.2960
 0.3690	11.3060
 0.3700	11.3250
 0.3710	11.3000
 0.3720	11.2470
 0.3730	11.3060
 0.3740	11.3660
 0.3750	11.3500
 0.3760	11.2390
 0.3770	11.2230
 0.3780	11.2330
 0.3790	11.2330
 0.3800	11.2250
 0.3810	11.2360
 0.3820	11.2320
 0.3830	11.2000
 0.3840	11.1980
 0.3850	11.1950
 0.3860	11.1790
 0.3870	11.1520
 0.3880	11.1490
 0.3890	11.1200
 0.3900	11.0760
 0.3910	11.0950
 0.3920	11.1230
 0.3930	11.1250
 0.3940	11.0950
 0.3950	11.0780
 0.3960	11.0660
 0.3970	11.0600
 0.3980	11.0600
 0.3990	11.0480
 0.4000	11.0320
 0.4010	11.0210
 0.4020	11.0170
 0.4030	11.0190
 0.4040	11.0200
 0.4050	11.0180
 0.4060	11.0110
 0.4070	11.0140
 0.4080	11.0210
 0.4090	11.0140
 0.4100	11.0280
 0.4110	11.0350
 0.4120	11.0260
 0.4130	11.0290
 0.4140	11.0350
 0.4150	11.0420
 0.4160	11.0530
 0.4170	11.0520
 0.4180	11.0620
 0.4190	11.0840
 0.4200	11.0950
 0.4210	11.0920
 0.4220	11.0900
 0.4230	11.0970
 0.4240	11.0990
 0.4250	11.0990
 0.4260	11.1010
 0.4270	11.1060
 0.4280	11.1110
 0.4290	11.1090
 0.4300	11.0940
 0.4310	11.0640
 0.4320	11.0270
 0.4330	10.9950
 0.4340	10.9760
 0.4350	10.9650
 0.4360	10.9630
 0.4370	10.9750
 0.4380	11.0050
 0.4390	11.0480
 0.4400	11.0940
 0.4410	11.1350
 0.4420	11.1570
 0.4430	11.1690
 0.4440	11.1810
 0.4450	11.1960
 0.4460	11.1890
 0.4470	11.1860
 0.4480	11.1960
 0.4490	11.2010
 0.4500	11.2050
 0.4510	11.2080
 0.4520	11.2090
 0.4530	11.2140
 0.4540	11.2210
 0.4550	11.2270
 0.4560	11.2310
 0.4570	11.2280
 0.4580	11.2270
 0.4590	11.2310
 0.4600	11.2310
 0.4610	11.2360
 0.4620	11.2390
 0.4630	11.2330
 0.4640	11.2340
 0.4650	11.2390
 0.4660	11.2430
 0.4670	11.2430
 0.4680	11.2470
 0.4690	11.2490
 0.4700	11.2460
 0.4710	11.2450
 0.4720	11.2480
 0.4730	11.2520
 0.4740	11.2570
 0.4750	11.2610
 0.4760	11.2650
 0.4770	11.2670
 0.4780	11.2650
 0.4790	11.2620
 0.4800	11.2570
 0.4810	11.2520
 0.4820	11.2450
 0.4830	11.2320
 0.4840	11.2140
 0.4850	11.1900
 0.4860	11.1740
 0.4870	11.1680
 0.4880	11.1690
 0.4890	11.1760
 0.4900	11.1840
 0.4910	11.1960
 0.4920	11.2150
 0.4930	11.2260
 0.4940	11.2390
 0.4950	11.2560
 0.4960	11.2650
 0.4970	11.2800
 0.4980	11.3050
 0.4990	11.3330
 0.5000	11.3510
 0.5010	11.3660
 0.5020	11.3870
 0.5030	11.4170
 0.5040	11.4460
 0.5050	11.4730
 0.5060	11.5020
 0.5070	11.5360
 0.5080	11.5710
 0.5090	11.6100
 0.5100	11.6570
 0.5110	11.7120
 0.5120	11.7720
 0.5130	11.8380
 0.5140	11.9110
 0.5150	11.9960
 0.5160	12.0890
 0.5170	12.1830
 0.5180	12.2940
 0.5190	12.4110
 0.5200	12.5310
 0.5210	12.6580
 0.5220	12.7900
 0.5230	12.9260
 0.5240	13.0630
 0.5250	13.1980
 0.5260	13.3260
 0.5270	13.4490
 0.5280	13.5690
 0.5290	13.6800
 0.5300	13.7800
 0.5310	13.8710
 0.5320	13.9590
 0.5330	14.0350
 0.5340	14.0980
 0.5350	14.1530
 0.5360	14.1980
 0.5370	14.2310
 0.5380	14.2480
 0.5390	14.2460
 0.5400	14.2080
 0.5410	14.1410
 0.5420	14.0640
 0.5430	14.0150
 0.5440	14.0110
 0.5450	14.0540
 0.5460	14.1320
 0.5470	14.2290
 0.5480	14.3130
 0.5490	14.3700
 0.5500	14.3970
 0.5510	14.4140
 0.5520	14.4240
 0.5530	14.4280
 0.5540	14.4310
 0.5550	14.4220
 0.5560	14.3970
 0.5570	14.3540
 0.5580	14.2980
 0.5590	14.2320
 0.5600	14.1590
 0.5610	14.0800
 0.5620	13.9940
 0.5630	13.9050
 0.5640	13.8160
 0.5650	13.7250
 0.5660	13.6350
 0.5670	13.5440
 0.5680	13.4510
 0.5690	13.3610
 0.5700	13.2720
 0.5710	13.1830
 0.5720	13.0960
 0.5730	13.0140
 0.5740	12.9370
 0.5750	12.8620
 0.5760	12.7910
 0.5770	12.7220
 0.5780	12.6550
 0.5790	12.5810
 0.5800	12.5160
 0.5810	12.4620
 0.5820	12.4180
 0.5830	12.3770
 0.5840	12.3480
 0.5850	12.3280
 0.5860	12.3040
 0.5870	12.2730
 0.5880	12.2460
 0.5890	12.2300
 0.5900	12.2170
 0.5910	12.2050
 0.5920	12.1920
 0.5930	12.1770
 0.5940	12.1700
 0.5950	12.1680
 0.5960	12.1680
 0.5970	12.1610
 0.5980	12.1490
 0.5990	12.1360
 0.6000	12.1230
 0.6010	12.1150
 0.6020	12.1060
 0.6030	12.0940
 0.6040	12.0700
 0.6050	12.0460
 0.6060	12.0200
 0.6070	11.9910
 0.6080	11.9550
 0.6090	11.8840
 0.6100	11.7670
 0.6110	11.6220
 0.6120	11.5980
 0.6130	11.6400
 0.6140	11.6890
 0.6150	11.6940
 0.6160	11.6910
 0.6170	11.6820
 0.6180	11.6620
 0.6190	11.6390
 0.6200	11.6140
 0.6210	11.5930
 0.6220	11.5850
 0.6230	11.5810
 0.6240	11.5770
 0.6250	11.5730
 0.6260	11.5710
 0.6270	11.5680
 0.6280	11.5640
 0.6290	11.5560
 0.6300	11.5390
 0.6310	11.5280
 0.6320	11.5310
 0.6330	11.5400
 0.6340	11.5400
 0.6350	11.5320
 0.6360	11.5190
 0.6370	11.5060
 0.6380	11.4900
 0.6390	11.4730
 0.6400	11.4550
 0.6410	11.4390
 0.6420	11.4210
 0.6430	11.4030
 0.6440	11.3850
 0.6450	11.3710
 0.6460	11.3590
 0.6470	11.3470
 0.6480	11.3380
 0.6490	11.3270
 0.6500	11.3160
 0.6510	11.3130
 0.6520	11.3140
 0.6530	11.3150
 0.6540	11.3130
 0.6550	11.3150
 0.6560	11.3160
 0.6570	11.3150
 0.6580	11.3100
 0.6590	11.3100
 0.6600	11.3110
 0.6610	11.3100
 0.6620	11.3050
 0.6630	11.3060
 0.6640	11.3110
 0.6650	11.3200
 0.6660	11.3280
 0.6670	11.3380
 0.6680	11.3500
 0.6690	11.3650
 0.6700	11.3840
 0.6710	11.4050
 0.6720	11.4280
 0.6730	11.4540
 0.6740	11.4810
 0.6750	11.5100
 0.6760	11.5400
 0.6770	11.5760
 0.6780	11.6130
 0.6790	11.6510
 0.6800	11.6920
 0.6810	11.7340
 0.6820	11.7780
 0.6830	11.8200
 0.6840	11.8610
 0.6850	11.8980
 0.6860	11.9340
 0.6870	11.9700
 0.6880	12.0090
 0.6890	12.0560
 0.6900	12.1130
 0.6910	12.1870
 0.6920	12.2810
 0.6930	12.4050
 0.6940	12.5670
 0.6950	12.7730
 0.6960	13.0300
 0.6970	13.3400
 0.6980	13.7080
 0.6990	14.1350
 0.7000	14.6210
 0.7010	15.1630
 0.7020	15.7570
 0.7030	16.3990
 0.7040	17.0850
 0.7050	17.8110
 0.7060	18.5740
 0.7070	19.3720
 0.7080	20.2050
 0.7090	21.0740
 0.7100	21.9820
 0.7110	22.9200
 0.7120	23.8840
 0.7130	24.8780
 0.7140	25.9020
 0.7150	26.9540
 0.7160	28.0270
 0.7170	29.1190
 0.7180	30.2290
 0.7190	31.3540
 0.7200	32.4900
 0.7210	33.6350
 0.7220	34.7810
 0.7230	35.9240
 0.7240	37.0630
 0.7250	38.1890
 0.7260	39.2980
 0.7270	40.3850
 0.7280	41.4500
 0.7290	42.4860
 0.7300	43.4910
 0.7310	44.4600
 0.7320	45.3970
 0.7330	46.2980
 0.7340	47.1600
 0.7350	47.9840
 0.7360	48.7680
 0.7370	49.5110
 0.7380	50.2140
 0.7390	50.8760
 0.7400	51.5000
 0.7410	52.0850
 0.7420	52.6300
 0.7430	53.1390
 0.7440	53.6110
 0.7450	54.0480
 0.7460	54.4480
 0.7470	54.8190
 0.7480	55.1590
 0.7490	55.4680
 0.7500	55.7510
 0.7510	56.0080
 0.7520	56.2410
 0.7530	56.4530
 0.7540	56.6440
 0.7550	56.8190
 0.7560	56.9770
 0.7570	57.1150
 0.7580	57.2420
 0.7590	57.3590
 0.7600	57.4640
 0.7610	57.5580
 0.7620	57.6400
 0.7630	57.7130
 0.7640	57.7800
 0.7650	57.8400
 0.7660	57.8930
 0.7670	57.9400
 0.7680	57.9780
 0.7690	58.0150
 0.7700	58.0480
 0.7710	58.0780
 0.7720	58.1040
 0.7730	58.1280
 0.7740	58.1490
 0.7750	58.1660
 0.7760	58.1860
 0.7770	58.2030
 0.7780	58.2180
 0.7790	58.2330
 0.7800	58.2490
 0.7810	58.2640
 0.7820	58.2770
 0.7830	58.2870
 0.7840	58.2970
 0.7850	58.3060
 0.7860	58.3140
 0.7870	58.3180
 0.7880	58.3240
 0.7890	58.3320
 0.7900	58.3370
 0.7910	58.3370
 0.7920	58.3390
 0.7930	58.3420
 0.7940	58.3410
 0.7950	58.3410
 0.7960	58.3410
 0.7970	58.3400
 0.7980	58.3370
 0.7990	58.3320
 0.8000	58.3260
 0.8010	58.3190
 0.8020	58.3150
 0.8030	58.3080
 0.8040	58.3000
 0.8050	58.2930
 0.8060	58.2830
 0.8070	58.2710
 0.8080	58.2590
 0.8090	58.2500
 0.8100	58.2400
 0.8110	58.2280
 0.8120	58.2150
 0.8130	58.2020
 0.8140	58.1890
 0.8150	58.1750
 0.8160	58.1610
 0.8170	58.1490
 0.8180	58.1350
 0.8190	58.1210
 0.8200	58.1080
 0.8210	58.0910
 0.8220	58.0770
 0.8230	58.0660
 0.8240	58.0480
 0.8250	58.0300
 0.8260	58.0140
 0.8270	58.0000
 0.8280	57.9830
 0.8290	57.9680
 0.8300	57.9510
 0.8310	57.9300
 0.8320	57.9140
 0.8330	57.9010
 0.8340	57.8900
 0.8350	57.8780
 0.8360	57.8650
 0.8370	57.8540
 0.8380	57.8460
 0.8390	57.8390
 0.8400	57.8300
 0.8410	57.8210
 0.8420	57.8140
 0.8430	57.8100
 0.8440	57.8060
 0.8450	57.8000
 0.8460	57.7930
 0.8470	57.7930
 0.8480	57.7930
 0.8490	57.7910
 0.8500	57.7870
 0.8510	57.7840
 0.8520	57.7830
 0.8530	57.7820
 0.8540	57.7780
 0.8550	57.7810
 0.8560	57.7830
 0.8570	57.7850
 0.8580	57.7910
 0.8590	57.7910
 0.8600	57.7900
 0.8610	57.7940
 0.8620	57.8010
 0.8630	57.8060
 0.8640	57.8110
 0.8650	57.8160
 0.8660	57.8180
 0.8670	57.8230
 0.8680	57.8300
 0.8690	57.8360
 0.8700	57.8430
 0.8710	57.8530
 0.8720	57.8610
 0.8730	57.8670
 0.8740	57.8760
 0.8750	57.8850
 0.8760	57.8940
 0.8770	57.9060
 0.8780	57.9160
 0.8790	57.9250
 0.8800	57.9330
 0.8810	57.9410
 0.8820	57.9530
 0.8830	57.9650
 0.8840	57.9730
 0.8850	57.9830
 0.8860	57.9900
 0.8870	57.9970
 0.8880	58.0070
 0.8890	58.0190
 0.8900	58.0300
 0.8910	58.0400
 0.8920	58.0480
 0.8930	58.0610
 0.8940	58.0710
 0.8950	58.0780
 0.8960	58.0880
 0.8970	58.0980
 0.8980	58.1090
 0.8990	58.1200
 0.9000	58.1260
 0.9010	58.1360
 0.9020	58.1440
 0.9030	58.1500
 0.9040	58.1560
 0.9050	58.1630
 0.9060	58.1710
 0.9070	58.1790
 0.9080	58.1860
 0.9090	58.1910
 0.9100	58.1930
 0.9110	58.1930
 0.9120	58.2010
 0.9130	58.2060
 0.9140	58.2080
 0.9150	58.2110
 0.9160	58.2060
 0.9170	58.1990
 0.9180	58.1970
 0.9190	58.1990
 0.9200	58.1880
 0.9210	58.1790
 0.9220	58.1750
 0.9230	58.1710
 0.9240	58.1570
 0.9250	58.1400
 0.9260	58.1240
 0.9270	58.1060
 0.9280	58.0910
 0.9290	58.0750
 0.9300	58.0520
 0.9310	58.0260
 0.9320	58.0010
 0.9330	57.9740
 0.9340	57.9410
 0.9350	57.9050
 0.9360	57.8810
 0.9370	57.8520
 0.9380	57.8130
 0.9390	57.7850
 0.9400	57.7490
 0.9410	57.7110
 0.9420	57.6730
 0.9430	57.6260
 0.9440	57.5740
 0.9450	57.5220
 0.9460	57.4730
 0.9470	57.4150
 0.9480	57.3520
 0.9490	57.2850
 0.9500	57.2100
 0.9510	57.1320
 0.9520	57.0480
 0.9530	56.9660
 0.9540	56.8940
 0.9550	56.8240
 0.9560	56.7490
 0.9570	56.6730
 0.9580	56.6010
 0.9590	56.5240
 0.9600	56.4700
 0.9610	56.4260
 0.9620	56.3700
 0.9630	56.3270
 0.9640	56.2920
 0.9650	56.2610
 0.9660	56.2330
 0.9670	56.2070
 0.9680	56.1840
 0.9690	56.1640
 0.9700	56.1440
 0.9710	56.1260
 0.9720	56.1070
 0.9730	56.0950
 0.9740	56.0970
 0.9750	56.0930
 0.9760	56.0780
 0.9770	56.0640
 0.9780	56.0660
 0.9790	56.0710
 0.9800	56.0760
 0.9810	56.0740
 0.9820	56.0690
 0.9830	56.0790
 0.9840	56.0930
 0.9850	56.1010
 0.9860	56.1030
 0.9870	56.1240
 0.9880	56.1430
 0.9890	56.1550
 0.9900	56.1660
 0.9910	56.1920
 0.9920	56.2100
 0.9930	56.2160
 0.9940	56.2240
 0.9950	56.2530
 0.9960	56.2780
 0.9970	56.3000
 0.9980	56.3290
 0.9990	56.3460
 1.0000	56.3680
 1.0010	56.2650
 1.0020	56.2930
 1.0030	56.3180
 1.0040	56.3440
 1.0050	56.3710
 1.0060	56.3970
 1.0070	56.4250
 1.0080	56.4520
 1.0090	56.4790
 1.0100	56.5040
 1.0110	56.5270
 1.0120	56.5510
 1.0130	56.5730
 1.0140	56.5980
 1.0150	56.6230
 1.0160	56.6500
 1.0170	56.6780
 1.0180	56.7060
 1.0190	56.7320
 1.0200	56.7560
 1.0210	56.7790
 1.0220	56.8020
 1.0230	56.8260
 1.0240	56.8500
 1.0250	56.8770
 1.0260	56.9100
 1.0270	56.9330
 1.0280	56.9500
 1.0290	56.9710
 1.0300	56.9850
 1.0310	57.0050
 1.0320	57.0310
 1.0330	57.0620
 1.0340	57.0840
 1.0350	57.1070
 1.0360	57.1300
 1.0370	57.1470
 1.0380	57.1650
 1.0390	57.1810
 1.0400	57.1970
 1.0410	57.2100
 1.0420	57.2250
 1.0430	57.2420
 1.0440	57.2570
 1.0450	57.2710
 1.0460	57.2860
 1.0470	57.3000
 1.0480	57.3130
 1.0490	57.3250
 1.0500	57.3390
 1.0510	57.3540
 1.0520	57.3640
 1.0530	57.3760
 1.0540	57.3880
 1.0550	57.3980
 1.0560	57.4060
 1.0570	57.4140
 1.0580	57.4220
 1.0590	57.4290
 1.0600	57.4350
 1.0610	57.4420
 1.0620	57.4470
 1.0630	57.4530
 1.0640	57.4570
 1.0650	57.4630
 1.0660	57.4690
 1.0670	57.4740
 1.0680	57.4790
 1.0690	57.4830
 1.0700	57.4870
 1.0710	57.4910
 1.0720	57.4940
 1.0730	57.4960
 1.0740	57.4970
 1.0750	57.4950
 1.0760	57.4960
 1.0770	57.4980
 1.0780	57.4980
 1.0790	57.4980
 1.0800	57.4980
 1.0810	57.4970
 1.0820	57.4960
 1.0830	57.4960
 1.0840	57.4930
 1.0850	57.4880
 1.0860	57.4830
 1.0870	57.4800
 1.0880	57.4790
 1.0890	57.4750
 1.0900	57.4740
 1.0910	57.4700
 1.0920	57.4630
 1.0930	57.4560
 1.0940	57.4470
 1.0950	57.4410
 1.0960	57.4360
 1.0970	57.4300
 1.0980	57.4270
 1.0990	57.4200
 1.1000	57.4110
 1.1010	57.4010
 1.1020	57.3890
 1.1030	57.3760
 1.1040	57.3660
 1.1050	57.3540
 1.1060	57.3430
 1.1070	57.3340
 1.1080	57.3230
 1.1090	57.3110
 1.1100	57.2980
 1.1110	57.2850
 1.1120	57.2700
 1.1130	57.2550
 1.1140	57.2370
 1.1150	57.2190
 1.1160	57.1980
 1.1170	57.1760
 1.1180	57.1510
 1.1190	57.1270
 1.1200	57.1000
 1.1210	57.0690
 1.1220	57.0330
 1.1230	56.9900
 1.1240	56.9430
 1.1250	56.8900
 1.1260	56.8320
 1.1270	56.7670
 1.1280	56.7000
 1.1290	56.6210
 1.1300	56.5360
 1.1310	56.4420
 1.1320	56.3400
 1.1330	56.2290
 1.1340	56.1110
 1.1350	55.9830
 1.1360	55.8450
 1.1370	55.6990
 1.1380	55.5480
 1.1390	55.3900
 1.1400	55.2270
 1.1410	55.0600
 1.1420	54.8890
 1.1430	54.7180
 1.1440	54.5490
 1.1450	54.3780
 1.1460	54.2130
 1.1470	54.0470
 1.1480	53.8900
 1.1490	53.7370
 1.1500	53.5930
 1.1510	53.4560
 1.1520	53.3290
 1.1530	53.2100
 1.1540	53.1020
 1.1550	53.0050
 1.1560	52.9180
 1.1570	52.8390
 1.1580	52.7690
 1.1590	52.7080
 1.1600	52.6520
 1.1610	52.6010
 1.1620	52.5590
 1.1630	52.5200
 1.1640	52.4850
 1.1650	52.4550
 1.1660	52.4330
 1.1670	52.4100
 1.1680	52.3910
 1.1690	52.3730
 1.1700	52.3570
 1.1710	52.3410
 1.1720	52.3250
 1.1730	52.3110
 1.1740	52.2980
 1.1750	52.2840
 1.1760	52.2710
 1.1770	52.2570
 1.1780	52.2390
 1.1790	52.2230
 1.1800	52.2070
 1.1810	52.1880
 1.1820	52.1710
 1.1830	52.1540
 1.1840	52.1360
 1.1850	52.1200
 1.1860	52.1030
 1.1870	52.0870
 1.1880	52.0720
 1.1890	52.0580
 1.1900	52.0460
 1.1910	52.0350
 1.1920	52.0240
 1.1930	52.0130
 1.1940	52.0050
 1.1950	51.9960
 1.1960	51.9920
 1.1970	51.9890
 1.1980	51.9880
 1.1990	51.9890
 1.2000	51.9900
 1.2010	51.9940
 1.2020	52.0010
 1.2030	52.0100
 1.2040	52.0210
 1.2050	52.0310
 1.2060	52.0410
 1.2070	52.0540
 1.2080	52.0690
 1.2090	52.0880
 1.2100	52.1090
 1.2110	52.1310
 1.2120	52.1550
 1.2130	52.1790
 1.2140	52.2040
 1.2150	52.2310
 1.2160	52.2580
 1.2170	52.2870
 1.2180	52.3190
 1.2190	52.3530
 1.2200	52.3870
 1.2210	52.4230
 1.2220	52.4570
 1.2230	52.4920
 1.2240	52.5280
 1.2250	52.5630
 1.2260	52.5980
 1.2270	52.6330
 1.2280	52.6650
 1.2290	52.6970
 1.2300	52.7300
 1.2310	52.7600
 1.2320	52.7890
 1.2330	52.8180
 1.2340	52.8460
 1.2350	52.8720
 1.2360	52.8960
 1.2370	52.9200
 1.2380	52.9440
 1.2390	52.9660
 1.2400	52.9870
 1.2410	53.0090
 1.2420	53.0280
 1.2430	53.0480
 1.2440	53.0690
 1.2450	53.0900
 1.2460	53.1090
 1.2470	53.1260
 1.2480	53.1420
 1.2490	53.1570
 1.2500	53.1710
 1.2510	53.1850
 1.2520	53.1980
 1.2530	53.2110
 1.2540	53.2220
 1.2550	53.2320
 1.2560	53.2400
 1.2570	53.2480
 1.2580	53.2540
 1.2590	53.2590
 1.2600	53.2630
 1.2610	53.2660
 1.2620	53.2680
 1.2630	53.2690
 1.2640	53.2700
 1.2650	53.2710
 1.2660	53.2690
 1.2670	53.2630
 1.2680	53.2570
 1.2690	53.2480
 1.2700	53.2380
 1.2710	53.2280
 1.2720	53.2160
 1.2730	53.2030
 1.2740	53.1880
 1.2750	53.1730
 1.2760	53.1570
 1.2770	53.1390
 1.2780	53.1170
 1.2790	53.0930
 1.2800	53.0680
 1.2810	53.0390
 1.2820	53.0110
 1.2830	52.9820
 1.2840	52.9500
 1.2850	52.9170
 1.2860	52.8830
 1.2870	52.8460
 1.2880	52.8040
 1.2890	52.7620
 1.2900	52.7180
 1.2910	52.6710
 1.2920	52.6220
 1.2930	52.5720
 1.2940	52.5190
 1.2950	52.4640
 1.2960	52.4070
 1.2970	52.3490
 1.2980	52.2870
 1.2990	52.2210
 1.3000	52.1530
 1.3010	52.0810
 1.3020	52.0060
 1.3030	51.9320
 1.3040	51.8540
 1.3050	51.7730
 1.3060	51.6880
 1.3070	51.5990
 1.3080	51.5080
 1.3090	51.4150
 1.3100	51.3180
 1.3110	51.2180
 1.3120	51.1160
 1.3130	51.0120
 1.3140	50.9020
 1.3150	50.7900
 1.3160	50.6740
 1.3170	50.5550
 1.3180	50.4310
 1.3190	50.3050
 1.3200	50.1770
 1.3210	50.0440
 1.3220	49.9090
 1.3230	49.7710
 1.3240	49.6280
 1.3250	49.4850
 1.3260	49.3390
 1.3270	49.1880
 1.3280	49.0350
 1.3290	48.8780
 1.3300	48.7190
 1.3310	48.5590
 1.3320	48.3950
 1.3330	48.2320
 1.3340	48.0670
 1.3350	47.9010
 1.3360	47.7360
 1.3370	47.5700
 1.3380	47.4050
 1.3390	47.2400
 1.3400	47.0750
 1.3410	46.9130
 1.3420	46.7520
 1.3430	46.5920
 1.3440	46.4360
 1.3450	46.2790
 1.3460	46.1230
 1.3470	45.9700
 1.3480	45.8170
 1.3490	45.6660
 1.3500	45.5190
 1.3510	45.3730
 1.3520	45.2260
 1.3530	45.0810
 1.3540	44.9340
 1.3550	44.7860
 1.3560	44.6380
 1.3570	44.4890
 1.3580	44.3380
 1.3590	44.1830
 1.3600	44.0250
 1.3610	43.8620
 1.3620	43.6910
 1.3630	43.5160
 1.3640	43.3320
 1.3650	43.1380
 1.3660	42.9370
 1.3670	42.7240
 1.3680	42.4970
 1.3690	42.2570
 1.3700	41.9990
 1.3710	41.7260
 1.3720	41.4350
 1.3730	41.1230
 1.3740	40.7940
 1.3750	40.4450
 1.3760	40.0690
 1.3770	39.6700
 1.3780	39.2400
 1.3790	38.7830
 1.3800	38.3000
 1.3810	37.7860
 1.3820	37.2530
 1.3830	36.6960
 1.3840	36.1180
 1.3850	35.5180
 1.3860	34.9050
 1.3870	34.2670
 1.3880	33.6300
 1.3890	32.9820
 1.3900	32.3260
 1.3910	31.6740
 1.3920	31.0200
 1.3930	30.3650
 1.3940	29.7200
 1.3950	29.0780
 1.3960	28.4490
 1.3970	27.8370
 1.3980	27.2410
 1.3990	26.6710
 1.4000	26.1210
 1.4010	25.5890
 1.4020	25.0850
 1.4030	24.6010
 1.4040	24.1430
 1.4050	23.7140
 1.4060	23.3070
 1.4070	22.9300
 1.4080	22.5750
 1.4090	22.2410
 1.4100	21.9330
 1.4110	21.6440
 1.4120	21.3760
 1.4130	21.1290
 1.4140	20.9000
 1.4150	20.6910
 1.4160	20.4990
 1.4170	20.3210
 1.4180	20.1580
 1.4190	20.0070
 1.4200	19.8670
 1.4210	19.7410
 1.4220	19.6250
 1.4230	19.5210
 1.4240	19.4260
 1.4250	19.3380
 1.4260	19.2570
 1.4270	19.1840
 1.4280	19.1170
 1.4290	19.0570
 1.4300	19.0030
 1.4310	18.9550
 1.4320	18.9140
 1.4330	18.8760
 1.4340	18.8440
 1.4350	18.8160
 1.4360	18.7920
 1.4370	18.7720
 1.4380	18.7560
 1.4390	18.7450
 1.4400	18.7360
 1.4410	18.7300
 1.4420	18.7270
 1.4430	18.7260
 1.4440	18.7280
 1.4450	18.7320
 1.4460	18.7380
 1.4470	18.7450
 1.4480	18.7550
 1.4490	18.7660
 1.4500	18.7800
 1.4510	18.7940
 1.4520	18.8100
 1.4530	18.8260
 1.4540	18.8450
 1.4550	18.8670
 1.4560	18.8910
 1.4570	18.9170
 1.4580	18.9480
 1.4590	18.9810
 1.4600	19.0180
 1.4610	19.0590
 1.4620	19.1030
 1.4630	19.1530
 1.4640	19.2060
 1.4650	19.2640
 1.4660	19.3280
 1.4670	19.3950
 1.4680	19.4670
 1.4690	19.5440
 1.4700	19.6260
 1.4710	19.7120
 1.4720	19.8020
 1.4730	19.8960
 1.4740	19.9940
 1.4750	20.0940
 1.4760	20.1970
 1.4770	20.3030
 1.4780	20.4120
