Name: Arctostaphylos glandulosa 3
Type: vegetation
Class: Shrub
Genus: Arctostaphylos
Species: glandulosa
Sample No.: VH121
Owner: UCSB
Wavelength Range: TIR
Origin: 34.5085; -119.7682; WGS84
Collection Date: 6/3/2013
Description: Samples were collected as part of the HyspIRI Airborne Campaign. 48 individual plants were sampled in three times in 2013 - spring  summer  and fall. The name of the sample includes a 1  2  or 3 which references a different individual of the species. Samples were taken to JPL and processed within 48 hours of collection. The same leaves were processed in the Nicolet and then measured using the ASD.
Measurement: Hemispherical reflectance
First Column: X
Second Column: Y
X Units: Wavelength (micrometers)
Y Units: Reflectance (percentage)
First X Value: 2.501
Last X Value: 15.387
Number of X Values: 1737
Additional Information: vegetation.shrub.arctostaphylos.glandulosa.tir.vh121.ucsb.nicolet.ancillary.txt

 2.5010	 7.1690
 2.5030	 7.2120
 2.5040	 7.4520
 2.5050	 7.4090
 2.5060	 7.2970
 2.5070	 7.2350
 2.5090	 7.2650
 2.5100	 7.2940
 2.5110	 7.2930
 2.5120	 7.2310
 2.5140	 7.3170
 2.5150	 7.2830
 2.5160	 7.2280
 2.5170	 7.2350
 2.5180	 7.3530
 2.5200	 7.3650
 2.5210	 7.2590
 2.5220	 7.1540
 2.5230	 7.2300
 2.5250	 7.2060
 2.5260	 7.1200
 2.5270	 7.1090
 2.5280	 7.2120
 2.5290	 7.2160
 2.5310	 7.3290
 2.5320	 7.2550
 2.5330	 7.2650
 2.5340	 7.2850
 2.5360	 7.2920
 2.5370	 7.1660
 2.5380	 7.2200
 2.5390	 7.3720
 2.5410	 7.3620
 2.5420	 7.2970
 2.5430	 7.2590
 2.5440	 7.0710
 2.5460	 7.1140
 2.5470	 7.2590
 2.5480	 7.3140
 2.5490	 7.2470
 2.5510	 7.2840
 2.5520	 7.3200
 2.5530	 7.2790
 2.5540	 7.1610
 2.5560	 7.1370
 2.5570	 7.1780
 2.5580	 7.3630
 2.5590	 7.3750
 2.5610	 7.3190
 2.5620	 7.3150
 2.5630	 7.2920
 2.5640	 7.1850
 2.5660	 7.2390
 2.5670	 7.2570
 2.5680	 7.1790
 2.5700	 7.2570
 2.5710	 7.3410
 2.5720	 7.1960
 2.5730	 7.2360
 2.5750	 7.2400
 2.5760	 7.2570
 2.5770	 7.2340
 2.5790	 7.2850
 2.5800	 7.1980
 2.5810	 7.3440
 2.5820	 7.4310
 2.5840	 7.3450
 2.5850	 7.3050
 2.5860	 7.3890
 2.5880	 7.2810
 2.5890	 7.2050
 2.5900	 7.2110
 2.5910	 7.2270
 2.5930	 7.2060
 2.5940	 7.2680
 2.5950	 7.2120
 2.5970	 7.1450
 2.5980	 7.1820
 2.5990	 7.1810
 2.6000	 7.1290
 2.6020	 7.2370
 2.6030	 7.2120
 2.6040	 7.2170
 2.6060	 7.2640
 2.6070	 7.2890
 2.6080	 7.2250
 2.6100	 7.3010
 2.6110	 7.2310
 2.6120	 7.1940
 2.6140	 7.0510
 2.6150	 7.0180
 2.6160	 7.1640
 2.6180	 7.2930
 2.6190	 7.2420
 2.6200	 7.2000
 2.6220	 7.1020
 2.6230	 7.0640
 2.6240	 7.0130
 2.6260	 7.0670
 2.6270	 7.1510
 2.6280	 7.1410
 2.6300	 7.0390
 2.6310	 6.9730
 2.6320	 6.8800
 2.6340	 7.0430
 2.6350	 7.0850
 2.6360	 7.0740
 2.6380	 7.0680
 2.6390	 7.1160
 2.6400	 7.0660
 2.6420	 7.0400
 2.6430	 7.0560
 2.6440	 7.1290
 2.6460	 7.0310
 2.6470	 7.0720
 2.6480	 7.0950
 2.6500	 7.0160
 2.6510	 6.9020
 2.6520	 6.9850
 2.6540	 6.9410
 2.6550	 6.9050
 2.6560	 6.8950
 2.6580	 6.9380
 2.6590	 6.8960
 2.6610	 6.8850
 2.6620	 6.7770
 2.6630	 6.8420
 2.6650	 6.8490
 2.6660	 6.7900
 2.6670	 6.6430
 2.6690	 6.6000
 2.6700	 6.6040
 2.6720	 6.7520
 2.6730	 6.8080
 2.6740	 6.7670
 2.6760	 6.7140
 2.6770	 6.7940
 2.6780	 6.8030
 2.6800	 6.7410
 2.6810	 6.6050
 2.6830	 6.6340
 2.6840	 6.6160
 2.6850	 6.7160
 2.6870	 6.7340
 2.6880	 6.6490
 2.6900	 6.5450
 2.6910	 6.5160
 2.6920	 6.4900
 2.6940	 6.5320
 2.6950	 6.4800
 2.6970	 6.3720
 2.6980	 6.2230
 2.6990	 6.2090
 2.7010	 6.1910
 2.7020	 6.2030
 2.7040	 6.1460
 2.7050	 6.1500
 2.7060	 6.0710
 2.7080	 6.0470
 2.7090	 6.0510
 2.7110	 6.1510
 2.7120	 6.1860
 2.7130	 6.0470
 2.7150	 5.9430
 2.7160	 5.9370
 2.7180	 5.8960
 2.7190	 6.0470
 2.7210	 6.0540
 2.7220	 6.0370
 2.7230	 6.0180
 2.7250	 5.9690
 2.7260	 5.9770
 2.7280	 6.0200
 2.7290	 5.8580
 2.7310	 5.7280
 2.7320	 5.6590
 2.7330	 5.8070
 2.7350	 5.8560
 2.7360	 5.8770
 2.7380	 5.8110
 2.7390	 5.7710
 2.7410	 5.6970
 2.7420	 5.8320
 2.7440	 5.9610
 2.7450	 5.8780
 2.7470	 5.7340
 2.7480	 5.8650
 2.7490	 5.8420
 2.7510	 5.7510
 2.7520	 5.7470
 2.7540	 5.8690
 2.7550	 5.7210
 2.7570	 5.7320
 2.7580	 5.7360
 2.7600	 5.7740
 2.7610	 5.7260
 2.7630	 5.7250
 2.7640	 5.7470
 2.7660	 5.7760
 2.7670	 5.6520
 2.7680	 5.6290
 2.7700	 5.5710
 2.7710	 5.6760
 2.7730	 5.5960
 2.7740	 5.4860
 2.7760	 5.4440
 2.7770	 5.5410
 2.7790	 5.5870
 2.7800	 5.5400
 2.7820	 5.4290
 2.7830	 5.5090
 2.7850	 5.5660
 2.7860	 5.5280
 2.7880	 5.4040
 2.7890	 5.5260
 2.7910	 5.5440
 2.7920	 5.6050
 2.7940	 5.5870
 2.7950	 5.6010
 2.7970	 5.5900
 2.7980	 5.5770
 2.8000	 5.5400
 2.8010	 5.6460
 2.8030	 5.5980
 2.8040	 5.6200
 2.8060	 5.4900
 2.8070	 5.4720
 2.8090	 5.4820
 2.8110	 5.4970
 2.8120	 5.4950
 2.8140	 5.6040
 2.8150	 5.5680
 2.8170	 5.5150
 2.8180	 5.3970
 2.8200	 5.3850
 2.8210	 5.4220
 2.8230	 5.5140
 2.8240	 5.5320
 2.8260	 5.4800
 2.8270	 5.3920
 2.8290	 5.4010
 2.8300	 5.4600
 2.8320	 5.5900
 2.8340	 5.4670
 2.8350	 5.3600
 2.8370	 5.2990
 2.8380	 5.3580
 2.8400	 5.3460
 2.8410	 5.3900
 2.8430	 5.3510
 2.8440	 5.3480
 2.8460	 5.3630
 2.8480	 5.4600
 2.8490	 5.3790
 2.8510	 5.3490
 2.8520	 5.3280
 2.8540	 5.3620
 2.8550	 5.3560
 2.8570	 5.3220
 2.8590	 5.3000
 2.8600	 5.4710
 2.8620	 5.4200
 2.8630	 5.3240
 2.8650	 5.3500
 2.8660	 5.3910
 2.8680	 5.2440
 2.8700	 5.2340
 2.8710	 5.2690
 2.8730	 5.3670
 2.8740	 5.4580
 2.8760	 5.5590
 2.8780	 5.4430
 2.8790	 5.3770
 2.8810	 5.2810
 2.8820	 5.2880
 2.8840	 5.3470
 2.8860	 5.4560
 2.8870	 5.3840
 2.8890	 5.3480
 2.8900	 5.2400
 2.8920	 5.2230
 2.8940	 5.3840
 2.8950	 5.5270
 2.8970	 5.3170
 2.8980	 5.2970
 2.9000	 5.2710
 2.9020	 5.2690
 2.9030	 5.2460
 2.9050	 5.2710
 2.9070	 5.2080
 2.9080	 5.3430
 2.9100	 5.3080
 2.9120	 5.3550
 2.9130	 5.3280
 2.9150	 5.4010
 2.9160	 5.3530
 2.9180	 5.2730
 2.9200	 5.2650
 2.9210	 5.3190
 2.9230	 5.2360
 2.9250	 5.2380
 2.9260	 5.1850
 2.9280	 5.2150
 2.9300	 5.2360
 2.9310	 5.2710
 2.9330	 5.3130
 2.9350	 5.4220
 2.9360	 5.4130
 2.9380	 5.3630
 2.9400	 5.2780
 2.9410	 5.2740
 2.9430	 5.2550
 2.9450	 5.2510
 2.9460	 5.1920
 2.9480	 5.3420
 2.9500	 5.3200
 2.9510	 5.3350
 2.9530	 5.3520
 2.9550	 5.4210
 2.9560	 5.4110
 2.9580	 5.3930
 2.9600	 5.3240
 2.9610	 5.3190
 2.9630	 5.2860
 2.9650	 5.3120
 2.9660	 5.3710
 2.9680	 5.5490
 2.9700	 5.4730
 2.9720	 5.3290
 2.9730	 5.2170
 2.9750	 5.3020
 2.9770	 5.2980
 2.9780	 5.2880
 2.9800	 5.2860
 2.9820	 5.3220
 2.9840	 5.2340
 2.9850	 5.1800
 2.9870	 5.1560
 2.9890	 5.2660
 2.9900	 5.2770
 2.9920	 5.2560
 2.9940	 5.3200
 2.9960	 5.3670
 2.9970	 5.2510
 2.9990	 5.2790
 3.0010	 5.2590
 3.0030	 5.2610
 3.0040	 5.1870
 3.0060	 5.2610
 3.0080	 5.2400
 3.0100	 5.2780
 3.0110	 5.3370
 3.0130	 5.3250
 3.0150	 5.2580
 3.0170	 5.3800
 3.0180	 5.4390
 3.0200	 5.3850
 3.0220	 5.2200
 3.0240	 5.1300
 3.0250	 5.1510
 3.0270	 5.3590
 3.0290	 5.3670
 3.0310	 5.3690
 3.0320	 5.3840
 3.0340	 5.3750
 3.0360	 5.2320
 3.0380	 5.2700
 3.0400	 5.3170
 3.0410	 5.3510
 3.0430	 5.3860
 3.0450	 5.3420
 3.0470	 5.2300
 3.0480	 5.3000
 3.0500	 5.2740
 3.0520	 5.3530
 3.0540	 5.4880
 3.0560	 5.4530
 3.0570	 5.3590
 3.0590	 5.4080
 3.0610	 5.3990
 3.0630	 5.4630
 3.0650	 5.3220
 3.0660	 5.3100
 3.0680	 5.3450
 3.0700	 5.3480
 3.0720	 5.3580
 3.0740	 5.4210
 3.0760	 5.3510
 3.0770	 5.3240
 3.0790	 5.2950
 3.0810	 5.4070
 3.0830	 5.3970
 3.0850	 5.4170
 3.0870	 5.4000
 3.0880	 5.3760
 3.0900	 5.3820
 3.0920	 5.4250
 3.0940	 5.4130
 3.0960	 5.4250
 3.0980	 5.3340
 3.0990	 5.3330
 3.1010	 5.3430
 3.1030	 5.4290
 3.1050	 5.4660
 3.1070	 5.4780
 3.1090	 5.4100
 3.1110	 5.3820
 3.1120	 5.3600
 3.1140	 5.4020
 3.1160	 5.4120
 3.1180	 5.4570
 3.1200	 5.4200
 3.1220	 5.3360
 3.1240	 5.3380
 3.1260	 5.5590
 3.1270	 5.5040
 3.1290	 5.3960
 3.1310	 5.4070
 3.1330	 5.4710
 3.1350	 5.4720
 3.1370	 5.5670
 3.1390	 5.5640
 3.1410	 5.6120
 3.1430	 5.5540
 3.1450	 5.5180
 3.1460	 5.4770
 3.1480	 5.5310
 3.1500	 5.4870
 3.1520	 5.4760
 3.1540	 5.3940
 3.1560	 5.3910
 3.1580	 5.4660
 3.1600	 5.5490
 3.1620	 5.4560
 3.1640	 5.5660
 3.1660	 5.6330
 3.1680	 5.5940
 3.1700	 5.5000
 3.1710	 5.4630
 3.1730	 5.4460
 3.1750	 5.5320
 3.1770	 5.5510
 3.1790	 5.5030
 3.1810	 5.4300
 3.1830	 5.4070
 3.1850	 5.3680
 3.1870	 5.4890
 3.1890	 5.4830
 3.1910	 5.3990
 3.1930	 5.4070
 3.1950	 5.5030
 3.1970	 5.4910
 3.1990	 5.5210
 3.2010	 5.4270
 3.2030	 5.4140
 3.2050	 5.4440
 3.2070	 5.5040
 3.2090	 5.4440
 3.2110	 5.3750
 3.2130	 5.4150
 3.2150	 5.4540
 3.2170	 5.4750
 3.2190	 5.5470
 3.2210	 5.5740
 3.2230	 5.6090
 3.2250	 5.5410
 3.2270	 5.4560
 3.2290	 5.4640
 3.2310	 5.5380
 3.2330	 5.4620
 3.2350	 5.4200
 3.2370	 5.4330
 3.2390	 5.5240
 3.2410	 5.4920
 3.2430	 5.5400
 3.2450	 5.5440
 3.2470	 5.5340
 3.2490	 5.5450
 3.2510	 5.5850
 3.2530	 5.5610
 3.2550	 5.5780
 3.2570	 5.5860
 3.2590	 5.5760
 3.2610	 5.4850
 3.2630	 5.4700
 3.2650	 5.4800
 3.2670	 5.5720
 3.2690	 5.5330
 3.2720	 5.4650
 3.2740	 5.3910
 3.2760	 5.3710
 3.2780	 5.4300
 3.2800	 5.5210
 3.2820	 5.4700
 3.2840	 5.4850
 3.2860	 5.4950
 3.2880	 5.4470
 3.2900	 5.3600
 3.2920	 5.4480
 3.2940	 5.4910
 3.2960	 5.4620
 3.2990	 5.4310
 3.3010	 5.3720
 3.3030	 5.3160
 3.3050	 5.4000
 3.3070	 5.3930
 3.3090	 5.4310
 3.3110	 5.4670
 3.3130	 5.4700
 3.3150	 5.4210
 3.3180	 5.4300
 3.3200	 5.3750
 3.3220	 5.3310
 3.3240	 5.2670
 3.3260	 5.3160
 3.3280	 5.4010
 3.3300	 5.4370
 3.3330	 5.3360
 3.3350	 5.3040
 3.3370	 5.2580
 3.3390	 5.2420
 3.3410	 5.1680
 3.3430	 5.1840
 3.3450	 5.2170
 3.3480	 5.1440
 3.3500	 5.0690
 3.3520	 5.1290
 3.3540	 5.1090
 3.3560	 5.0500
 3.3580	 5.0210
 3.3610	 5.0790
 3.3630	 5.0320
 3.3650	 5.0310
 3.3670	 4.9730
 3.3690	 4.9740
 3.3720	 4.8880
 3.3740	 4.8280
 3.3760	 4.8480
 3.3780	 4.8270
 3.3800	 4.7140
 3.3830	 4.7520
 3.3850	 4.8310
 3.3870	 4.8650
 3.3890	 4.7610
 3.3910	 4.7430
 3.3940	 4.6670
 3.3960	 4.6100
 3.3980	 4.5920
 3.4000	 4.6270
 3.4020	 4.5450
 3.4050	 4.5440
 3.4070	 4.5080
 3.4090	 4.4510
 3.4110	 4.3700
 3.4140	 4.3170
 3.4160	 4.3580
 3.4180	 4.7440
 3.4200	 5.3580
 3.4230	 6.2630
 3.4250	 7.3760
 3.4270	 8.5270
 3.4290	 9.1590
 3.4320	 8.9890
 3.4340	 8.4010
 3.4360	 7.8660
 3.4390	 7.3640
 3.4410	 7.0430
 3.4430	 6.8410
 3.4450	 6.7400
 3.4480	 6.6120
 3.4500	 6.5940
 3.4520	 6.5420
 3.4550	 6.4700
 3.4570	 6.3900
 3.4590	 6.3760
 3.4620	 6.3070
 3.4640	 6.2630
 3.4660	 6.2010
 3.4680	 6.1510
 3.4710	 6.0330
 3.4730	 6.0590
 3.4750	 6.0270
 3.4780	 5.9820
 3.4800	 5.8760
 3.4820	 5.7370
 3.4850	 5.6450
 3.4870	 5.5970
 3.4890	 5.4890
 3.4920	 5.4970
 3.4940	 5.4850
 3.4970	 5.4240
 3.4990	 5.2740
 3.5010	 5.1440
 3.5040	 5.1720
 3.5060	 5.7070
 3.5080	 6.9490
 3.5110	 8.3270
 3.5130	 8.7100
 3.5160	 8.3780
 3.5180	 7.9140
 3.5200	 7.5810
 3.5230	 7.2890
 3.5250	 7.1220
 3.5270	 6.9340
 3.5300	 6.8290
 3.5320	 6.7670
 3.5350	 6.7970
 3.5370	 6.7910
 3.5400	 6.6780
 3.5420	 6.5420
 3.5440	 6.5360
 3.5470	 6.4790
 3.5490	 6.4600
 3.5520	 6.4400
 3.5540	 6.4600
 3.5570	 6.4340
 3.5590	 6.4250
 3.5610	 6.3720
 3.5640	 6.3970
 3.5660	 6.4000
 3.5690	 6.3890
 3.5710	 6.2910
 3.5740	 6.2530
 3.5760	 6.2630
 3.5790	 6.2510
 3.5810	 6.2490
 3.5840	 6.3020
 3.5860	 6.2890
 3.5890	 6.2790
 3.5910	 6.2770
 3.5930	 6.2970
 3.5960	 6.2770
 3.5980	 6.1790
 3.6010	 6.0890
 3.6030	 6.2060
 3.6060	 6.2680
 3.6080	 6.2300
 3.6110	 6.1680
 3.6140	 6.2270
 3.6160	 6.1830
 3.6190	 6.1820
 3.6210	 6.1920
 3.6240	 6.1910
 3.6260	 6.1790
 3.6290	 6.2430
 3.6310	 6.2320
 3.6340	 6.2550
 3.6360	 6.2360
 3.6390	 6.1950
 3.6410	 6.1650
 3.6440	 6.1220
 3.6470	 6.0970
 3.6490	 6.1210
 3.6520	 6.1460
 3.6540	 6.2140
 3.6570	 6.1500
 3.6590	 6.1520
 3.6620	 6.1900
 3.6650	 6.2280
 3.6670	 6.1960
 3.6700	 6.1950
 3.6720	 6.1760
 3.6750	 6.1660
 3.6780	 6.1650
 3.6800	 6.1820
 3.6830	 6.1860
 3.6850	 6.2300
 3.6880	 6.2190
 3.6910	 6.1470
 3.6930	 6.1110
 3.6960	 6.0930
 3.6990	 6.0410
 3.7010	 6.1120
 3.7040	 6.1570
 3.7060	 6.1640
 3.7090	 6.0690
 3.7120	 6.0470
 3.7140	 6.0710
 3.7170	 6.0530
 3.7200	 6.0600
 3.7220	 6.1310
 3.7250	 6.1290
 3.7280	 6.1620
 3.7300	 6.1230
 3.7330	 6.0860
 3.7360	 6.0870
 3.7390	 6.1180
 3.7410	 6.1350
 3.7440	 6.1500
 3.7470	 6.1560
 3.7490	 6.1840
 3.7520	 6.1440
 3.7550	 6.1210
 3.7580	 6.0980
 3.7600	 6.1520
 3.7630	 6.1580
 3.7660	 6.1400
 3.7680	 6.1730
 3.7710	 6.2300
 3.7740	 6.1980
 3.7770	 6.1710
 3.7790	 6.1310
 3.7820	 6.1500
 3.7850	 6.1450
 3.7880	 6.1270
 3.7900	 6.0880
 3.7930	 6.0950
 3.7960	 6.1590
 3.7990	 6.2440
 3.8020	 6.2200
 3.8040	 6.1690
 3.8070	 6.1130
 3.8100	 6.1230
 3.8130	 6.1570
 3.8160	 6.1250
 3.8180	 6.1160
 3.8210	 6.1770
 3.8240	 6.2280
 3.8270	 6.2670
 3.8300	 6.2150
 3.8330	 6.2120
 3.8350	 6.2180
 3.8380	 6.1970
 3.8410	 6.1800
 3.8440	 6.1970
 3.8470	 6.1610
 3.8500	 6.1940
 3.8520	 6.2370
 3.8550	 6.2290
 3.8580	 6.1910
 3.8610	 6.2020
 3.8640	 6.1630
 3.8670	 6.2010
 3.8700	 6.1900
 3.8730	 6.1490
 3.8750	 6.1680
 3.8780	 6.2010
 3.8810	 6.1680
 3.8840	 6.1590
 3.8870	 6.1630
 3.8900	 6.1890
 3.8930	 6.2440
 3.8960	 6.2610
 3.8990	 6.2300
 3.9020	 6.2460
 3.9050	 6.2100
 3.9080	 6.2060
 3.9110	 6.2410
 3.9140	 6.2400
 3.9160	 6.1930
 3.9190	 6.1490
 3.9220	 6.1410
 3.9250	 6.1920
 3.9280	 6.1720
 3.9310	 6.1760
 3.9340	 6.2020
 3.9370	 6.2410
 3.9400	 6.1990
 3.9430	 6.1710
 3.9460	 6.2160
 3.9490	 6.2410
 3.9520	 6.2150
 3.9550	 6.2020
 3.9580	 6.1580
 3.9610	 6.2120
 3.9640	 6.2480
 3.9670	 6.2600
 3.9700	 6.2160
 3.9730	 6.1940
 3.9770	 6.1990
 3.9800	 6.2400
 3.9830	 6.2400
 3.9860	 6.2630
 3.9890	 6.2330
 3.9920	 6.1750
 3.9950	 6.1630
 3.9980	 6.2660
 4.0010	 6.3040
 4.0040	 6.3010
 4.0070	 6.2740
 4.0100	 6.2670
 4.0130	 6.2970
 4.0170	 6.3030
 4.0200	 6.2030
 4.0230	 6.1960
 4.0260	 6.2410
 4.0290	 6.2720
 4.0320	 6.2750
 4.0350	 6.2420
 4.0380	 6.2000
 4.0420	 6.2480
 4.0450	 6.2780
 4.0480	 6.2940
 4.0510	 6.2890
 4.0540	 6.2860
 4.0570	 6.3230
 4.0610	 6.2920
 4.0640	 6.2410
 4.0670	 6.3100
 4.0700	 6.3230
 4.0730	 6.3120
 4.0770	 6.3230
 4.0800	 6.3240
 4.0830	 6.3540
 4.0860	 6.3160
 4.0890	 6.2440
 4.0930	 6.2520
 4.0960	 6.2360
 4.0990	 6.2890
 4.1020	 6.3270
 4.1060	 6.3190
 4.1090	 6.3110
 4.1120	 6.3200
 4.1150	 6.3340
 4.1190	 6.3420
 4.1220	 6.3410
 4.1250	 6.3240
 4.1280	 6.2990
 4.1320	 6.2870
 4.1350	 6.2350
 4.1380	 6.2310
 4.1420	 6.2920
 4.1450	 6.3000
 4.1480	 6.2780
 4.1520	 6.2950
 4.1550	 6.2840
 4.1580	 6.2620
 4.1620	 6.2920
 4.1650	 6.3060
 4.1680	 6.3400
 4.1720	 6.3680
 4.1750	 6.3490
 4.1780	 6.3470
 4.1820	 6.3370
 4.1850	 6.3590
 4.1890	 6.3590
 4.1920	 6.3630
 4.1950	 6.3390
 4.1990	 6.3850
 4.2020	 6.4790
 4.2060	 6.5500
 4.2090	 6.5220
 4.2120	 6.5210
 4.2160	 6.4800
 4.2190	 6.5160
 4.2230	 6.6670
 4.2260	 6.7830
 4.2300	 6.8600
 4.2330	 6.7580
 4.2360	 6.6840
 4.2400	 6.7360
 4.2430	 6.6600
 4.2470	 6.5450
 4.2500	 6.4960
 4.2540	 6.4950
 4.2570	 6.5570
 4.2610	 6.6250
 4.2640	 6.6730
 4.2680	 6.6250
 4.2710	 6.6890
 4.2750	 6.7270
 4.2780	 6.5760
 4.2820	 6.5770
 4.2850	 6.5820
 4.2890	 6.6190
 4.2930	 6.6900
 4.2960	 6.5610
 4.3000	 6.4470
 4.3030	 6.4280
 4.3070	 6.4150
 4.3100	 6.4000
 4.3140	 6.4140
 4.3180	 6.3820
 4.3210	 6.4050
 4.3250	 6.4070
 4.3280	 6.3810
 4.3320	 6.3610
 4.3360	 6.2900
 4.3390	 6.3070
 4.3430	 6.3580
 4.3470	 6.3490
 4.3500	 6.3330
 4.3540	 6.2940
 4.3570	 6.2400
 4.3610	 6.2240
 4.3650	 6.2210
 4.3680	 6.2610
 4.3720	 6.2730
 4.3760	 6.2570
 4.3800	 6.2910
 4.3830	 6.3100
 4.3870	 6.2800
 4.3910	 6.2470
 4.3940	 6.2160
 4.3980	 6.2140
 4.4020	 6.1980
 4.4060	 6.2450
 4.4090	 6.3200
 4.4130	 6.3140
 4.4170	 6.3310
 4.4210	 6.3310
 4.4240	 6.3550
 4.4280	 6.3100
 4.4320	 6.2550
 4.4360	 6.3010
 4.4400	 6.2870
 4.4430	 6.2320
 4.4470	 6.2210
 4.4510	 6.2270
 4.4550	 6.2490
 4.4590	 6.2390
 4.4620	 6.2550
 4.4660	 6.2690
 4.4700	 6.2860
 4.4740	 6.2410
 4.4780	 6.2720
 4.4820	 6.2980
 4.4860	 6.2540
 4.4900	 6.2170
 4.4930	 6.2080
 4.4970	 6.2000
 4.5010	 6.2230
 4.5050	 6.2430
 4.5090	 6.2380
 4.5130	 6.1980
 4.5170	 6.2130
 4.5210	 6.2610
 4.5250	 6.2490
 4.5290	 6.1740
 4.5330	 6.1450
 4.5370	 6.1780
 4.5410	 6.2190
 4.5450	 6.2220
 4.5490	 6.1960
 4.5530	 6.2130
 4.5570	 6.1890
 4.5610	 6.1810
 4.5650	 6.2040
 4.5690	 6.1890
 4.5730	 6.1470
 4.5770	 6.1080
 4.5810	 6.1590
 4.5850	 6.2160
 4.5890	 6.2300
 4.5930	 6.1590
 4.5970	 6.1310
 4.6010	 6.1220
 4.6050	 6.1400
 4.6090	 6.1950
 4.6130	 6.2180
 4.6170	 6.1980
 4.6220	 6.2220
 4.6260	 6.1660
 4.6300	 6.1130
 4.6340	 6.1210
 4.6380	 6.1450
 4.6420	 6.1280
 4.6460	 6.1380
 4.6510	 6.1470
 4.6550	 6.1010
 4.6590	 6.0940
 4.6630	 6.1210
 4.6670	 6.1160
 4.6720	 6.1360
 4.6760	 6.1890
 4.6800	 6.1450
 4.6840	 6.0700
 4.6880	 6.0840
 4.6930	 6.1200
 4.6970	 6.1110
 4.7010	 6.0960
 4.7050	 6.1630
 4.7100	 6.1720
 4.7140	 6.1160
 4.7180	 6.1280
 4.7230	 6.1950
 4.7270	 6.2330
 4.7310	 6.2280
 4.7360	 6.2140
 4.7400	 6.2580
 4.7440	 6.1850
 4.7490	 6.1180
 4.7530	 6.1120
 4.7570	 6.1700
 4.7620	 6.1450
 4.7660	 6.1240
 4.7700	 6.1080
 4.7750	 6.1020
 4.7790	 6.1260
 4.7840	 6.1380
 4.7880	 6.1160
 4.7920	 6.0870
 4.7970	 6.0870
 4.8010	 6.1270
 4.8060	 6.1500
 4.8100	 6.1800
 4.8150	 6.1540
 4.8190	 6.1350
 4.8240	 6.0680
 4.8280	 6.0700
 4.8330	 6.1080
 4.8370	 6.1380
 4.8420	 6.1230
 4.8460	 6.1450
 4.8510	 6.1230
 4.8550	 6.1170
 4.8600	 6.1710
 4.8640	 6.2040
 4.8690	 6.1280
 4.8730	 6.1260
 4.8780	 6.1530
 4.8830	 6.1910
 4.8870	 6.1590
 4.8920	 6.1270
 4.8960	 6.0750
 4.9010	 6.0780
 4.9060	 6.1540
 4.9100	 6.2250
 4.9150	 6.1990
 4.9200	 6.1670
 4.9240	 6.0720
 4.9290	 6.0410
 4.9340	 6.1080
 4.9380	 6.1900
 4.9430	 6.2010
 4.9480	 6.2230
 4.9530	 6.1930
 4.9570	 6.1800
 4.9620	 6.2080
 4.9670	 6.2300
 4.9720	 6.1900
 4.9760	 6.1880
 4.9810	 6.2380
 4.9860	 6.2140
 4.9910	 6.1350
 4.9960	 6.1570
 5.0000	 6.1670
 5.0050	 6.2520
 5.0100	 6.2700
 5.0150	 6.2370
 5.0200	 6.1550
 5.0250	 6.1270
 5.0290	 6.1500
 5.0340	 6.2040
 5.0390	 6.2260
 5.0440	 6.2830
 5.0490	 6.2730
 5.0540	 6.2300
 5.0590	 6.1570
 5.0640	 6.1890
 5.0690	 6.1440
 5.0740	 6.1670
 5.0790	 6.1990
 5.0840	 6.2010
 5.0890	 6.1820
 5.0940	 6.2280
 5.0990	 6.2320
 5.1040	 6.2340
 5.1090	 6.1990
 5.1140	 6.1820
 5.1190	 6.1330
 5.1240	 6.1790
 5.1290	 6.1920
 5.1340	 6.2230
 5.1390	 6.2410
 5.1440	 6.2840
 5.1490	 6.2630
 5.1540	 6.2030
 5.1600	 6.1830
 5.1650	 6.2280
 5.1700	 6.2480
 5.1750	 6.2340
 5.1800	 6.1900
 5.1850	 6.2460
 5.1910	 6.2020
 5.1960	 6.1680
 5.2010	 6.2010
 5.2060	 6.2700
 5.2110	 6.2530
 5.2170	 6.2220
 5.2220	 6.2010
 5.2270	 6.2370
 5.2320	 6.2600
 5.2380	 6.2550
 5.2430	 6.1790
 5.2480	 6.1530
 5.2540	 6.1800
 5.2590	 6.2430
 5.2640	 6.2730
 5.2700	 6.3000
 5.2750	 6.2030
 5.2800	 6.1470
 5.2860	 6.1410
 5.2910	 6.1890
 5.2970	 6.1900
 5.3020	 6.2120
 5.3070	 6.1810
 5.3130	 6.1490
 5.3180	 6.1290
 5.3240	 6.1550
 5.3290	 6.1680
 5.3350	 6.1640
 5.3400	 6.1390
 5.3460	 6.2010
 5.3510	 6.2020
 5.3570	 6.1510
 5.3620	 6.0990
 5.3680	 6.1880
 5.3730	 6.1770
 5.3790	 6.1130
 5.3850	 6.1030
 5.3900	 6.1190
 5.3960	 6.1200
 5.4010	 6.2190
 5.4070	 6.2010
 5.4130	 6.1410
 5.4180	 6.1010
 5.4240	 6.1600
 5.4300	 6.1460
