Name: Salvia leucophylla 2
Type: vegetation
Class: Shrub
Genus: Salvia
Species: leucophylla
Sample No.: VH093
Owner: UCSB
Wavelength Range: VSWIR
Origin: 34.698; -120.0477; WGS84
Collection Date: 4/21/2013
Description: Samples were collected as part of the HyspIRI Airborne Campaign. 48 individual plants were sampled in three times in 2013 - spring  summer  and fall. The name of the sample includes a 1  2  or 3 which references a different individual of the species. Samples were taken to JPL and processed within 48 hours of collection. The same leaves were processed in the Nicolet and then measured using the ASD.
Measurement: Bidirectional reflectance
First Column: X
Second Column: Y
X Units: Wavelength (micrometers)
Y Units: Reflectance (percentage)
First X Value: 0.35
Last X Value: 2.5
Number of X Values: 2151
Additional Information: vegetation.shrub.salvia.leucophylla.vswir.vh093.ucsb.asd.ancillary.txt

 0.3500	 4.2990
 0.3510	 4.0860
 0.3520	 4.1130
 0.3530	 4.2060
 0.3540	 4.1780
 0.3550	 4.1660
 0.3560	 4.2270
 0.3570	 4.2560
 0.3580	 4.1070
 0.3590	 4.0050
 0.3600	 4.0090
 0.3610	 4.1110
 0.3620	 4.2590
 0.3630	 4.2300
 0.3640	 4.1290
 0.3650	 4.1160
 0.3660	 4.1980
 0.3670	 4.3150
 0.3680	 4.3960
 0.3690	 4.3840
 0.3700	 4.4070
 0.3710	 4.4780
 0.3720	 4.5430
 0.3730	 4.4510
 0.3740	 4.4750
 0.3750	 4.5760
 0.3760	 4.6360
 0.3770	 4.7120
 0.3780	 4.7710
 0.3790	 4.8100
 0.3800	 4.8480
 0.3810	 4.9320
 0.3820	 4.9860
 0.3830	 4.9690
 0.3840	 4.9530
 0.3850	 4.9770
 0.3860	 5.0450
 0.3870	 5.1330
 0.3880	 5.1640
 0.3890	 5.2010
 0.3900	 5.2450
 0.3910	 5.2300
 0.3920	 5.2290
 0.3930	 5.2870
 0.3940	 5.3960
 0.3950	 5.4160
 0.3960	 5.4330
 0.3970	 5.4570
 0.3980	 5.4700
 0.3990	 5.5430
 0.4000	 5.6040
 0.4010	 5.6280
 0.4020	 5.6660
 0.4030	 5.6890
 0.4040	 5.7180
 0.4050	 5.7720
 0.4060	 5.8240
 0.4070	 5.8600
 0.4080	 5.8920
 0.4090	 5.9460
 0.4100	 5.9810
 0.4110	 6.0280
 0.4120	 6.0950
 0.4130	 6.1390
 0.4140	 6.2100
 0.4150	 6.2840
 0.4160	 6.3260
 0.4170	 6.3680
 0.4180	 6.4450
 0.4190	 6.5410
 0.4200	 6.6010
 0.4210	 6.6800
 0.4220	 6.7570
 0.4230	 6.8220
 0.4240	 6.9180
 0.4250	 6.9960
 0.4260	 7.0580
 0.4270	 7.1260
 0.4280	 7.1940
 0.4290	 7.2770
 0.4300	 7.3700
 0.4310	 7.4290
 0.4320	 7.5090
 0.4330	 7.5950
 0.4340	 7.6640
 0.4350	 7.7340
 0.4360	 7.7950
 0.4370	 7.8460
 0.4380	 7.8900
 0.4390	 7.9410
 0.4400	 7.9840
 0.4410	 8.0150
 0.4420	 8.0590
 0.4430	 8.1200
 0.4440	 8.1810
 0.4450	 8.2240
 0.4460	 8.2600
 0.4470	 8.3010
 0.4480	 8.3470
 0.4490	 8.3880
 0.4500	 8.4380
 0.4510	 8.4820
 0.4520	 8.5090
 0.4530	 8.5410
 0.4540	 8.5830
 0.4550	 8.6270
 0.4560	 8.6540
 0.4570	 8.6770
 0.4580	 8.7100
 0.4590	 8.7520
 0.4600	 8.7710
 0.4610	 8.7930
 0.4620	 8.8250
 0.4630	 8.8640
 0.4640	 8.8830
 0.4650	 8.9000
 0.4660	 8.9220
 0.4670	 8.9440
 0.4680	 8.9590
 0.4690	 8.9750
 0.4700	 8.9990
 0.4710	 9.0050
 0.4720	 9.0080
 0.4730	 9.0200
 0.4740	 9.0430
 0.4750	 9.0480
 0.4760	 9.0540
 0.4770	 9.0700
 0.4780	 9.0830
 0.4790	 9.1000
 0.4800	 9.1170
 0.4810	 9.1320
 0.4820	 9.1450
 0.4830	 9.1580
 0.4840	 9.1740
 0.4850	 9.1950
 0.4860	 9.2220
 0.4870	 9.2510
 0.4880	 9.2840
 0.4890	 9.3290
 0.4900	 9.3680
 0.4910	 9.4070
 0.4920	 9.4610
 0.4930	 9.5120
 0.4940	 9.5720
 0.4950	 9.6410
 0.4960	 9.7090
 0.4970	 9.7820
 0.4980	 9.8640
 0.4990	 9.9550
 0.5000	10.0530
 0.5010	10.1570
 0.5020	10.2700
 0.5030	10.3980
 0.5040	10.5420
 0.5050	10.6960
 0.5060	10.8610
 0.5070	11.0430
 0.5080	11.2360
 0.5090	11.4400
 0.5100	11.6590
 0.5110	11.8930
 0.5120	12.1480
 0.5130	12.4240
 0.5140	12.7120
 0.5150	13.0010
 0.5160	13.3030
 0.5170	13.6270
 0.5180	13.9610
 0.5190	14.3010
 0.5200	14.6430
 0.5210	14.9890
 0.5220	15.3380
 0.5230	15.6860
 0.5240	16.0300
 0.5250	16.3650
 0.5260	16.6860
 0.5270	16.9940
 0.5280	17.2950
 0.5290	17.5790
 0.5300	17.8500
 0.5310	18.1090
 0.5320	18.3570
 0.5330	18.5930
 0.5340	18.8140
 0.5350	19.0200
 0.5360	19.2100
 0.5370	19.3920
 0.5380	19.5640
 0.5390	19.7240
 0.5400	19.8880
 0.5410	20.0480
 0.5420	20.1980
 0.5430	20.3450
 0.5440	20.4870
 0.5450	20.6170
 0.5460	20.7270
 0.5470	20.8180
 0.5480	20.9050
 0.5490	20.9940
 0.5500	21.0780
 0.5510	21.1550
 0.5520	21.2200
 0.5530	21.2710
 0.5540	21.3050
 0.5550	21.3250
 0.5560	21.3320
 0.5570	21.3280
 0.5580	21.3060
 0.5590	21.2710
 0.5600	21.2260
 0.5610	21.1700
 0.5620	21.1020
 0.5630	21.0250
 0.5640	20.9400
 0.5650	20.8520
 0.5660	20.7520
 0.5670	20.6390
 0.5680	20.5190
 0.5690	20.3920
 0.5700	20.2610
 0.5710	20.1270
 0.5720	19.9940
 0.5730	19.8560
 0.5740	19.7220
 0.5750	19.6090
 0.5760	19.4980
 0.5770	19.3880
 0.5780	19.2820
 0.5790	19.1850
 0.5800	19.0960
 0.5810	19.0130
 0.5820	18.9370
 0.5830	18.8660
 0.5840	18.7940
 0.5850	18.7230
 0.5860	18.6620
 0.5870	18.6030
 0.5880	18.5480
 0.5890	18.4990
 0.5900	18.4500
 0.5910	18.4120
 0.5920	18.3850
 0.5930	18.3630
 0.5940	18.3380
 0.5950	18.3110
 0.5960	18.2870
 0.5970	18.2740
 0.5980	18.2520
 0.5990	18.2240
 0.6000	18.1970
 0.6010	18.1560
 0.6020	18.1110
 0.6030	18.0590
 0.6040	17.9870
 0.6050	17.9160
 0.6060	17.8360
 0.6070	17.7370
 0.6080	17.6420
 0.6090	17.5470
 0.6100	17.4540
 0.6110	17.3650
 0.6120	17.2550
 0.6130	17.1300
 0.6140	17.0030
 0.6150	16.8930
 0.6160	16.7800
 0.6170	16.6700
 0.6180	16.5770
 0.6190	16.4990
 0.6200	16.4290
 0.6210	16.3650
 0.6220	16.3110
 0.6230	16.2670
 0.6240	16.2330
 0.6250	16.2090
 0.6260	16.1860
 0.6270	16.1740
 0.6280	16.1710
 0.6290	16.1730
 0.6300	16.1710
 0.6310	16.1690
 0.6320	16.1640
 0.6330	16.1490
 0.6340	16.1130
 0.6350	16.0600
 0.6360	15.9920
 0.6370	15.9040
 0.6380	15.7890
 0.6390	15.6520
 0.6400	15.5000
 0.6410	15.3300
 0.6420	15.1510
 0.6430	14.9650
 0.6440	14.7680
 0.6450	14.5710
 0.6460	14.3820
 0.6470	14.2050
 0.6480	14.0330
 0.6490	13.8810
 0.6500	13.7490
 0.6510	13.6260
 0.6520	13.5140
 0.6530	13.4090
 0.6540	13.3040
 0.6550	13.1920
 0.6560	13.0740
 0.6570	12.9460
 0.6580	12.7990
 0.6590	12.6400
 0.6600	12.4710
 0.6610	12.2960
 0.6620	12.1240
 0.6630	11.9540
 0.6640	11.7910
 0.6650	11.6400
 0.6660	11.4980
 0.6670	11.3800
 0.6680	11.2840
 0.6690	11.2020
 0.6700	11.1390
 0.6710	11.0930
 0.6720	11.0620
 0.6730	11.0470
 0.6740	11.0450
 0.6750	11.0550
 0.6760	11.0780
 0.6770	11.1160
 0.6780	11.1650
 0.6790	11.2280
 0.6800	11.3120
 0.6810	11.4250
 0.6820	11.5720
 0.6830	11.7590
 0.6840	11.9900
 0.6850	12.2830
 0.6860	12.6490
 0.6870	13.0890
 0.6880	13.6150
 0.6890	14.2300
 0.6900	14.9400
 0.6910	15.7540
 0.6920	16.6570
 0.6930	17.6450
 0.6940	18.7080
 0.6950	19.8360
 0.6960	21.0140
 0.6970	22.2310
 0.6980	23.4740
 0.6990	24.7270
 0.7000	25.9810
 0.7010	27.2230
 0.7020	28.4290
 0.7030	29.6030
 0.7040	30.7420
 0.7050	31.8370
 0.7060	32.8750
 0.7070	33.8640
 0.7080	34.8080
 0.7090	35.7060
 0.7100	36.5560
 0.7110	37.3680
 0.7120	38.1440
 0.7130	38.8740
 0.7140	39.5660
 0.7150	40.2250
 0.7160	40.8520
 0.7170	41.4480
 0.7180	42.0110
 0.7190	42.5440
 0.7200	43.0520
 0.7210	43.5340
 0.7220	43.9890
 0.7230	44.4190
 0.7240	44.8240
 0.7250	45.2030
 0.7260	45.5570
 0.7270	45.8910
 0.7280	46.2130
 0.7290	46.5120
 0.7300	46.7890
 0.7310	47.0530
 0.7320	47.2960
 0.7330	47.5270
 0.7340	47.7450
 0.7350	47.9480
 0.7360	48.1400
 0.7370	48.3230
 0.7380	48.4940
 0.7390	48.6540
 0.7400	48.8060
 0.7410	48.9470
 0.7420	49.0780
 0.7430	49.2030
 0.7440	49.3220
 0.7450	49.4340
 0.7460	49.5370
 0.7470	49.6320
 0.7480	49.7250
 0.7490	49.8150
 0.7500	49.8970
 0.7510	49.9720
 0.7520	50.0440
 0.7530	50.1130
 0.7540	50.1730
 0.7550	50.2320
 0.7560	50.2940
 0.7570	50.3580
 0.7580	50.4090
 0.7590	50.4580
 0.7600	50.5110
 0.7610	50.5590
 0.7620	50.6090
 0.7630	50.6550
 0.7640	50.6930
 0.7650	50.7450
 0.7660	50.7910
 0.7670	50.8300
 0.7680	50.8720
 0.7690	50.9150
 0.7700	50.9580
 0.7710	51.0000
 0.7720	51.0470
 0.7730	51.0860
 0.7740	51.1210
 0.7750	51.1580
 0.7760	51.1980
 0.7770	51.2420
 0.7780	51.2830
 0.7790	51.3190
 0.7800	51.3630
 0.7810	51.4080
 0.7820	51.4520
 0.7830	51.4930
 0.7840	51.5370
 0.7850	51.5790
 0.7860	51.6170
 0.7870	51.6570
 0.7880	51.6970
 0.7890	51.7360
 0.7900	51.7740
 0.7910	51.8130
 0.7920	51.8510
 0.7930	51.8900
 0.7940	51.9370
 0.7950	51.9730
 0.7960	52.0020
 0.7970	52.0300
 0.7980	52.0650
 0.7990	52.0960
 0.8000	52.1240
 0.8010	52.1560
 0.8020	52.1840
 0.8030	52.2160
 0.8040	52.2510
 0.8050	52.2820
 0.8060	52.3070
 0.8070	52.3320
 0.8080	52.3570
 0.8090	52.3740
 0.8100	52.4000
 0.8110	52.4220
 0.8120	52.4350
 0.8130	52.4550
 0.8140	52.4770
 0.8150	52.4970
 0.8160	52.5170
 0.8170	52.5330
 0.8180	52.5460
 0.8190	52.5600
 0.8200	52.5740
 0.8210	52.5770
 0.8220	52.5860
 0.8230	52.6030
 0.8240	52.6120
 0.8250	52.6240
 0.8260	52.6370
 0.8270	52.6460
 0.8280	52.6490
 0.8290	52.6560
 0.8300	52.6620
 0.8310	52.6630
 0.8320	52.6750
 0.8330	52.6880
 0.8340	52.6930
 0.8350	52.6890
 0.8360	52.6990
 0.8370	52.7130
 0.8380	52.7230
 0.8390	52.7280
 0.8400	52.7350
 0.8410	52.7480
 0.8420	52.7630
 0.8430	52.7680
 0.8440	52.7800
 0.8450	52.7940
 0.8460	52.8040
 0.8470	52.8110
 0.8480	52.8280
 0.8490	52.8480
 0.8500	52.8610
 0.8510	52.8640
 0.8520	52.8750
 0.8530	52.8950
 0.8540	52.9140
 0.8550	52.9320
 0.8560	52.9530
 0.8570	52.9750
 0.8580	52.9860
 0.8590	53.0000
 0.8600	53.0180
 0.8610	53.0380
 0.8620	53.0570
 0.8630	53.0780
 0.8640	53.1010
 0.8650	53.1220
 0.8660	53.1390
 0.8670	53.1630
 0.8680	53.1930
 0.8690	53.2240
 0.8700	53.2400
 0.8710	53.2630
 0.8720	53.2940
 0.8730	53.3230
 0.8740	53.3490
 0.8750	53.3780
 0.8760	53.4100
 0.8770	53.4350
 0.8780	53.4660
 0.8790	53.5040
 0.8800	53.5440
 0.8810	53.5660
 0.8820	53.5980
 0.8830	53.6340
 0.8840	53.6680
 0.8850	53.6960
 0.8860	53.7460
 0.8870	53.7920
 0.8880	53.8120
 0.8890	53.8480
 0.8900	53.8860
 0.8910	53.9240
 0.8920	53.9580
 0.8930	53.9920
 0.8940	54.0310
 0.8950	54.0720
 0.8960	54.1030
 0.8970	54.1440
 0.8980	54.1770
 0.8990	54.2040
 0.9000	54.2420
 0.9010	54.2770
 0.9020	54.3140
 0.9030	54.3550
 0.9040	54.3940
 0.9050	54.4330
 0.9060	54.4610
 0.9070	54.4800
 0.9080	54.5240
 0.9090	54.5640
 0.9100	54.5990
 0.9110	54.6300
 0.9120	54.6530
 0.9130	54.6880
 0.9140	54.7250
 0.9150	54.7510
 0.9160	54.7730
 0.9170	54.8010
 0.9180	54.8330
 0.9190	54.8640
 0.9200	54.8930
 0.9210	54.9230
 0.9220	54.9470
 0.9230	54.9590
 0.9240	54.9870
 0.9250	55.0050
 0.9260	55.0160
 0.9270	55.0390
 0.9280	55.0490
 0.9290	55.0680
 0.9300	55.0900
 0.9310	55.0810
 0.9320	55.0830
 0.9330	55.0910
 0.9340	55.1000
 0.9350	55.1130
 0.9360	55.1120
 0.9370	55.1070
 0.9380	55.1090
 0.9390	55.1220
 0.9400	55.1290
 0.9410	55.1270
 0.9420	55.1170
 0.9430	55.0990
 0.9440	55.0750
 0.9450	55.0600
 0.9460	55.0550
 0.9470	55.0320
 0.9480	54.9970
 0.9490	54.9660
 0.9500	54.9480
 0.9510	54.9290
 0.9520	54.8830
 0.9530	54.8360
 0.9540	54.8100
 0.9550	54.7710
 0.9560	54.7320
 0.9570	54.6920
 0.9580	54.6530
 0.9590	54.6220
 0.9600	54.5960
 0.9610	54.5790
 0.9620	54.5640
 0.9630	54.5210
 0.9640	54.4970
 0.9650	54.4910
 0.9660	54.4870
 0.9670	54.4890
 0.9680	54.4850
 0.9690	54.4770
 0.9700	54.4740
 0.9710	54.4740
 0.9720	54.4670
 0.9730	54.4610
 0.9740	54.4670
 0.9750	54.4510
 0.9760	54.4490
 0.9770	54.4610
 0.9780	54.4690
 0.9790	54.4710
 0.9800	54.4900
 0.9810	54.5090
 0.9820	54.5030
 0.9830	54.5240
 0.9840	54.5440
 0.9850	54.5510
 0.9860	54.5500
 0.9870	54.5850
 0.9880	54.6110
 0.9890	54.6220
 0.9900	54.6340
 0.9910	54.6610
 0.9920	54.7350
 0.9930	54.8100
 0.9940	54.8850
 0.9950	54.9590
 0.9960	55.0340
 0.9970	55.1090
 0.9980	55.1840
 0.9990	55.2580
 1.0000	55.3330
 1.0010	55.4080
 1.0020	55.4820
 1.0030	55.5570
 1.0040	55.6320
 1.0050	55.7060
 1.0060	55.7810
 1.0070	55.8560
 1.0080	55.9300
 1.0090	56.0050
 1.0100	56.0050
 1.0110	56.0280
 1.0120	56.0460
 1.0130	56.0590
 1.0140	56.0770
 1.0150	56.0990
 1.0160	56.1160
 1.0170	56.1300
 1.0180	56.1510
 1.0190	56.1670
 1.0200	56.1820
 1.0210	56.2040
 1.0220	56.2240
 1.0230	56.2420
 1.0240	56.2550
 1.0250	56.2710
 1.0260	56.2850
 1.0270	56.3020
 1.0280	56.3240
 1.0290	56.3430
 1.0300	56.3640
 1.0310	56.3810
 1.0320	56.3960
 1.0330	56.4050
 1.0340	56.4170
 1.0350	56.4340
 1.0360	56.4510
 1.0370	56.4670
 1.0380	56.4820
 1.0390	56.4930
 1.0400	56.5060
 1.0410	56.5220
 1.0420	56.5340
 1.0430	56.5420
 1.0440	56.5520
 1.0450	56.5620
 1.0460	56.5700
 1.0470	56.5760
 1.0480	56.5860
 1.0490	56.5970
 1.0500	56.6070
 1.0510	56.6220
 1.0520	56.6340
 1.0530	56.6420
 1.0540	56.6460
 1.0550	56.6520
 1.0560	56.6580
 1.0570	56.6640
 1.0580	56.6690
 1.0590	56.6760
 1.0600	56.6830
 1.0610	56.6890
 1.0620	56.6920
 1.0630	56.7000
 1.0640	56.7150
 1.0650	56.7230
 1.0660	56.7330
 1.0670	56.7390
 1.0680	56.7420
 1.0690	56.7350
 1.0700	56.7370
 1.0710	56.7400
 1.0720	56.7430
 1.0730	56.7470
 1.0740	56.7490
 1.0750	56.7500
 1.0760	56.7490
 1.0770	56.7470
 1.0780	56.7450
 1.0790	56.7420
 1.0800	56.7400
 1.0810	56.7380
 1.0820	56.7360
 1.0830	56.7330
 1.0840	56.7320
 1.0850	56.7290
 1.0860	56.7290
 1.0870	56.7280
 1.0880	56.7280
 1.0890	56.7260
 1.0900	56.7230
 1.0910	56.7180
 1.0920	56.7100
 1.0930	56.7050
 1.0940	56.7020
 1.0950	56.6950
 1.0960	56.6880
 1.0970	56.6810
 1.0980	56.6680
 1.0990	56.6610
 1.1000	56.6610
 1.1010	56.6540
 1.1020	56.6460
 1.1030	56.6370
 1.1040	56.6240
 1.1050	56.6120
 1.1060	56.6050
 1.1070	56.6020
 1.1080	56.5950
 1.1090	56.5890
 1.1100	56.5790
 1.1110	56.5670
 1.1120	56.5550
 1.1130	56.5430
 1.1140	56.5290
 1.1150	56.5180
 1.1160	56.5010
 1.1170	56.4810
 1.1180	56.4620
 1.1190	56.4430
 1.1200	56.4230
 1.1210	56.4010
 1.1220	56.3790
 1.1230	56.3490
 1.1240	56.3150
 1.1250	56.2790
 1.1260	56.2420
 1.1270	56.1960
 1.1280	56.1480
 1.1290	56.0920
 1.1300	56.0270
 1.1310	55.9590
 1.1320	55.8860
 1.1330	55.8060
 1.1340	55.7190
 1.1350	55.6280
 1.1360	55.5340
 1.1370	55.4280
 1.1380	55.3200
 1.1390	55.2090
 1.1400	55.0910
 1.1410	54.9720
 1.1420	54.8510
 1.1430	54.7260
 1.1440	54.6040
 1.1450	54.4800
 1.1460	54.3600
 1.1470	54.2400
 1.1480	54.1270
 1.1490	54.0160
 1.1500	53.9140
 1.1510	53.8180
 1.1520	53.7280
 1.1530	53.6430
 1.1540	53.5660
 1.1550	53.4940
 1.1560	53.4280
 1.1570	53.3740
 1.1580	53.3250
 1.1590	53.2780
 1.1600	53.2370
 1.1610	53.1990
 1.1620	53.1650
 1.1630	53.1380
 1.1640	53.1150
 1.1650	53.0930
 1.1660	53.0750
 1.1670	53.0540
 1.1680	53.0340
 1.1690	53.0160
 1.1700	52.9970
 1.1710	52.9800
 1.1720	52.9670
 1.1730	52.9520
 1.1740	52.9380
 1.1750	52.9210
 1.1760	52.9020
 1.1770	52.8860
 1.1780	52.8670
 1.1790	52.8500
 1.1800	52.8350
 1.1810	52.8200
 1.1820	52.8040
 1.1830	52.7890
 1.1840	52.7730
 1.1850	52.7570
 1.1860	52.7430
 1.1870	52.7300
 1.1880	52.7190
 1.1890	52.7080
 1.1900	52.7020
 1.1910	52.6980
 1.1920	52.6980
 1.1930	52.7020
 1.1940	52.7050
 1.1950	52.7100
 1.1960	52.7160
 1.1970	52.7250
 1.1980	52.7350
 1.1990	52.7430
 1.2000	52.7500
 1.2010	52.7590
 1.2020	52.7690
 1.2030	52.7830
 1.2040	52.8010
 1.2050	52.8200
 1.2060	52.8380
 1.2070	52.8590
 1.2080	52.8810
 1.2090	52.9020
 1.2100	52.9260
 1.2110	52.9510
 1.2120	52.9760
 1.2130	53.0030
 1.2140	53.0320
 1.2150	53.0590
 1.2160	53.0860
 1.2170	53.1160
 1.2180	53.1460
 1.2190	53.1750
 1.2200	53.2030
 1.2210	53.2340
 1.2220	53.2630
 1.2230	53.2920
 1.2240	53.3220
 1.2250	53.3480
 1.2260	53.3740
 1.2270	53.4030
 1.2280	53.4300
 1.2290	53.4570
 1.2300	53.4830
 1.2310	53.5040
 1.2320	53.5240
 1.2330	53.5450
 1.2340	53.5650
 1.2350	53.5820
 1.2360	53.6020
 1.2370	53.6250
 1.2380	53.6460
 1.2390	53.6640
 1.2400	53.6820
 1.2410	53.6950
 1.2420	53.7080
 1.2430	53.7250
 1.2440	53.7380
 1.2450	53.7510
 1.2460	53.7660
 1.2470	53.7770
 1.2480	53.7920
 1.2490	53.8080
 1.2500	53.8190
 1.2510	53.8310
 1.2520	53.8410
 1.2530	53.8480
 1.2540	53.8560
 1.2550	53.8630
 1.2560	53.8690
 1.2570	53.8750
 1.2580	53.8810
 1.2590	53.8860
 1.2600	53.8870
 1.2610	53.8890
 1.2620	53.8900
 1.2630	53.8870
 1.2640	53.8840
 1.2650	53.8840
 1.2660	53.8820
 1.2670	53.8810
 1.2680	53.8820
 1.2690	53.8790
 1.2700	53.8740
 1.2710	53.8660
 1.2720	53.8570
 1.2730	53.8500
 1.2740	53.8420
 1.2750	53.8330
 1.2760	53.8230
 1.2770	53.8110
 1.2780	53.7970
 1.2790	53.7840
 1.2800	53.7700
 1.2810	53.7550
 1.2820	53.7380
 1.2830	53.7190
 1.2840	53.6980
 1.2850	53.6770
 1.2860	53.6540
 1.2870	53.6280
 1.2880	53.5990
 1.2890	53.5700
 1.2900	53.5380
 1.2910	53.5030
 1.2920	53.4700
 1.2930	53.4340
 1.2940	53.3990
 1.2950	53.3610
 1.2960	53.3220
 1.2970	53.2790
 1.2980	53.2310
 1.2990	53.1830
 1.3000	53.1340
 1.3010	53.0830
 1.3020	53.0310
 1.3030	52.9750
 1.3040	52.9150
 1.3050	52.8520
 1.3060	52.7880
 1.3070	52.7210
 1.3080	52.6530
 1.3090	52.5870
 1.3100	52.5160
 1.3110	52.4430
 1.3120	52.3700
 1.3130	52.2880
 1.3140	52.2040
 1.3150	52.1180
 1.3160	52.0280
 1.3170	51.9320
 1.3180	51.8360
 1.3190	51.7390
 1.3200	51.6380
 1.3210	51.5350
 1.3220	51.4310
 1.3230	51.3220
 1.3240	51.2080
 1.3250	51.0960
 1.3260	50.9780
 1.3270	50.8590
 1.3280	50.7400
 1.3290	50.6140
 1.3300	50.4920
 1.3310	50.3680
 1.3320	50.2400
 1.3330	50.1140
 1.3340	49.9840
 1.3350	49.8530
 1.3360	49.7230
 1.3370	49.5900
 1.3380	49.4570
 1.3390	49.3240
 1.3400	49.1900
 1.3410	49.0590
 1.3420	48.9290
 1.3430	48.7990
 1.3440	48.6690
 1.3450	48.5390
 1.3460	48.4080
 1.3470	48.2780
 1.3480	48.1490
 1.3490	48.0200
 1.3500	47.8920
 1.3510	47.7620
 1.3520	47.6320
 1.3530	47.5010
 1.3540	47.3690
 1.3550	47.2400
 1.3560	47.1100
 1.3570	46.9800
 1.3580	46.8490
 1.3590	46.7140
 1.3600	46.5740
 1.3610	46.4330
 1.3620	46.2870
 1.3630	46.1360
 1.3640	45.9790
 1.3650	45.8130
 1.3660	45.6410
 1.3670	45.4580
 1.3680	45.2620
 1.3690	45.0560
 1.3700	44.8350
 1.3710	44.5990
 1.3720	44.3500
 1.3730	44.0820
 1.3740	43.7970
 1.3750	43.4930
 1.3760	43.1660
 1.3770	42.8170
 1.3780	42.4380
 1.3790	42.0350
 1.3800	41.6100
 1.3810	41.1560
 1.3820	40.6840
 1.3830	40.1930
 1.3840	39.6780
 1.3850	39.1420
 1.3860	38.5870
 1.3870	38.0060
 1.3880	37.4180
 1.3890	36.8140
 1.3900	36.1980
 1.3910	35.5800
 1.3920	34.9560
 1.3930	34.3250
 1.3940	33.6960
 1.3950	33.0640
 1.3960	32.4390
 1.3970	31.8260
 1.3980	31.2220
 1.3990	30.6420
 1.4000	30.0760
 1.4010	29.5240
 1.4020	28.9960
 1.4030	28.4810
 1.4040	27.9900
 1.4050	27.5260
 1.4060	27.0810
 1.4070	26.6670
 1.4080	26.2760
 1.4090	25.9070
 1.4100	25.5650
 1.4110	25.2440
 1.4120	24.9450
 1.4130	24.6680
 1.4140	24.4120
 1.4150	24.1790
 1.4160	23.9640
 1.4170	23.7660
 1.4180	23.5850
 1.4190	23.4180
 1.4200	23.2650
 1.4210	23.1270
 1.4220	23.0010
 1.4230	22.8890
 1.4240	22.7900
 1.4250	22.6980
 1.4260	22.6180
 1.4270	22.5450
 1.4280	22.4800
 1.4290	22.4220
 1.4300	22.3740
 1.4310	22.3320
 1.4320	22.3000
 1.4330	22.2720
 1.4340	22.2510
 1.4350	22.2350
 1.4360	22.2230
 1.4370	22.2160
 1.4380	22.2130
 1.4390	22.2140
 1.4400	22.2190
 1.4410	22.2260
 1.4420	22.2360
 1.4430	22.2490
 1.4440	22.2650
 1.4450	22.2830
 1.4460	22.3040
 1.4470	22.3280
 1.4480	22.3510
 1.4490	22.3770
 1.4500	22.4020
 1.4510	22.4280
 1.4520	22.4580
 1.4530	22.4880
 1.4540	22.5220
 1.4550	22.5580
 1.4560	22.5950
 1.4570	22.6360
 1.4580	22.6800
 1.4590	22.7290
 1.4600	22.7830
 1.4610	22.8410
 1.4620	22.9050
 1.4630	22.9750
 1.4640	23.0480
 1.4650	23.1280
 1.4660	23.2140
 1.4670	23.3040
 1.4680	23.4020
 1.4690	23.5050
 1.4700	23.6130
